Created as New Dataset,Sample 001 By Administrator Date Monday, March 20 2023
cm-1,A
4000.00,0.0193
3999.00,0.0193
3998.00,0.0193
3997.00,0.0193
3996.00,0.0193
3995.00,0.0194
3994.00,0.0194
3993.00,0.0194
3992.00,0.0194
3991.00,0.0194
3990.00,0.0194
3989.00,0.0194
3988.00,0.0194
3987.00,0.0194
3986.00,0.0194
3985.00,0.0193
3984.00,0.0193
3983.00,0.0193
3982.00,0.0193
3981.00,0.0193
3980.00,0.0193
3979.00,0.0193
3978.00,0.0193
3977.00,0.0193
3976.00,0.0193
3975.00,0.0193
3974.00,0.0193
3973.00,0.0193
3972.00,0.0193
3971.00,0.0193
3970.00,0.0193
3969.00,0.0193
3968.00,0.0193
3967.00,0.0193
3966.00,0.0193
3965.00,0.0193
3964.00,0.0193
3963.00,0.0193
3962.00,0.0193
3961.00,0.0193
3960.00,0.0193
3959.00,0.0193
3958.00,0.0193
3957.00,0.0193
3956.00,0.0193
3955.00,0.0193
3954.00,0.0193
3953.00,0.0192
3952.00,0.0192
3951.00,0.0192
3950.00,0.0192
3949.00,0.0192
3948.00,0.0192
3947.00,0.0192
3946.00,0.0192
3945.00,0.0192
3944.00,0.0192
3943.00,0.0192
3942.00,0.0192
3941.00,0.0192
3940.00,0.0192
3939.00,0.0192
3938.00,0.0192
3937.00,0.0192
3936.00,0.0192
3935.00,0.0192
3934.00,0.0192
3933.00,0.0192
3932.00,0.0192
3931.00,0.0192
3930.00,0.0192
3929.00,0.0192
3928.00,0.0192
3927.00,0.0192
3926.00,0.0192
3925.00,0.0192
3924.00,0.0191
3923.00,0.0191
3922.00,0.0191
3921.00,0.0191
3920.00,0.0191
3919.00,0.0191
3918.00,0.0191
3917.00,0.0191
3916.00,0.0191
3915.00,0.0191
3914.00,0.0191
3913.00,0.0191
3912.00,0.0191
3911.00,0.0191
3910.00,0.0190
3909.00,0.0190
3908.00,0.0190
3907.00,0.0191
3906.00,0.0191
3905.00,0.0191
3904.00,0.0190
3903.00,0.0190
3902.00,0.0190
3901.00,0.0190
3900.00,0.0191
3899.00,0.0191
3898.00,0.0191
3897.00,0.0191
3896.00,0.0190
3895.00,0.0190
3894.00,0.0190
3893.00,0.0190
3892.00,0.0190
3891.00,0.0190
3890.00,0.0189
3889.00,0.0189
3888.00,0.0189
3887.00,0.0189
3886.00,0.0190
3885.00,0.0190
3884.00,0.0190
3883.00,0.0190
3882.00,0.0190
3881.00,0.0190
3880.00,0.0190
3879.00,0.0189
3878.00,0.0189
3877.00,0.0189
3876.00,0.0189
3875.00,0.0188
3874.00,0.0188
3873.00,0.0188
3872.00,0.0188
3871.00,0.0188
3870.00,0.0189
3869.00,0.0189
3868.00,0.0189
3867.00,0.0189
3866.00,0.0189
3865.00,0.0189
3864.00,0.0189
3863.00,0.0189
3862.00,0.0188
3861.00,0.0188
3860.00,0.0188
3859.00,0.0188
3858.00,0.0188
3857.00,0.0187
3856.00,0.0187
3855.00,0.0187
3854.00,0.0187
3853.00,0.0188
3852.00,0.0188
3851.00,0.0188
3850.00,0.0188
3849.00,0.0188
3848.00,0.0188
3847.00,0.0188
3846.00,0.0188
3845.00,0.0187
3844.00,0.0187
3843.00,0.0187
3842.00,0.0186
3841.00,0.0186
3840.00,0.0186
3839.00,0.0186
3838.00,0.0187
3837.00,0.0187
3836.00,0.0187
3835.00,0.0187
3834.00,0.0187
3833.00,0.0187
3832.00,0.0187
3831.00,0.0186
3830.00,0.0186
3829.00,0.0186
3828.00,0.0186
3827.00,0.0186
3826.00,0.0185
3825.00,0.0185
3824.00,0.0185
3823.00,0.0185
3822.00,0.0185
3821.00,0.0185
3820.00,0.0185
3819.00,0.0185
3818.00,0.0185
3817.00,0.0185
3816.00,0.0185
3815.00,0.0185
3814.00,0.0185
3813.00,0.0185
3812.00,0.0184
3811.00,0.0184
3810.00,0.0184
3809.00,0.0184
3808.00,0.0184
3807.00,0.0184
3806.00,0.0184
3805.00,0.0184
3804.00,0.0184
3803.00,0.0184
3802.00,0.0184
3801.00,0.0184
3800.00,0.0184
3799.00,0.0184
3798.00,0.0184
3797.00,0.0184
3796.00,0.0183
3795.00,0.0183
3794.00,0.0183
3793.00,0.0182
3792.00,0.0182
3791.00,0.0182
3790.00,0.0182
3789.00,0.0182
3788.00,0.0182
3787.00,0.0182
3786.00,0.0182
3785.00,0.0182
3784.00,0.0181
3783.00,0.0181
3782.00,0.0181
3781.00,0.0181
3780.00,0.0181
3779.00,0.0181
3778.00,0.0181
3777.00,0.0181
3776.00,0.0180
3775.00,0.0180
3774.00,0.0180
3773.00,0.0180
3772.00,0.0180
3771.00,0.0180
3770.00,0.0180
3769.00,0.0180
3768.00,0.0180
3767.00,0.0180
3766.00,0.0180
3765.00,0.0180
3764.00,0.0179
3763.00,0.0179
3762.00,0.0179
3761.00,0.0179
3760.00,0.0179
3759.00,0.0179
3758.00,0.0179
3757.00,0.0179
3756.00,0.0179
3755.00,0.0179
3754.00,0.0179
3753.00,0.0179
3752.00,0.0178
3751.00,0.0178
3750.00,0.0178
3749.00,0.0178
3748.00,0.0178
3747.00,0.0178
3746.00,0.0178
3745.00,0.0177
3744.00,0.0177
3743.00,0.0177
3742.00,0.0177
3741.00,0.0177
3740.00,0.0177
3739.00,0.0177
3738.00,0.0176
3737.00,0.0176
3736.00,0.0176
3735.00,0.0176
3734.00,0.0175
3733.00,0.0175
3732.00,0.0175
3731.00,0.0175
3730.00,0.0174
3729.00,0.0174
3728.00,0.0174
3727.00,0.0174
3726.00,0.0174
3725.00,0.0174
3724.00,0.0174
3723.00,0.0174
3722.00,0.0173
3721.00,0.0173
3720.00,0.0173
3719.00,0.0173
3718.00,0.0173
3717.00,0.0173
3716.00,0.0173
3715.00,0.0173
3714.00,0.0172
3713.00,0.0172
3712.00,0.0172
3711.00,0.0172
3710.00,0.0172
3709.00,0.0172
3708.00,0.0172
3707.00,0.0172
3706.00,0.0172
3705.00,0.0172
3704.00,0.0172
3703.00,0.0172
3702.00,0.0172
3701.00,0.0172
3700.00,0.0172
3699.00,0.0172
3698.00,0.0172
3697.00,0.0172
3696.00,0.0172
3695.00,0.0172
3694.00,0.0172
3693.00,0.0172
3692.00,0.0172
3691.00,0.0171
3690.00,0.0171
3689.00,0.0171
3688.00,0.0170
3687.00,0.0170
3686.00,0.0170
3685.00,0.0170
3684.00,0.0170
3683.00,0.0170
3682.00,0.0170
3681.00,0.0170
3680.00,0.0170
3679.00,0.0170
3678.00,0.0169
3677.00,0.0169
3676.00,0.0169
3675.00,0.0169
3674.00,0.0169
3673.00,0.0169
3672.00,0.0170
3671.00,0.0171
3670.00,0.0171
3669.00,0.0171
3668.00,0.0171
3667.00,0.0171
3666.00,0.0171
3665.00,0.0171
3664.00,0.0172
3663.00,0.0172
3662.00,0.0172
3661.00,0.0173
3660.00,0.0173
3659.00,0.0174
3658.00,0.0174
3657.00,0.0175
3656.00,0.0175
3655.00,0.0176
3654.00,0.0176
3653.00,0.0177
3652.00,0.0177
3651.00,0.0178
3650.00,0.0179
3649.00,0.0179
3648.00,0.0180
3647.00,0.0180
3646.00,0.0181
3645.00,0.0181
3644.00,0.0182
3643.00,0.0182
3642.00,0.0183
3641.00,0.0183
3640.00,0.0183
3639.00,0.0184
3638.00,0.0184
3637.00,0.0185
3636.00,0.0185
3635.00,0.0186
3634.00,0.0186
3633.00,0.0187
3632.00,0.0187
3631.00,0.0188
3630.00,0.0188
3629.00,0.0189
3628.00,0.0189
3627.00,0.0190
3626.00,0.0190
3625.00,0.0191
3624.00,0.0192
3623.00,0.0193
3622.00,0.0194
3621.00,0.0195
3620.00,0.0195
3619.00,0.0196
3618.00,0.0196
3617.00,0.0197
3616.00,0.0197
3615.00,0.0198
3614.00,0.0198
3613.00,0.0198
3612.00,0.0199
3611.00,0.0199
3610.00,0.0200
3609.00,0.0200
3608.00,0.0201
3607.00,0.0201
3606.00,0.0201
3605.00,0.0202
3604.00,0.0202
3603.00,0.0203
3602.00,0.0204
3601.00,0.0204
3600.00,0.0205
3599.00,0.0205
3598.00,0.0206
3597.00,0.0206
3596.00,0.0206
3595.00,0.0206
3594.00,0.0207
3593.00,0.0207
3592.00,0.0208
3591.00,0.0208
3590.00,0.0209
3589.00,0.0210
3588.00,0.0210
3587.00,0.0211
3586.00,0.0211
3585.00,0.0211
3584.00,0.0212
3583.00,0.0212
3582.00,0.0213
3581.00,0.0213
3580.00,0.0214
3579.00,0.0214
3578.00,0.0215
3577.00,0.0215
3576.00,0.0216
3575.00,0.0216
3574.00,0.0217
3573.00,0.0217
3572.00,0.0218
3571.00,0.0218
3570.00,0.0219
3569.00,0.0219
3568.00,0.0220
3567.00,0.0221
3566.00,0.0221
3565.00,0.0221
3564.00,0.0222
3563.00,0.0222
3562.00,0.0223
3561.00,0.0224
3560.00,0.0224
3559.00,0.0224
3558.00,0.0225
3557.00,0.0225
3556.00,0.0226
3555.00,0.0226
3554.00,0.0227
3553.00,0.0228
3552.00,0.0228
3551.00,0.0229
3550.00,0.0229
3549.00,0.0230
3548.00,0.0230
3547.00,0.0231
3546.00,0.0232
3545.00,0.0232
3544.00,0.0232
3543.00,0.0232
3542.00,0.0233
3541.00,0.0233
3540.00,0.0234
3539.00,0.0234
3538.00,0.0235
3537.00,0.0235
3536.00,0.0236
3535.00,0.0237
3534.00,0.0237
3533.00,0.0238
3532.00,0.0238
3531.00,0.0238
3530.00,0.0239
3529.00,0.0239
3528.00,0.0239
3527.00,0.0240
3526.00,0.0241
3525.00,0.0241
3524.00,0.0242
3523.00,0.0242
3522.00,0.0243
3521.00,0.0243
3520.00,0.0243
3519.00,0.0244
3518.00,0.0244
3517.00,0.0245
3516.00,0.0245
3515.00,0.0246
3514.00,0.0246
3513.00,0.0247
3512.00,0.0247
3511.00,0.0248
3510.00,0.0248
3509.00,0.0249
3508.00,0.0249
3507.00,0.0249
3506.00,0.0250
3505.00,0.0250
3504.00,0.0251
3503.00,0.0251
3502.00,0.0252
3501.00,0.0252
3500.00,0.0252
3499.00,0.0253
3498.00,0.0253
3497.00,0.0254
3496.00,0.0254
3495.00,0.0255
3494.00,0.0255
3493.00,0.0255
3492.00,0.0256
3491.00,0.0256
3490.00,0.0257
3489.00,0.0257
3488.00,0.0258
3487.00,0.0259
3486.00,0.0259
3485.00,0.0260
3484.00,0.0260
3483.00,0.0260
3482.00,0.0260
3481.00,0.0261
3480.00,0.0261
3479.00,0.0262
3478.00,0.0262
3477.00,0.0263
3476.00,0.0264
3475.00,0.0264
3474.00,0.0264
3473.00,0.0264
3472.00,0.0265
3471.00,0.0265
3470.00,0.0265
3469.00,0.0266
3468.00,0.0267
3467.00,0.0267
3466.00,0.0268
3465.00,0.0268
3464.00,0.0268
3463.00,0.0269
3462.00,0.0269
3461.00,0.0270
3460.00,0.0270
3459.00,0.0271
3458.00,0.0271
3457.00,0.0271
3456.00,0.0272
3455.00,0.0272
3454.00,0.0273
3453.00,0.0273
3452.00,0.0273
3451.00,0.0274
3450.00,0.0274
3449.00,0.0275
3448.00,0.0275
3447.00,0.0276
3446.00,0.0276
3445.00,0.0277
3444.00,0.0277
3443.00,0.0277
3442.00,0.0278
3441.00,0.0278
3440.00,0.0278
3439.00,0.0278
3438.00,0.0278
3437.00,0.0279
3436.00,0.0279
3435.00,0.0280
3434.00,0.0280
3433.00,0.0281
3432.00,0.0281
3431.00,0.0281
3430.00,0.0282
3429.00,0.0282
3428.00,0.0283
3427.00,0.0283
3426.00,0.0284
3425.00,0.0285
3424.00,0.0285
3423.00,0.0285
3422.00,0.0286
3421.00,0.0286
3420.00,0.0286
3419.00,0.0286
3418.00,0.0286
3417.00,0.0286
3416.00,0.0287
3415.00,0.0287
3414.00,0.0288
3413.00,0.0288
3412.00,0.0288
3411.00,0.0288
3410.00,0.0289
3409.00,0.0289
3408.00,0.0289
3407.00,0.0290
3406.00,0.0290
3405.00,0.0290
3404.00,0.0291
3403.00,0.0291
3402.00,0.0291
3401.00,0.0291
3400.00,0.0292
3399.00,0.0292
3398.00,0.0293
3397.00,0.0293
3396.00,0.0293
3395.00,0.0293
3394.00,0.0294
3393.00,0.0294
3392.00,0.0294
3391.00,0.0294
3390.00,0.0295
3389.00,0.0295
3388.00,0.0295
3387.00,0.0296
3386.00,0.0296
3385.00,0.0296
3384.00,0.0296
3383.00,0.0297
3382.00,0.0297
3381.00,0.0297
3380.00,0.0297
3379.00,0.0298
3378.00,0.0298
3377.00,0.0298
3376.00,0.0298
3375.00,0.0299
3374.00,0.0299
3373.00,0.0299
3372.00,0.0299
3371.00,0.0299
3370.00,0.0299
3369.00,0.0299
3368.00,0.0299
3367.00,0.0299
3366.00,0.0300
3365.00,0.0301
3364.00,0.0301
3363.00,0.0301
3362.00,0.0301
3361.00,0.0301
3360.00,0.0301
3359.00,0.0301
3358.00,0.0302
3357.00,0.0302
3356.00,0.0302
3355.00,0.0302
3354.00,0.0302
3353.00,0.0302
3352.00,0.0302
3351.00,0.0303
3350.00,0.0303
3349.00,0.0303
3348.00,0.0303
3347.00,0.0303
3346.00,0.0304
3345.00,0.0304
3344.00,0.0304
3343.00,0.0304
3342.00,0.0304
3341.00,0.0304
3340.00,0.0303
3339.00,0.0303
3338.00,0.0303
3337.00,0.0304
3336.00,0.0304
3335.00,0.0304
3334.00,0.0305
3333.00,0.0305
3332.00,0.0305
3331.00,0.0305
3330.00,0.0305
3329.00,0.0305
3328.00,0.0305
3327.00,0.0305
3326.00,0.0305
3325.00,0.0305
3324.00,0.0305
3323.00,0.0305
3322.00,0.0306
3321.00,0.0306
3320.00,0.0306
3319.00,0.0306
3318.00,0.0306
3317.00,0.0306
3316.00,0.0306
3315.00,0.0306
3314.00,0.0306
3313.00,0.0306
3312.00,0.0306
3311.00,0.0306
3310.00,0.0305
3309.00,0.0305
3308.00,0.0305
3307.00,0.0305
3306.00,0.0305
3305.00,0.0305
3304.00,0.0306
3303.00,0.0306
3302.00,0.0306
3301.00,0.0307
3300.00,0.0307
3299.00,0.0307
3298.00,0.0306
3297.00,0.0306
3296.00,0.0306
3295.00,0.0306
3294.00,0.0306
3293.00,0.0306
3292.00,0.0307
3291.00,0.0307
3290.00,0.0308
3289.00,0.0308
3288.00,0.0308
3287.00,0.0308
3286.00,0.0309
3285.00,0.0309
3284.00,0.0309
3283.00,0.0308
3282.00,0.0308
3281.00,0.0308
3280.00,0.0308
3279.00,0.0308
3278.00,0.0308
3277.00,0.0308
3276.00,0.0308
3275.00,0.0308
3274.00,0.0307
3273.00,0.0307
3272.00,0.0307
3271.00,0.0307
3270.00,0.0307
3269.00,0.0308
3268.00,0.0308
3267.00,0.0309
3266.00,0.0309
3265.00,0.0309
3264.00,0.0309
3263.00,0.0309
3262.00,0.0309
3261.00,0.0309
3260.00,0.0309
3259.00,0.0309
3258.00,0.0308
3257.00,0.0308
3256.00,0.0308
3255.00,0.0308
3254.00,0.0308
3253.00,0.0309
3252.00,0.0309
3251.00,0.0308
3250.00,0.0308
3249.00,0.0308
3248.00,0.0307
3247.00,0.0307
3246.00,0.0308
3245.00,0.0308
3244.00,0.0309
3243.00,0.0309
3242.00,0.0309
3241.00,0.0309
3240.00,0.0309
3239.00,0.0309
3238.00,0.0309
3237.00,0.0308
3236.00,0.0307
3235.00,0.0307
3234.00,0.0306
3233.00,0.0306
3232.00,0.0307
3231.00,0.0307
3230.00,0.0308
3229.00,0.0308
3228.00,0.0309
3227.00,0.0309
3226.00,0.0309
3225.00,0.0309
3224.00,0.0309
3223.00,0.0309
3222.00,0.0309
3221.00,0.0309
3220.00,0.0308
3219.00,0.0308
3218.00,0.0308
3217.00,0.0308
3216.00,0.0308
3215.00,0.0308
3214.00,0.0308
3213.00,0.0308
3212.00,0.0308
3211.00,0.0308
3210.00,0.0308
3209.00,0.0308
3208.00,0.0308
3207.00,0.0308
3206.00,0.0308
3205.00,0.0308
3204.00,0.0308
3203.00,0.0308
3202.00,0.0308
3201.00,0.0308
3200.00,0.0308
3199.00,0.0308
3198.00,0.0308
3197.00,0.0308
3196.00,0.0308
3195.00,0.0308
3194.00,0.0308
3193.00,0.0307
3192.00,0.0307
3191.00,0.0307
3190.00,0.0307
3189.00,0.0307
3188.00,0.0307
3187.00,0.0308
3186.00,0.0307
3185.00,0.0307
3184.00,0.0307
3183.00,0.0306
3182.00,0.0306
3181.00,0.0306
3180.00,0.0306
3179.00,0.0306
3178.00,0.0306
3177.00,0.0306
3176.00,0.0306
3175.00,0.0306
3174.00,0.0305
3173.00,0.0305
3172.00,0.0305
3171.00,0.0305
3170.00,0.0305
3169.00,0.0305
3168.00,0.0305
3167.00,0.0305
3166.00,0.0305
3165.00,0.0305
3164.00,0.0304
3163.00,0.0304
3162.00,0.0304
3161.00,0.0304
3160.00,0.0303
3159.00,0.0303
3158.00,0.0303
3157.00,0.0302
3156.00,0.0302
3155.00,0.0301
3154.00,0.0300
3153.00,0.0300
3152.00,0.0300
3151.00,0.0300
3150.00,0.0301
3149.00,0.0301
3148.00,0.0301
3147.00,0.0301
3146.00,0.0301
3145.00,0.0301
3144.00,0.0301
3143.00,0.0300
3142.00,0.0299
3141.00,0.0298
3140.00,0.0298
3139.00,0.0298
3138.00,0.0298
3137.00,0.0299
3136.00,0.0299
3135.00,0.0299
3134.00,0.0299
3133.00,0.0299
3132.00,0.0298
3131.00,0.0298
3130.00,0.0298
3129.00,0.0298
3128.00,0.0298
3127.00,0.0298
3126.00,0.0298
3125.00,0.0297
3124.00,0.0296
3123.00,0.0295
3122.00,0.0294
3121.00,0.0293
3120.00,0.0293
3119.00,0.0293
3118.00,0.0293
3117.00,0.0293
3116.00,0.0293
3115.00,0.0294
3114.00,0.0294
3113.00,0.0295
3112.00,0.0295
3111.00,0.0294
3110.00,0.0294
3109.00,0.0294
3108.00,0.0295
3107.00,0.0295
3106.00,0.0295
3105.00,0.0295
3104.00,0.0295
3103.00,0.0294
3102.00,0.0294
3101.00,0.0293
3100.00,0.0293
3099.00,0.0294
3098.00,0.0294
3097.00,0.0294
3096.00,0.0294
3095.00,0.0294
3094.00,0.0293
3093.00,0.0293
3092.00,0.0292
3091.00,0.0292
3090.00,0.0292
3089.00,0.0292
3088.00,0.0292
3087.00,0.0292
3086.00,0.0291
3085.00,0.0291
3084.00,0.0290
3083.00,0.0290
3082.00,0.0290
3081.00,0.0290
3080.00,0.0290
3079.00,0.0290
3078.00,0.0290
3077.00,0.0291
3076.00,0.0291
3075.00,0.0291
3074.00,0.0291
3073.00,0.0291
3072.00,0.0291
3071.00,0.0290
3070.00,0.0290
3069.00,0.0289
3068.00,0.0289
3067.00,0.0289
3066.00,0.0290
3065.00,0.0290
3064.00,0.0290
3063.00,0.0290
3062.00,0.0290
3061.00,0.0290
3060.00,0.0290
3059.00,0.0289
3058.00,0.0289
3057.00,0.0288
3056.00,0.0288
3055.00,0.0288
3054.00,0.0287
3053.00,0.0287
3052.00,0.0287
3051.00,0.0287
3050.00,0.0287
3049.00,0.0286
3048.00,0.0286
3047.00,0.0286
3046.00,0.0285
3045.00,0.0285
3044.00,0.0284
3043.00,0.0284
3042.00,0.0284
3041.00,0.0284
3040.00,0.0284
3039.00,0.0284
3038.00,0.0284
3037.00,0.0284
3036.00,0.0283
3035.00,0.0283
3034.00,0.0283
3033.00,0.0283
3032.00,0.0283
3031.00,0.0283
3030.00,0.0283
3029.00,0.0283
3028.00,0.0283
3027.00,0.0283
3026.00,0.0282
3025.00,0.0282
3024.00,0.0281
3023.00,0.0281
3022.00,0.0281
3021.00,0.0280
3020.00,0.0280
3019.00,0.0280
3018.00,0.0280
3017.00,0.0280
3016.00,0.0279
3015.00,0.0279
3014.00,0.0278
3013.00,0.0278
3012.00,0.0279
3011.00,0.0279
3010.00,0.0279
3009.00,0.0280
3008.00,0.0280
3007.00,0.0280
3006.00,0.0280
3005.00,0.0280
3004.00,0.0279
3003.00,0.0279
3002.00,0.0279
3001.00,0.0279
3000.00,0.0279
2999.00,0.0278
2998.00,0.0278
2997.00,0.0277
2996.00,0.0277
2995.00,0.0277
2994.00,0.0277
2993.00,0.0277
2992.00,0.0277
2991.00,0.0277
2990.00,0.0277
2989.00,0.0277
2988.00,0.0277
2987.00,0.0277
2986.00,0.0277
2985.00,0.0277
2984.00,0.0277
2983.00,0.0276
2982.00,0.0277
2981.00,0.0277
2980.00,0.0277
2979.00,0.0277
2978.00,0.0278
2977.00,0.0278
2976.00,0.0278
2975.00,0.0278
2974.00,0.0278
2973.00,0.0279
2972.00,0.0279
2971.00,0.0280
2970.00,0.0280
2969.00,0.0280
2968.00,0.0281
2967.00,0.0281
2966.00,0.0282
2965.00,0.0282
2964.00,0.0283
2963.00,0.0283
2962.00,0.0284
2961.00,0.0284
2960.00,0.0285
2959.00,0.0285
2958.00,0.0286
2957.00,0.0286
2956.00,0.0286
2955.00,0.0286
2954.00,0.0286
2953.00,0.0286
2952.00,0.0286
2951.00,0.0286
2950.00,0.0286
2949.00,0.0285
2948.00,0.0285
2947.00,0.0285
2946.00,0.0285
2945.00,0.0286
2944.00,0.0286
2943.00,0.0288
2942.00,0.0289
2941.00,0.0290
2940.00,0.0291
2939.00,0.0293
2938.00,0.0294
2937.00,0.0295
2936.00,0.0296
2935.00,0.0298
2934.00,0.0299
2933.00,0.0301
2932.00,0.0303
2931.00,0.0304
2930.00,0.0306
2929.00,0.0308
2928.00,0.0310
2927.00,0.0312
2926.00,0.0313
2925.00,0.0315
2924.00,0.0315
2923.00,0.0316
2922.00,0.0316
2921.00,0.0316
2920.00,0.0315
2919.00,0.0314
2918.00,0.0313
2917.00,0.0312
2916.00,0.0310
2915.00,0.0308
2914.00,0.0307
2913.00,0.0305
2912.00,0.0303
2911.00,0.0302
2910.00,0.0301
2909.00,0.0300
2908.00,0.0299
2907.00,0.0298
2906.00,0.0297
2905.00,0.0297
2904.00,0.0296
2903.00,0.0295
2902.00,0.0295
2901.00,0.0294
2900.00,0.0294
2899.00,0.0293
2898.00,0.0292
2897.00,0.0292
2896.00,0.0291
2895.00,0.0291
2894.00,0.0291
2893.00,0.0290
2892.00,0.0290
2891.00,0.0289
2890.00,0.0289
2889.00,0.0289
2888.00,0.0288
2887.00,0.0288
2886.00,0.0287
2885.00,0.0286
2884.00,0.0286
2883.00,0.0285
2882.00,0.0285
2881.00,0.0285
2880.00,0.0285
2879.00,0.0284
2878.00,0.0284
2877.00,0.0284
2876.00,0.0284
2875.00,0.0283
2874.00,0.0283
2873.00,0.0283
2872.00,0.0284
2871.00,0.0284
2870.00,0.0284
2869.00,0.0284
2868.00,0.0284
2867.00,0.0284
2866.00,0.0284
2865.00,0.0285
2864.00,0.0285
2863.00,0.0286
2862.00,0.0287
2861.00,0.0288
2860.00,0.0289
2859.00,0.0290
2858.00,0.0292
2857.00,0.0293
2856.00,0.0295
2855.00,0.0296
2854.00,0.0297
2853.00,0.0298
2852.00,0.0298
2851.00,0.0297
2850.00,0.0296
2849.00,0.0295
2848.00,0.0293
2847.00,0.0291
2846.00,0.0289
2845.00,0.0287
2844.00,0.0285
2843.00,0.0284
2842.00,0.0282
2841.00,0.0280
2840.00,0.0279
2839.00,0.0278
2838.00,0.0277
2837.00,0.0276
2836.00,0.0275
2835.00,0.0275
2834.00,0.0274
2833.00,0.0274
2832.00,0.0274
2831.00,0.0274
2830.00,0.0273
2829.00,0.0273
2828.00,0.0272
2827.00,0.0272
2826.00,0.0271
2825.00,0.0271
2824.00,0.0270
2823.00,0.0270
2822.00,0.0270
2821.00,0.0269
2820.00,0.0269
2819.00,0.0269
2818.00,0.0269
2817.00,0.0269
2816.00,0.0268
2815.00,0.0268
2814.00,0.0268
2813.00,0.0267
2812.00,0.0267
2811.00,0.0267
2810.00,0.0267
2809.00,0.0267
2808.00,0.0266
2807.00,0.0266
2806.00,0.0266
2805.00,0.0266
2804.00,0.0266
2803.00,0.0265
2802.00,0.0265
2801.00,0.0265
2800.00,0.0264
2799.00,0.0264
2798.00,0.0264
2797.00,0.0264
2796.00,0.0264
2795.00,0.0264
2794.00,0.0264
2793.00,0.0263
2792.00,0.0263
2791.00,0.0262
2790.00,0.0262
2789.00,0.0262
2788.00,0.0262
2787.00,0.0262
2786.00,0.0263
2785.00,0.0262
2784.00,0.0262
2783.00,0.0262
2782.00,0.0262
2781.00,0.0262
2780.00,0.0262
2779.00,0.0261
2778.00,0.0261
2777.00,0.0261
2776.00,0.0260
2775.00,0.0260
2774.00,0.0260
2773.00,0.0260
2772.00,0.0260
2771.00,0.0260
2770.00,0.0260
2769.00,0.0260
2768.00,0.0260
2767.00,0.0260
2766.00,0.0260
2765.00,0.0260
2764.00,0.0259
2763.00,0.0259
2762.00,0.0259
2761.00,0.0259
2760.00,0.0259
2759.00,0.0259
2758.00,0.0259
2757.00,0.0259
2756.00,0.0259
2755.00,0.0259
2754.00,0.0259
2753.00,0.0258
2752.00,0.0258
2751.00,0.0258
2750.00,0.0257
2749.00,0.0257
2748.00,0.0257
2747.00,0.0257
2746.00,0.0257
2745.00,0.0257
2744.00,0.0257
2743.00,0.0257
2742.00,0.0257
2741.00,0.0257
2740.00,0.0257
2739.00,0.0257
2738.00,0.0256
2737.00,0.0256
2736.00,0.0256
2735.00,0.0256
2734.00,0.0256
2733.00,0.0256
2732.00,0.0256
2731.00,0.0256
2730.00,0.0256
2729.00,0.0256
2728.00,0.0255
2727.00,0.0255
2726.00,0.0255
2725.00,0.0255
2724.00,0.0255
2723.00,0.0255
2722.00,0.0255
2721.00,0.0255
2720.00,0.0255
2719.00,0.0255
2718.00,0.0254
2717.00,0.0254
2716.00,0.0254
2715.00,0.0254
2714.00,0.0254
2713.00,0.0254
2712.00,0.0254
2711.00,0.0254
2710.00,0.0254
2709.00,0.0254
2708.00,0.0253
2707.00,0.0253
2706.00,0.0253
2705.00,0.0253
2704.00,0.0253
2703.00,0.0253
2702.00,0.0253
2701.00,0.0253
2700.00,0.0252
2699.00,0.0252
2698.00,0.0252
2697.00,0.0252
2696.00,0.0252
2695.00,0.0252
2694.00,0.0252
2693.00,0.0252
2692.00,0.0252
2691.00,0.0252
2690.00,0.0252
2689.00,0.0251
2688.00,0.0251
2687.00,0.0251
2686.00,0.0251
2685.00,0.0251
2684.00,0.0251
2683.00,0.0251
2682.00,0.0251
2681.00,0.0251
2680.00,0.0250
2679.00,0.0250
2678.00,0.0250
2677.00,0.0250
2676.00,0.0250
2675.00,0.0250
2674.00,0.0250
2673.00,0.0250
2672.00,0.0250
2671.00,0.0250
2670.00,0.0250
2669.00,0.0250
2668.00,0.0250
2667.00,0.0250
2666.00,0.0250
2665.00,0.0250
2664.00,0.0250
2663.00,0.0250
2662.00,0.0250
2661.00,0.0250
2660.00,0.0250
2659.00,0.0250
2658.00,0.0250
2657.00,0.0250
2656.00,0.0250
2655.00,0.0250
2654.00,0.0250
2653.00,0.0249
2652.00,0.0249
2651.00,0.0249
2650.00,0.0249
2649.00,0.0248
2648.00,0.0248
2647.00,0.0247
2646.00,0.0247
2645.00,0.0247
2644.00,0.0247
2643.00,0.0247
2642.00,0.0247
2641.00,0.0246
2640.00,0.0246
2639.00,0.0246
2638.00,0.0245
2637.00,0.0245
2636.00,0.0244
2635.00,0.0244
2634.00,0.0244
2633.00,0.0244
2632.00,0.0244
2631.00,0.0244
2630.00,0.0244
2629.00,0.0244
2628.00,0.0243
2627.00,0.0243
2626.00,0.0243
2625.00,0.0242
2624.00,0.0242
2623.00,0.0242
2622.00,0.0242
2621.00,0.0242
2620.00,0.0242
2619.00,0.0242
2618.00,0.0241
2617.00,0.0241
2616.00,0.0240
2615.00,0.0240
2614.00,0.0240
2613.00,0.0240
2612.00,0.0240
2611.00,0.0240
2610.00,0.0240
2609.00,0.0239
2608.00,0.0239
2607.00,0.0239
2606.00,0.0239
2605.00,0.0239
2604.00,0.0239
2603.00,0.0239
2602.00,0.0239
2601.00,0.0238
2600.00,0.0238
2599.00,0.0238
2598.00,0.0238
2597.00,0.0238
2596.00,0.0238
2595.00,0.0238
2594.00,0.0238
2593.00,0.0238
2592.00,0.0238
2591.00,0.0237
2590.00,0.0237
2589.00,0.0236
2588.00,0.0236
2587.00,0.0236
2586.00,0.0236
2585.00,0.0236
2584.00,0.0236
2583.00,0.0236
2582.00,0.0236
2581.00,0.0236
2580.00,0.0235
2579.00,0.0235
2578.00,0.0234
2577.00,0.0234
2576.00,0.0234
2575.00,0.0235
2574.00,0.0235
2573.00,0.0235
2572.00,0.0235
2571.00,0.0235
2570.00,0.0234
2569.00,0.0234
2568.00,0.0234
2567.00,0.0234
2566.00,0.0234
2565.00,0.0234
2564.00,0.0234
2563.00,0.0234
2562.00,0.0234
2561.00,0.0233
2560.00,0.0233
2559.00,0.0234
2558.00,0.0233
2557.00,0.0233
2556.00,0.0233
2555.00,0.0233
2554.00,0.0233
2553.00,0.0233
2552.00,0.0233
2551.00,0.0233
2550.00,0.0233
2549.00,0.0233
2548.00,0.0232
2547.00,0.0232
2546.00,0.0232
2545.00,0.0232
2544.00,0.0232
2543.00,0.0232
2542.00,0.0231
2541.00,0.0231
2540.00,0.0230
2539.00,0.0230
2538.00,0.0230
2537.00,0.0230
2536.00,0.0230
2535.00,0.0230
2534.00,0.0230
2533.00,0.0231
2532.00,0.0231
2531.00,0.0230
2530.00,0.0230
2529.00,0.0230
2528.00,0.0229
2527.00,0.0229
2526.00,0.0230
2525.00,0.0230
2524.00,0.0230
2523.00,0.0230
2522.00,0.0230
2521.00,0.0230
2520.00,0.0230
2519.00,0.0230
2518.00,0.0230
2517.00,0.0230
2516.00,0.0229
2515.00,0.0229
2514.00,0.0229
2513.00,0.0229
2512.00,0.0229
2511.00,0.0228
2510.00,0.0228
2509.00,0.0228
2508.00,0.0228
2507.00,0.0228
2506.00,0.0228
2505.00,0.0228
2504.00,0.0227
2503.00,0.0227
2502.00,0.0227
2501.00,0.0227
2500.00,0.0228
2499.00,0.0228
2498.00,0.0228
2497.00,0.0228
2496.00,0.0228
2495.00,0.0228
2494.00,0.0228
2493.00,0.0228
2492.00,0.0227
2491.00,0.0227
2490.00,0.0227
2489.00,0.0227
2488.00,0.0227
2487.00,0.0227
2486.00,0.0227
2485.00,0.0226
2484.00,0.0226
2483.00,0.0226
2482.00,0.0225
2481.00,0.0225
2480.00,0.0225
2479.00,0.0225
2478.00,0.0225
2477.00,0.0225
2476.00,0.0226
2475.00,0.0226
2474.00,0.0226
2473.00,0.0226
2472.00,0.0226
2471.00,0.0226
2470.00,0.0226
2469.00,0.0225
2468.00,0.0225
2467.00,0.0225
2466.00,0.0224
2465.00,0.0224
2464.00,0.0224
2463.00,0.0225
2462.00,0.0225
2461.00,0.0225
2460.00,0.0225
2459.00,0.0225
2458.00,0.0225
2457.00,0.0225
2456.00,0.0225
2455.00,0.0225
2454.00,0.0224
2453.00,0.0224
2452.00,0.0224
2451.00,0.0223
2450.00,0.0223
2449.00,0.0223
2448.00,0.0224
2447.00,0.0224
2446.00,0.0223
2445.00,0.0223
2444.00,0.0223
2443.00,0.0223
2442.00,0.0223
2441.00,0.0223
2440.00,0.0222
2439.00,0.0222
2438.00,0.0222
2437.00,0.0222
2436.00,0.0222
2435.00,0.0222
2434.00,0.0222
2433.00,0.0221
2432.00,0.0221
2431.00,0.0220
2430.00,0.0220
2429.00,0.0220
2428.00,0.0220
2427.00,0.0220
2426.00,0.0220
2425.00,0.0220
2424.00,0.0220
2423.00,0.0220
2422.00,0.0220
2421.00,0.0220
2420.00,0.0220
2419.00,0.0220
2418.00,0.0219
2417.00,0.0219
2416.00,0.0219
2415.00,0.0219
2414.00,0.0219
2413.00,0.0219
2412.00,0.0219
2411.00,0.0219
2410.00,0.0219
2409.00,0.0219
2408.00,0.0219
2407.00,0.0219
2406.00,0.0218
2405.00,0.0218
2404.00,0.0218
2403.00,0.0217
2402.00,0.0217
2401.00,0.0216
2400.00,0.0216
2399.00,0.0216
2398.00,0.0216
2397.00,0.0216
2396.00,0.0217
2395.00,0.0216
2394.00,0.0216
2393.00,0.0216
2392.00,0.0215
2391.00,0.0215
2390.00,0.0215
2389.00,0.0215
2388.00,0.0215
2387.00,0.0216
2386.00,0.0216
2385.00,0.0216
2384.00,0.0215
2383.00,0.0215
2382.00,0.0214
2381.00,0.0213
2380.00,0.0213
2379.00,0.0212
2378.00,0.0212
2377.00,0.0213
2376.00,0.0213
2375.00,0.0213
2374.00,0.0213
2373.00,0.0213
2372.00,0.0212
2371.00,0.0212
2370.00,0.0211
2369.00,0.0211
2368.00,0.0211
2367.00,0.0211
2366.00,0.0210
2365.00,0.0211
2364.00,0.0211
2363.00,0.0211
2362.00,0.0211
2361.00,0.0211
2360.00,0.0212
2359.00,0.0212
2358.00,0.0212
2357.00,0.0212
2356.00,0.0212
2355.00,0.0212
2354.00,0.0213
2353.00,0.0213
2352.00,0.0213
2351.00,0.0213
2350.00,0.0213
2349.00,0.0213
2348.00,0.0212
2347.00,0.0212
2346.00,0.0212
2345.00,0.0212
2344.00,0.0212
2343.00,0.0212
2342.00,0.0211
2341.00,0.0211
2340.00,0.0211
2339.00,0.0212
2338.00,0.0212
2337.00,0.0213
2336.00,0.0213
2335.00,0.0213
2334.00,0.0213
2333.00,0.0212
2332.00,0.0212
2331.00,0.0212
2330.00,0.0212
2329.00,0.0213
2328.00,0.0214
2327.00,0.0215
2326.00,0.0217
2325.00,0.0218
2324.00,0.0218
2323.00,0.0218
2322.00,0.0216
2321.00,0.0215
2320.00,0.0214
2319.00,0.0213
2318.00,0.0213
2317.00,0.0213
2316.00,0.0212
2315.00,0.0212
2314.00,0.0212
2313.00,0.0211
2312.00,0.0211
2311.00,0.0211
2310.00,0.0210
2309.00,0.0210
2308.00,0.0210
2307.00,0.0210
2306.00,0.0209
2305.00,0.0209
2304.00,0.0209
2303.00,0.0209
2302.00,0.0208
2301.00,0.0208
2300.00,0.0208
2299.00,0.0209
2298.00,0.0209
2297.00,0.0210
2296.00,0.0210
2295.00,0.0210
2294.00,0.0210
2293.00,0.0210
2292.00,0.0210
2291.00,0.0210
2290.00,0.0211
2289.00,0.0211
2288.00,0.0211
2287.00,0.0211
2286.00,0.0212
2285.00,0.0211
2284.00,0.0211
2283.00,0.0210
2282.00,0.0209
2281.00,0.0208
2280.00,0.0208
2279.00,0.0207
2278.00,0.0207
2277.00,0.0207
2276.00,0.0207
2275.00,0.0207
2274.00,0.0207
2273.00,0.0207
2272.00,0.0207
2271.00,0.0207
2270.00,0.0206
2269.00,0.0206
2268.00,0.0205
2267.00,0.0203
2266.00,0.0202
2265.00,0.0202
2264.00,0.0203
2263.00,0.0203
2262.00,0.0204
2261.00,0.0204
2260.00,0.0204
2259.00,0.0205
2258.00,0.0205
2257.00,0.0204
2256.00,0.0203
2255.00,0.0202
2254.00,0.0200
2253.00,0.0200
2252.00,0.0201
2251.00,0.0202
2250.00,0.0202
2249.00,0.0203
2248.00,0.0203
2247.00,0.0202
2246.00,0.0202
2245.00,0.0202
2244.00,0.0201
2243.00,0.0200
2242.00,0.0200
2241.00,0.0200
2240.00,0.0201
2239.00,0.0201
2238.00,0.0202
2237.00,0.0202
2236.00,0.0202
2235.00,0.0202
2234.00,0.0202
2233.00,0.0201
2232.00,0.0201
2231.00,0.0201
2230.00,0.0201
2229.00,0.0201
2228.00,0.0202
2227.00,0.0203
2226.00,0.0203
2225.00,0.0203
2224.00,0.0203
2223.00,0.0202
2222.00,0.0201
2221.00,0.0200
2220.00,0.0199
2219.00,0.0198
2218.00,0.0198
2217.00,0.0198
2216.00,0.0198
2215.00,0.0197
2214.00,0.0197
2213.00,0.0198
2212.00,0.0198
2211.00,0.0198
2210.00,0.0198
2209.00,0.0198
2208.00,0.0198
2207.00,0.0198
2206.00,0.0197
2205.00,0.0196
2204.00,0.0196
2203.00,0.0196
2202.00,0.0196
2201.00,0.0196
2200.00,0.0196
2199.00,0.0197
2198.00,0.0198
2197.00,0.0198
2196.00,0.0198
2195.00,0.0198
2194.00,0.0198
2193.00,0.0198
2192.00,0.0197
2191.00,0.0196
2190.00,0.0195
2189.00,0.0194
2188.00,0.0195
2187.00,0.0196
2186.00,0.0196
2185.00,0.0195
2184.00,0.0193
2183.00,0.0192
2182.00,0.0190
2181.00,0.0189
2180.00,0.0189
2179.00,0.0189
2178.00,0.0189
2177.00,0.0190
2176.00,0.0190
2175.00,0.0191
2174.00,0.0192
2173.00,0.0194
2172.00,0.0195
2171.00,0.0196
2170.00,0.0196
2169.00,0.0195
2168.00,0.0194
2167.00,0.0192
2166.00,0.0191
2165.00,0.0191
2164.00,0.0193
2163.00,0.0194
2162.00,0.0194
2161.00,0.0191
2160.00,0.0185
2159.00,0.0178
2158.00,0.0173
2157.00,0.0170
2156.00,0.0169
2155.00,0.0169
2154.00,0.0172
2153.00,0.0176
2152.00,0.0179
2151.00,0.0182
2150.00,0.0183
2149.00,0.0183
2148.00,0.0182
2147.00,0.0180
2146.00,0.0179
2145.00,0.0178
2144.00,0.0178
2143.00,0.0179
2142.00,0.0179
2141.00,0.0180
2140.00,0.0180
2139.00,0.0181
2138.00,0.0180
2137.00,0.0179
2136.00,0.0178
2135.00,0.0176
2134.00,0.0174
2133.00,0.0174
2132.00,0.0174
2131.00,0.0175
2130.00,0.0176
2129.00,0.0177
2128.00,0.0179
2127.00,0.0180
2126.00,0.0181
2125.00,0.0182
2124.00,0.0183
2123.00,0.0183
2122.00,0.0183
2121.00,0.0183
2120.00,0.0184
2119.00,0.0184
2118.00,0.0185
2117.00,0.0186
2116.00,0.0187
2115.00,0.0187
2114.00,0.0188
2113.00,0.0188
2112.00,0.0188
2111.00,0.0188
2110.00,0.0187
2109.00,0.0186
2108.00,0.0184
2107.00,0.0184
2106.00,0.0183
2105.00,0.0182
2104.00,0.0183
2103.00,0.0183
2102.00,0.0184
2101.00,0.0185
2100.00,0.0185
2099.00,0.0185
2098.00,0.0184
2097.00,0.0183
2096.00,0.0181
2095.00,0.0180
2094.00,0.0179
2093.00,0.0180
2092.00,0.0181
2091.00,0.0182
2090.00,0.0182
2089.00,0.0182
2088.00,0.0182
2087.00,0.0182
2086.00,0.0183
2085.00,0.0183
2084.00,0.0183
2083.00,0.0184
2082.00,0.0184
2081.00,0.0183
2080.00,0.0183
2079.00,0.0182
2078.00,0.0181
2077.00,0.0180
2076.00,0.0180
2075.00,0.0179
2074.00,0.0179
2073.00,0.0179
2072.00,0.0179
2071.00,0.0179
2070.00,0.0179
2069.00,0.0179
2068.00,0.0179
2067.00,0.0179
2066.00,0.0179
2065.00,0.0179
2064.00,0.0179
2063.00,0.0179
2062.00,0.0179
2061.00,0.0178
2060.00,0.0178
2059.00,0.0177
2058.00,0.0177
2057.00,0.0176
2056.00,0.0175
2055.00,0.0174
2054.00,0.0175
2053.00,0.0177
2052.00,0.0180
2051.00,0.0181
2050.00,0.0180
2049.00,0.0178
2048.00,0.0176
2047.00,0.0174
2046.00,0.0172
2045.00,0.0171
2044.00,0.0170
2043.00,0.0170
2042.00,0.0171
2041.00,0.0172
2040.00,0.0173
2039.00,0.0173
2038.00,0.0173
2037.00,0.0173
2036.00,0.0171
2035.00,0.0170
2034.00,0.0167
2033.00,0.0166
2032.00,0.0167
2031.00,0.0168
2030.00,0.0169
2029.00,0.0170
2028.00,0.0171
2027.00,0.0171
2026.00,0.0169
2025.00,0.0166
2024.00,0.0163
2023.00,0.0161
2022.00,0.0160
2021.00,0.0161
2020.00,0.0161
2019.00,0.0162
2018.00,0.0162
2017.00,0.0163
2016.00,0.0165
2015.00,0.0165
2014.00,0.0165
2013.00,0.0166
2012.00,0.0167
2011.00,0.0166
2010.00,0.0165
2009.00,0.0163
2008.00,0.0161
2007.00,0.0161
2006.00,0.0161
2005.00,0.0161
2004.00,0.0161
2003.00,0.0162
2002.00,0.0163
2001.00,0.0164
2000.00,0.0165
1999.00,0.0165
1998.00,0.0165
1997.00,0.0165
1996.00,0.0164
1995.00,0.0163
1994.00,0.0162
1993.00,0.0163
1992.00,0.0164
1991.00,0.0165
1990.00,0.0165
1989.00,0.0165
1988.00,0.0167
1987.00,0.0167
1986.00,0.0167
1985.00,0.0168
1984.00,0.0169
1983.00,0.0171
1982.00,0.0172
1981.00,0.0172
1980.00,0.0171
1979.00,0.0168
1978.00,0.0164
1977.00,0.0161
1976.00,0.0158
1975.00,0.0156
1974.00,0.0154
1973.00,0.0154
1972.00,0.0155
1971.00,0.0154
1970.00,0.0153
1969.00,0.0152
1968.00,0.0152
1967.00,0.0151
1966.00,0.0151
1965.00,0.0152
1964.00,0.0153
1963.00,0.0154
1962.00,0.0155
1961.00,0.0156
1960.00,0.0157
1959.00,0.0157
1958.00,0.0156
1957.00,0.0156
1956.00,0.0156
1955.00,0.0156
1954.00,0.0155
1953.00,0.0155
1952.00,0.0155
1951.00,0.0156
1950.00,0.0156
1949.00,0.0156
1948.00,0.0155
1947.00,0.0154
1946.00,0.0153
1945.00,0.0153
1944.00,0.0152
1943.00,0.0152
1942.00,0.0152
1941.00,0.0153
1940.00,0.0154
1939.00,0.0155
1938.00,0.0155
1937.00,0.0155
1936.00,0.0155
1935.00,0.0155
1934.00,0.0155
1933.00,0.0155
1932.00,0.0155
1931.00,0.0156
1930.00,0.0156
1929.00,0.0155
1928.00,0.0155
1927.00,0.0155
1926.00,0.0155
1925.00,0.0154
1924.00,0.0154
1923.00,0.0153
1922.00,0.0153
1921.00,0.0153
1920.00,0.0153
1919.00,0.0153
1918.00,0.0152
1917.00,0.0152
1916.00,0.0152
1915.00,0.0153
1914.00,0.0154
1913.00,0.0155
1912.00,0.0155
1911.00,0.0154
1910.00,0.0153
1909.00,0.0152
1908.00,0.0151
1907.00,0.0151
1906.00,0.0151
1905.00,0.0151
1904.00,0.0152
1903.00,0.0152
1902.00,0.0153
1901.00,0.0153
1900.00,0.0153
1899.00,0.0152
1898.00,0.0151
1897.00,0.0150
1896.00,0.0149
1895.00,0.0149
1894.00,0.0149
1893.00,0.0151
1892.00,0.0152
1891.00,0.0151
1890.00,0.0150
1889.00,0.0149
1888.00,0.0148
1887.00,0.0148
1886.00,0.0148
1885.00,0.0148
1884.00,0.0148
1883.00,0.0149
1882.00,0.0149
1881.00,0.0149
1880.00,0.0149
1879.00,0.0149
1878.00,0.0149
1877.00,0.0148
1876.00,0.0148
1875.00,0.0148
1874.00,0.0148
1873.00,0.0148
1872.00,0.0148
1871.00,0.0147
1870.00,0.0146
1869.00,0.0145
1868.00,0.0144
1867.00,0.0143
1866.00,0.0143
1865.00,0.0143
1864.00,0.0144
1863.00,0.0144
1862.00,0.0144
1861.00,0.0144
1860.00,0.0144
1859.00,0.0144
1858.00,0.0143
1857.00,0.0143
1856.00,0.0143
1855.00,0.0143
1854.00,0.0143
1853.00,0.0143
1852.00,0.0143
1851.00,0.0143
1850.00,0.0143
1849.00,0.0143
1848.00,0.0142
1847.00,0.0142
1846.00,0.0141
1845.00,0.0141
1844.00,0.0141
1843.00,0.0140
1842.00,0.0140
1841.00,0.0140
1840.00,0.0140
1839.00,0.0140
1838.00,0.0139
1837.00,0.0139
1836.00,0.0139
1835.00,0.0139
1834.00,0.0138
1833.00,0.0138
1832.00,0.0139
1831.00,0.0139
1830.00,0.0139
1829.00,0.0138
1828.00,0.0138
1827.00,0.0139
1826.00,0.0139
1825.00,0.0139
1824.00,0.0138
1823.00,0.0138
1822.00,0.0138
1821.00,0.0138
1820.00,0.0137
1819.00,0.0136
1818.00,0.0136
1817.00,0.0135
1816.00,0.0136
1815.00,0.0136
1814.00,0.0136
1813.00,0.0137
1812.00,0.0137
1811.00,0.0137
1810.00,0.0136
1809.00,0.0136
1808.00,0.0136
1807.00,0.0136
1806.00,0.0137
1805.00,0.0138
1804.00,0.0139
1803.00,0.0139
1802.00,0.0139
1801.00,0.0139
1800.00,0.0139
1799.00,0.0139
1798.00,0.0139
1797.00,0.0140
1796.00,0.0140
1795.00,0.0141
1794.00,0.0142
1793.00,0.0143
1792.00,0.0143
1791.00,0.0142
1790.00,0.0142
1789.00,0.0143
1788.00,0.0144
1787.00,0.0146
1786.00,0.0146
1785.00,0.0147
1784.00,0.0148
1783.00,0.0149
1782.00,0.0150
1781.00,0.0152
1780.00,0.0153
1779.00,0.0154
1778.00,0.0156
1777.00,0.0157
1776.00,0.0158
1775.00,0.0160
1774.00,0.0161
1773.00,0.0162
1772.00,0.0163
1771.00,0.0164
1770.00,0.0165
1769.00,0.0167
1768.00,0.0168
1767.00,0.0169
1766.00,0.0170
1765.00,0.0172
1764.00,0.0174
1763.00,0.0175
1762.00,0.0176
1761.00,0.0177
1760.00,0.0179
1759.00,0.0181
1758.00,0.0183
1757.00,0.0185
1756.00,0.0188
1755.00,0.0190
1754.00,0.0193
1753.00,0.0196
1752.00,0.0200
1751.00,0.0202
1750.00,0.0205
1749.00,0.0208
1748.00,0.0211
1747.00,0.0214
1746.00,0.0217
1745.00,0.0220
1744.00,0.0222
1743.00,0.0225
1742.00,0.0227
1741.00,0.0230
1740.00,0.0233
1739.00,0.0235
1738.00,0.0236
1737.00,0.0238
1736.00,0.0241
1735.00,0.0244
1734.00,0.0246
1733.00,0.0247
1732.00,0.0249
1731.00,0.0252
1730.00,0.0255
1729.00,0.0258
1728.00,0.0261
1727.00,0.0264
1726.00,0.0267
1725.00,0.0270
1724.00,0.0273
1723.00,0.0276
1722.00,0.0278
1721.00,0.0279
1720.00,0.0281
1719.00,0.0283
1718.00,0.0285
1717.00,0.0286
1716.00,0.0288
1715.00,0.0289
1714.00,0.0291
1713.00,0.0293
1712.00,0.0295
1711.00,0.0296
1710.00,0.0297
1709.00,0.0298
1708.00,0.0299
1707.00,0.0300
1706.00,0.0301
1705.00,0.0302
1704.00,0.0303
1703.00,0.0304
1702.00,0.0305
1701.00,0.0306
1700.00,0.0305
1699.00,0.0304
1698.00,0.0304
1697.00,0.0305
1696.00,0.0306
1695.00,0.0306
1694.00,0.0307
1693.00,0.0308
1692.00,0.0309
1691.00,0.0310
1690.00,0.0311
1689.00,0.0311
1688.00,0.0311
1687.00,0.0312
1686.00,0.0313
1685.00,0.0315
1684.00,0.0316
1683.00,0.0317
1682.00,0.0318
1681.00,0.0320
1680.00,0.0322
1679.00,0.0324
1678.00,0.0326
1677.00,0.0328
1676.00,0.0331
1675.00,0.0333
1674.00,0.0334
1673.00,0.0336
1672.00,0.0338
1671.00,0.0341
1670.00,0.0344
1669.00,0.0347
1668.00,0.0349
1667.00,0.0351
1666.00,0.0354
1665.00,0.0356
1664.00,0.0359
1663.00,0.0362
1662.00,0.0364
1661.00,0.0365
1660.00,0.0368
1659.00,0.0370
1658.00,0.0372
1657.00,0.0374
1656.00,0.0376
1655.00,0.0379
1654.00,0.0383
1653.00,0.0388
1652.00,0.0390
1651.00,0.0391
1650.00,0.0392
1649.00,0.0394
1648.00,0.0398
1647.00,0.0403
1646.00,0.0407
1645.00,0.0410
1644.00,0.0412
1643.00,0.0414
1642.00,0.0417
1641.00,0.0420
1640.00,0.0422
1639.00,0.0424
1638.00,0.0426
1637.00,0.0430
1636.00,0.0435
1635.00,0.0440
1634.00,0.0443
1633.00,0.0445
1632.00,0.0448
1631.00,0.0451
1630.00,0.0453
1629.00,0.0457
1628.00,0.0461
1627.00,0.0464
1626.00,0.0467
1625.00,0.0470
1624.00,0.0474
1623.00,0.0477
1622.00,0.0480
1621.00,0.0482
1620.00,0.0484
1619.00,0.0486
1618.00,0.0489
1617.00,0.0494
1616.00,0.0498
1615.00,0.0500
1614.00,0.0501
1613.00,0.0503
1612.00,0.0506
1611.00,0.0508
1610.00,0.0511
1609.00,0.0513
1608.00,0.0516
1607.00,0.0519
1606.00,0.0521
1605.00,0.0524
1604.00,0.0527
1603.00,0.0530
1602.00,0.0532
1601.00,0.0535
1600.00,0.0537
1599.00,0.0539
1598.00,0.0540
1597.00,0.0542
1596.00,0.0544
1595.00,0.0547
1594.00,0.0549
1593.00,0.0550
1592.00,0.0551
1591.00,0.0552
1590.00,0.0553
1589.00,0.0555
1588.00,0.0556
1587.00,0.0557
1586.00,0.0558
1585.00,0.0559
1584.00,0.0560
1583.00,0.0561
1582.00,0.0561
1581.00,0.0562
1580.00,0.0562
1579.00,0.0562
1578.00,0.0562
1577.00,0.0563
1576.00,0.0565
1575.00,0.0565
1574.00,0.0564
1573.00,0.0563
1572.00,0.0562
1571.00,0.0562
1570.00,0.0563
1569.00,0.0563
1568.00,0.0563
1567.00,0.0562
1566.00,0.0561
1565.00,0.0560
1564.00,0.0559
1563.00,0.0557
1562.00,0.0555
1561.00,0.0552
1560.00,0.0551
1559.00,0.0553
1558.00,0.0552
1557.00,0.0550
1556.00,0.0548
1555.00,0.0546
1554.00,0.0543
1553.00,0.0540
1552.00,0.0537
1551.00,0.0534
1550.00,0.0532
1549.00,0.0530
1548.00,0.0527
1547.00,0.0525
1546.00,0.0522
1545.00,0.0519
1544.00,0.0516
1543.00,0.0512
1542.00,0.0508
1541.00,0.0505
1540.00,0.0502
1539.00,0.0500
1538.00,0.0497
1537.00,0.0494
1536.00,0.0492
1535.00,0.0490
1534.00,0.0487
1533.00,0.0483
1532.00,0.0479
1531.00,0.0476
1530.00,0.0474
1529.00,0.0472
1528.00,0.0469
1527.00,0.0467
1526.00,0.0464
1525.00,0.0461
1524.00,0.0458
1523.00,0.0456
1522.00,0.0453
1521.00,0.0450
1520.00,0.0448
1519.00,0.0446
1518.00,0.0445
1517.00,0.0442
1516.00,0.0440
1515.00,0.0438
1514.00,0.0436
1513.00,0.0434
1512.00,0.0432
1511.00,0.0429
1510.00,0.0427
1509.00,0.0425
1508.00,0.0423
1507.00,0.0422
1506.00,0.0420
1505.00,0.0418
1504.00,0.0417
1503.00,0.0416
1502.00,0.0415
1501.00,0.0414
1500.00,0.0412
1499.00,0.0411
1498.00,0.0410
1497.00,0.0409
1496.00,0.0409
1495.00,0.0408
1494.00,0.0407
1493.00,0.0406
1492.00,0.0406
1491.00,0.0405
1490.00,0.0404
1489.00,0.0404
1488.00,0.0404
1487.00,0.0405
1486.00,0.0405
1485.00,0.0404
1484.00,0.0404
1483.00,0.0405
1482.00,0.0405
1481.00,0.0405
1480.00,0.0405
1479.00,0.0406
1478.00,0.0406
1477.00,0.0406
1476.00,0.0407
1475.00,0.0408
1474.00,0.0409
1473.00,0.0410
1472.00,0.0412
1471.00,0.0414
1470.00,0.0416
1469.00,0.0418
1468.00,0.0420
1467.00,0.0422
1466.00,0.0423
1465.00,0.0424
1464.00,0.0425
1463.00,0.0425
1462.00,0.0425
1461.00,0.0425
1460.00,0.0426
1459.00,0.0427
1458.00,0.0429
1457.00,0.0430
1456.00,0.0432
1455.00,0.0432
1454.00,0.0433
1453.00,0.0434
1452.00,0.0434
1451.00,0.0435
1450.00,0.0436
1449.00,0.0437
1448.00,0.0438
1447.00,0.0439
1446.00,0.0440
1445.00,0.0441
1444.00,0.0442
1443.00,0.0443
1442.00,0.0444
1441.00,0.0444
1440.00,0.0445
1439.00,0.0446
1438.00,0.0447
1437.00,0.0448
1436.00,0.0450
1435.00,0.0452
1434.00,0.0453
1433.00,0.0454
1432.00,0.0455
1431.00,0.0456
1430.00,0.0457
1429.00,0.0458
1428.00,0.0459
1427.00,0.0460
1426.00,0.0461
1425.00,0.0462
1424.00,0.0464
1423.00,0.0465
1422.00,0.0466
1421.00,0.0467
1420.00,0.0468
1419.00,0.0469
1418.00,0.0471
1417.00,0.0472
1416.00,0.0473
1415.00,0.0474
1414.00,0.0475
1413.00,0.0477
1412.00,0.0478
1411.00,0.0480
1410.00,0.0481
1409.00,0.0482
1408.00,0.0483
1407.00,0.0484
1406.00,0.0486
1405.00,0.0487
1404.00,0.0489
1403.00,0.0491
1402.00,0.0492
1401.00,0.0493
1400.00,0.0495
1399.00,0.0496
1398.00,0.0498
1397.00,0.0499
1396.00,0.0501
1395.00,0.0503
1394.00,0.0504
1393.00,0.0505
1392.00,0.0506
1391.00,0.0508
1390.00,0.0509
1389.00,0.0511
1388.00,0.0513
1387.00,0.0514
1386.00,0.0516
1385.00,0.0517
1384.00,0.0519
1383.00,0.0520
1382.00,0.0521
1381.00,0.0523
1380.00,0.0524
1379.00,0.0526
1378.00,0.0526
1377.00,0.0527
1376.00,0.0527
1375.00,0.0527
1374.00,0.0528
1373.00,0.0528
1372.00,0.0528
1371.00,0.0529
1370.00,0.0530
1369.00,0.0530
1368.00,0.0530
1367.00,0.0530
1366.00,0.0530
1365.00,0.0529
1364.00,0.0528
1363.00,0.0528
1362.00,0.0528
1361.00,0.0528
1360.00,0.0528
1359.00,0.0528
1358.00,0.0527
1357.00,0.0527
1356.00,0.0526
1355.00,0.0524
1354.00,0.0523
1353.00,0.0522
1352.00,0.0521
1351.00,0.0521
1350.00,0.0520
1349.00,0.0520
1348.00,0.0520
1347.00,0.0520
1346.00,0.0520
1345.00,0.0520
1344.00,0.0519
1343.00,0.0518
1342.00,0.0517
1341.00,0.0515
1340.00,0.0514
1339.00,0.0512
1338.00,0.0511
1337.00,0.0511
1336.00,0.0510
1335.00,0.0509
1334.00,0.0508
1333.00,0.0507
1332.00,0.0506
1331.00,0.0506
1330.00,0.0505
1329.00,0.0504
1328.00,0.0504
1327.00,0.0504
1326.00,0.0503
1325.00,0.0502
1324.00,0.0502
1323.00,0.0502
1322.00,0.0502
1321.00,0.0502
1320.00,0.0502
1319.00,0.0502
1318.00,0.0502
1317.00,0.0502
1316.00,0.0502
1315.00,0.0502
1314.00,0.0502
1313.00,0.0502
1312.00,0.0502
1311.00,0.0503
1310.00,0.0503
1309.00,0.0504
1308.00,0.0504
1307.00,0.0504
1306.00,0.0504
1305.00,0.0503
1304.00,0.0504
1303.00,0.0504
1302.00,0.0505
1301.00,0.0505
1300.00,0.0506
1299.00,0.0507
1298.00,0.0508
1297.00,0.0509
1296.00,0.0510
1295.00,0.0510
1294.00,0.0511
1293.00,0.0511
1292.00,0.0512
1291.00,0.0513
1290.00,0.0514
1289.00,0.0514
1288.00,0.0515
1287.00,0.0516
1286.00,0.0517
1285.00,0.0517
1284.00,0.0518
1283.00,0.0519
1282.00,0.0520
1281.00,0.0520
1280.00,0.0521
1279.00,0.0521
1278.00,0.0522
1277.00,0.0522
1276.00,0.0523
1275.00,0.0523
1274.00,0.0523
1273.00,0.0523
1272.00,0.0524
1271.00,0.0525
1270.00,0.0525
1269.00,0.0526
1268.00,0.0527
1267.00,0.0527
1266.00,0.0527
1265.00,0.0528
1264.00,0.0528
1263.00,0.0529
1262.00,0.0530
1261.00,0.0531
1260.00,0.0531
1259.00,0.0532
1258.00,0.0532
1257.00,0.0533
1256.00,0.0533
1255.00,0.0533
1254.00,0.0533
1253.00,0.0533
1252.00,0.0533
1251.00,0.0534
1250.00,0.0534
1249.00,0.0535
1248.00,0.0536
1247.00,0.0536
1246.00,0.0536
1245.00,0.0536
1244.00,0.0537
1243.00,0.0537
1242.00,0.0537
1241.00,0.0537
1240.00,0.0536
1239.00,0.0537
1238.00,0.0537
1237.00,0.0537
1236.00,0.0537
1235.00,0.0537
1234.00,0.0537
1233.00,0.0537
1232.00,0.0536
1231.00,0.0536
1230.00,0.0535
1229.00,0.0535
1228.00,0.0535
1227.00,0.0534
1226.00,0.0533
1225.00,0.0533
1224.00,0.0532
1223.00,0.0532
1222.00,0.0532
1221.00,0.0532
1220.00,0.0531
1219.00,0.0530
1218.00,0.0529
1217.00,0.0529
1216.00,0.0528
1215.00,0.0527
1214.00,0.0527
1213.00,0.0526
1212.00,0.0526
1211.00,0.0526
1210.00,0.0526
1209.00,0.0526
1208.00,0.0526
1207.00,0.0525
1206.00,0.0523
1205.00,0.0523
1204.00,0.0522
1203.00,0.0522
1202.00,0.0522
1201.00,0.0522
1200.00,0.0522
1199.00,0.0521
1198.00,0.0521
1197.00,0.0520
1196.00,0.0519
1195.00,0.0519
1194.00,0.0518
1193.00,0.0518
1192.00,0.0518
1191.00,0.0518
1190.00,0.0518
1189.00,0.0518
1188.00,0.0518
1187.00,0.0518
1186.00,0.0517
1185.00,0.0517
1184.00,0.0517
1183.00,0.0517
1182.00,0.0517
1181.00,0.0517
1180.00,0.0517
1179.00,0.0517
1178.00,0.0517
1177.00,0.0517
1176.00,0.0516
1175.00,0.0516
1174.00,0.0515
1173.00,0.0516
1172.00,0.0516
1171.00,0.0516
1170.00,0.0517
1169.00,0.0517
1168.00,0.0517
1167.00,0.0516
1166.00,0.0516
1165.00,0.0516
1164.00,0.0516
1163.00,0.0516
1162.00,0.0516
1161.00,0.0516
1160.00,0.0516
1159.00,0.0515
1158.00,0.0515
1157.00,0.0514
1156.00,0.0513
1155.00,0.0513
1154.00,0.0513
1153.00,0.0513
1152.00,0.0513
1151.00,0.0513
1150.00,0.0513
1149.00,0.0512
1148.00,0.0512
1147.00,0.0511
1146.00,0.0510
1145.00,0.0509
1144.00,0.0508
1143.00,0.0508
1142.00,0.0508
1141.00,0.0507
1140.00,0.0507
1139.00,0.0507
1138.00,0.0507
1137.00,0.0507
1136.00,0.0506
1135.00,0.0506
1134.00,0.0506
1133.00,0.0507
1132.00,0.0507
1131.00,0.0507
1130.00,0.0507
1129.00,0.0507
1128.00,0.0507
1127.00,0.0507
1126.00,0.0508
1125.00,0.0509
1124.00,0.0510
1123.00,0.0512
1122.00,0.0515
1121.00,0.0517
1120.00,0.0519
1119.00,0.0520
1118.00,0.0521
1117.00,0.0522
1116.00,0.0523
1115.00,0.0523
1114.00,0.0523
1113.00,0.0524
1112.00,0.0525
1111.00,0.0525
1110.00,0.0525
1109.00,0.0525
1108.00,0.0524
1107.00,0.0524
1106.00,0.0523
1105.00,0.0523
1104.00,0.0523
1103.00,0.0524
1102.00,0.0525
1101.00,0.0525
1100.00,0.0526
1099.00,0.0526
1098.00,0.0526
1097.00,0.0525
1096.00,0.0524
1095.00,0.0523
1094.00,0.0522
1093.00,0.0521
1092.00,0.0521
1091.00,0.0522
1090.00,0.0523
1089.00,0.0523
1088.00,0.0524
1087.00,0.0523
1086.00,0.0522
1085.00,0.0522
1084.00,0.0522
1083.00,0.0522
1082.00,0.0523
1081.00,0.0523
1080.00,0.0524
1079.00,0.0525
1078.00,0.0526
1077.00,0.0526
1076.00,0.0526
1075.00,0.0525
1074.00,0.0523
1073.00,0.0522
1072.00,0.0522
1071.00,0.0523
1070.00,0.0523
1069.00,0.0522
1068.00,0.0522
1067.00,0.0522
1066.00,0.0521
1065.00,0.0522
1064.00,0.0522
1063.00,0.0522
1062.00,0.0523
1061.00,0.0524
1060.00,0.0524
1059.00,0.0523
1058.00,0.0522
1057.00,0.0522
1056.00,0.0522
1055.00,0.0522
1054.00,0.0522
1053.00,0.0523
1052.00,0.0524
1051.00,0.0525
1050.00,0.0525
1049.00,0.0525
1048.00,0.0524
1047.00,0.0524
1046.00,0.0523
1045.00,0.0523
1044.00,0.0523
1043.00,0.0523
1042.00,0.0523
1041.00,0.0523
1040.00,0.0523
1039.00,0.0522
1038.00,0.0522
1037.00,0.0522
1036.00,0.0522
1035.00,0.0522
1034.00,0.0522
1033.00,0.0522
1032.00,0.0522
1031.00,0.0521
1030.00,0.0520
1029.00,0.0519
1028.00,0.0517
1027.00,0.0515
1026.00,0.0514
1025.00,0.0512
1024.00,0.0511
1023.00,0.0509
1022.00,0.0507
1021.00,0.0505
1020.00,0.0503
1019.00,0.0501
1018.00,0.0498
1017.00,0.0496
1016.00,0.0494
1015.00,0.0493
1014.00,0.0492
1013.00,0.0492
1012.00,0.0491
1011.00,0.0490
1010.00,0.0489
1009.00,0.0486
1008.00,0.0484
1007.00,0.0482
1006.00,0.0480
1005.00,0.0479
1004.00,0.0478
1003.00,0.0477
1002.00,0.0475
1001.00,0.0474
1000.00,0.0472
999.00,0.0469
998.00,0.0466
997.00,0.0464
996.00,0.0462
995.00,0.0460
994.00,0.0458
993.00,0.0456
992.00,0.0453
991.00,0.0451
990.00,0.0449
989.00,0.0447
988.00,0.0444
987.00,0.0442
986.00,0.0440
985.00,0.0439
984.00,0.0438
983.00,0.0437
982.00,0.0435
981.00,0.0434
980.00,0.0432
979.00,0.0430
978.00,0.0429
977.00,0.0428
976.00,0.0427
975.00,0.0426
974.00,0.0425
973.00,0.0424
972.00,0.0422
971.00,0.0421
970.00,0.0420
969.00,0.0419
968.00,0.0418
967.00,0.0418
966.00,0.0418
965.00,0.0417
964.00,0.0415
963.00,0.0414
962.00,0.0412
961.00,0.0410
960.00,0.0407
959.00,0.0405
958.00,0.0404
957.00,0.0404
956.00,0.0404
955.00,0.0405
954.00,0.0404
953.00,0.0404
952.00,0.0403
951.00,0.0402
950.00,0.0402
949.00,0.0401
948.00,0.0400
947.00,0.0400
946.00,0.0400
945.00,0.0401
944.00,0.0401
943.00,0.0400
942.00,0.0400
941.00,0.0400
940.00,0.0399
939.00,0.0398
938.00,0.0398
937.00,0.0398
936.00,0.0398
935.00,0.0397
934.00,0.0396
933.00,0.0395
932.00,0.0395
931.00,0.0395
930.00,0.0395
929.00,0.0395
928.00,0.0395
927.00,0.0395
926.00,0.0396
925.00,0.0397
924.00,0.0399
923.00,0.0401
922.00,0.0403
921.00,0.0404
920.00,0.0405
919.00,0.0405
918.00,0.0405
917.00,0.0405
916.00,0.0406
915.00,0.0407
914.00,0.0407
913.00,0.0406
912.00,0.0406
911.00,0.0406
910.00,0.0405
909.00,0.0404
908.00,0.0403
907.00,0.0403
906.00,0.0403
905.00,0.0404
904.00,0.0405
903.00,0.0406
902.00,0.0407
901.00,0.0408
900.00,0.0407
899.00,0.0407
898.00,0.0406
897.00,0.0406
896.00,0.0407
895.00,0.0408
894.00,0.0408
893.00,0.0409
892.00,0.0409
891.00,0.0409
890.00,0.0409
889.00,0.0408
888.00,0.0407
887.00,0.0407
886.00,0.0407
885.00,0.0407
884.00,0.0407
883.00,0.0406
882.00,0.0405
881.00,0.0405
880.00,0.0406
879.00,0.0406
878.00,0.0406
877.00,0.0406
876.00,0.0406
875.00,0.0407
874.00,0.0407
873.00,0.0407
872.00,0.0408
871.00,0.0409
870.00,0.0410
869.00,0.0411
868.00,0.0412
867.00,0.0413
866.00,0.0414
865.00,0.0414
864.00,0.0413
863.00,0.0412
862.00,0.0411
861.00,0.0410
860.00,0.0410
859.00,0.0409
858.00,0.0410
857.00,0.0412
856.00,0.0415
855.00,0.0417
854.00,0.0417
853.00,0.0417
852.00,0.0418
851.00,0.0419
850.00,0.0419
849.00,0.0421
848.00,0.0422
847.00,0.0425
846.00,0.0428
845.00,0.0432
844.00,0.0436
843.00,0.0438
842.00,0.0439
841.00,0.0440
840.00,0.0440
839.00,0.0439
838.00,0.0440
837.00,0.0441
836.00,0.0443
835.00,0.0445
834.00,0.0447
833.00,0.0448
832.00,0.0450
831.00,0.0451
830.00,0.0453
829.00,0.0454
828.00,0.0456
827.00,0.0456
826.00,0.0457
825.00,0.0458
824.00,0.0459
823.00,0.0460
822.00,0.0460
821.00,0.0460
820.00,0.0462
819.00,0.0466
818.00,0.0469
817.00,0.0472
816.00,0.0474
815.00,0.0476
814.00,0.0477
813.00,0.0477
812.00,0.0478
811.00,0.0478
810.00,0.0479
809.00,0.0480
808.00,0.0481
807.00,0.0480
806.00,0.0480
805.00,0.0482
804.00,0.0483
803.00,0.0483
802.00,0.0483
801.00,0.0482
800.00,0.0484
799.00,0.0486
798.00,0.0490
797.00,0.0493
796.00,0.0496
795.00,0.0498
794.00,0.0498
793.00,0.0497
792.00,0.0496
791.00,0.0496
790.00,0.0498
789.00,0.0500
788.00,0.0501
787.00,0.0503
786.00,0.0504
785.00,0.0504
784.00,0.0504
783.00,0.0503
782.00,0.0502
781.00,0.0504
780.00,0.0508
779.00,0.0512
778.00,0.0514
777.00,0.0515
776.00,0.0515
775.00,0.0515
774.00,0.0514
773.00,0.0513
772.00,0.0513
771.00,0.0515
770.00,0.0516
769.00,0.0517
768.00,0.0519
767.00,0.0522
766.00,0.0526
765.00,0.0530
764.00,0.0531
763.00,0.0530
762.00,0.0529
761.00,0.0528
760.00,0.0529
759.00,0.0530
758.00,0.0530
757.00,0.0531
756.00,0.0532
755.00,0.0532
754.00,0.0533
753.00,0.0534
752.00,0.0534
751.00,0.0532
750.00,0.0530
749.00,0.0528
748.00,0.0530
747.00,0.0532
746.00,0.0534
745.00,0.0536
744.00,0.0537
743.00,0.0539
742.00,0.0540
741.00,0.0540
740.00,0.0539
739.00,0.0537
738.00,0.0535
737.00,0.0535
736.00,0.0536
735.00,0.0538
734.00,0.0538
733.00,0.0539
732.00,0.0539
731.00,0.0540
730.00,0.0540
729.00,0.0541
728.00,0.0541
727.00,0.0541
726.00,0.0541
725.00,0.0542
724.00,0.0544
723.00,0.0546
722.00,0.0548
721.00,0.0549
720.00,0.0551
719.00,0.0553
718.00,0.0554
717.00,0.0555
716.00,0.0555
715.00,0.0557
714.00,0.0559
713.00,0.0558
712.00,0.0557
711.00,0.0557
710.00,0.0560
709.00,0.0564
708.00,0.0566
707.00,0.0566
706.00,0.0568
705.00,0.0571
704.00,0.0572
703.00,0.0571
702.00,0.0570
701.00,0.0571
700.00,0.0573
699.00,0.0574
698.00,0.0574
697.00,0.0574
696.00,0.0574
695.00,0.0573
694.00,0.0572
693.00,0.0571
692.00,0.0572
691.00,0.0576
690.00,0.0581
689.00,0.0586
688.00,0.0588
687.00,0.0588
686.00,0.0589
685.00,0.0589
684.00,0.0589
683.00,0.0588
682.00,0.0589
681.00,0.0591
680.00,0.0593
679.00,0.0594
678.00,0.0594
677.00,0.0595
676.00,0.0596
675.00,0.0596
674.00,0.0596
673.00,0.0598
672.00,0.0602
671.00,0.0605
670.00,0.0607
669.00,0.0609
668.00,0.0611
667.00,0.0612
666.00,0.0610
665.00,0.0608
664.00,0.0608
663.00,0.0609
662.00,0.0610
661.00,0.0611
660.00,0.0613
659.00,0.0616
658.00,0.0619
657.00,0.0622
656.00,0.0625
655.00,0.0629
654.00,0.0632
653.00,0.0636
652.00,0.0638
651.00,0.0639
650.00,0.0637
