Created as New Dataset,Sample 009 By Administrator Date Monday, March 20 2023
cm-1,A
4000.00,0.0167
3999.00,0.0167
3998.00,0.0167
3997.00,0.0167
3996.00,0.0167
3995.00,0.0167
3994.00,0.0167
3993.00,0.0167
3992.00,0.0167
3991.00,0.0167
3990.00,0.0167
3989.00,0.0167
3988.00,0.0167
3987.00,0.0167
3986.00,0.0167
3985.00,0.0167
3984.00,0.0167
3983.00,0.0167
3982.00,0.0167
3981.00,0.0167
3980.00,0.0167
3979.00,0.0167
3978.00,0.0167
3977.00,0.0167
3976.00,0.0167
3975.00,0.0167
3974.00,0.0166
3973.00,0.0166
3972.00,0.0166
3971.00,0.0166
3970.00,0.0166
3969.00,0.0166
3968.00,0.0166
3967.00,0.0166
3966.00,0.0166
3965.00,0.0166
3964.00,0.0167
3963.00,0.0167
3962.00,0.0166
3961.00,0.0166
3960.00,0.0166
3959.00,0.0166
3958.00,0.0166
3957.00,0.0166
3956.00,0.0166
3955.00,0.0166
3954.00,0.0166
3953.00,0.0166
3952.00,0.0166
3951.00,0.0166
3950.00,0.0166
3949.00,0.0167
3948.00,0.0167
3947.00,0.0167
3946.00,0.0167
3945.00,0.0166
3944.00,0.0166
3943.00,0.0166
3942.00,0.0166
3941.00,0.0166
3940.00,0.0166
3939.00,0.0166
3938.00,0.0166
3937.00,0.0166
3936.00,0.0166
3935.00,0.0167
3934.00,0.0167
3933.00,0.0167
3932.00,0.0167
3931.00,0.0166
3930.00,0.0166
3929.00,0.0166
3928.00,0.0166
3927.00,0.0166
3926.00,0.0165
3925.00,0.0165
3924.00,0.0165
3923.00,0.0166
3922.00,0.0166
3921.00,0.0167
3920.00,0.0167
3919.00,0.0167
3918.00,0.0167
3917.00,0.0167
3916.00,0.0166
3915.00,0.0166
3914.00,0.0165
3913.00,0.0165
3912.00,0.0165
3911.00,0.0165
3910.00,0.0165
3909.00,0.0165
3908.00,0.0165
3907.00,0.0165
3906.00,0.0166
3905.00,0.0167
3904.00,0.0168
3903.00,0.0169
3902.00,0.0169
3901.00,0.0169
3900.00,0.0168
3899.00,0.0167
3898.00,0.0166
3897.00,0.0166
3896.00,0.0166
3895.00,0.0166
3894.00,0.0166
3893.00,0.0166
3892.00,0.0166
3891.00,0.0166
3890.00,0.0166
3889.00,0.0166
3888.00,0.0166
3887.00,0.0167
3886.00,0.0166
3885.00,0.0166
3884.00,0.0166
3883.00,0.0166
3882.00,0.0166
3881.00,0.0165
3880.00,0.0165
3879.00,0.0165
3878.00,0.0165
3877.00,0.0165
3876.00,0.0165
3875.00,0.0164
3874.00,0.0164
3873.00,0.0165
3872.00,0.0166
3871.00,0.0167
3870.00,0.0167
3869.00,0.0167
3868.00,0.0167
3867.00,0.0168
3866.00,0.0168
3865.00,0.0168
3864.00,0.0167
3863.00,0.0166
3862.00,0.0166
3861.00,0.0166
3860.00,0.0166
3859.00,0.0165
3858.00,0.0165
3857.00,0.0164
3856.00,0.0164
3855.00,0.0165
3854.00,0.0165
3853.00,0.0165
3852.00,0.0165
3851.00,0.0165
3850.00,0.0165
3849.00,0.0165
3848.00,0.0165
3847.00,0.0165
3846.00,0.0164
3845.00,0.0164
3844.00,0.0164
3843.00,0.0164
3842.00,0.0165
3841.00,0.0165
3840.00,0.0166
3839.00,0.0166
3838.00,0.0165
3837.00,0.0165
3836.00,0.0165
3835.00,0.0165
3834.00,0.0165
3833.00,0.0165
3832.00,0.0164
3831.00,0.0164
3830.00,0.0164
3829.00,0.0163
3828.00,0.0163
3827.00,0.0163
3826.00,0.0163
3825.00,0.0163
3824.00,0.0164
3823.00,0.0165
3822.00,0.0165
3821.00,0.0165
3820.00,0.0164
3819.00,0.0164
3818.00,0.0164
3817.00,0.0164
3816.00,0.0163
3815.00,0.0162
3814.00,0.0161
3813.00,0.0161
3812.00,0.0161
3811.00,0.0161
3810.00,0.0161
3809.00,0.0161
3808.00,0.0162
3807.00,0.0162
3806.00,0.0162
3805.00,0.0162
3804.00,0.0162
3803.00,0.0162
3802.00,0.0162
3801.00,0.0162
3800.00,0.0162
3799.00,0.0162
3798.00,0.0162
3797.00,0.0161
3796.00,0.0161
3795.00,0.0160
3794.00,0.0160
3793.00,0.0159
3792.00,0.0159
3791.00,0.0158
3790.00,0.0158
3789.00,0.0158
3788.00,0.0158
3787.00,0.0158
3786.00,0.0158
3785.00,0.0158
3784.00,0.0158
3783.00,0.0158
3782.00,0.0158
3781.00,0.0158
3780.00,0.0157
3779.00,0.0157
3778.00,0.0157
3777.00,0.0157
3776.00,0.0157
3775.00,0.0157
3774.00,0.0157
3773.00,0.0157
3772.00,0.0157
3771.00,0.0158
3770.00,0.0158
3769.00,0.0158
3768.00,0.0159
3767.00,0.0159
3766.00,0.0159
3765.00,0.0158
3764.00,0.0158
3763.00,0.0158
3762.00,0.0158
3761.00,0.0158
3760.00,0.0157
3759.00,0.0157
3758.00,0.0158
3757.00,0.0158
3756.00,0.0159
3755.00,0.0159
3754.00,0.0160
3753.00,0.0161
3752.00,0.0162
3751.00,0.0163
3750.00,0.0164
3749.00,0.0164
3748.00,0.0163
3747.00,0.0162
3746.00,0.0161
3745.00,0.0160
3744.00,0.0160
3743.00,0.0159
3742.00,0.0160
3741.00,0.0160
3740.00,0.0160
3739.00,0.0160
3738.00,0.0161
3737.00,0.0161
3736.00,0.0160
3735.00,0.0160
3734.00,0.0159
3733.00,0.0159
3732.00,0.0158
3731.00,0.0157
3730.00,0.0157
3729.00,0.0156
3728.00,0.0156
3727.00,0.0156
3726.00,0.0156
3725.00,0.0155
3724.00,0.0155
3723.00,0.0155
3722.00,0.0154
3721.00,0.0153
3720.00,0.0153
3719.00,0.0152
3718.00,0.0152
3717.00,0.0152
3716.00,0.0153
3715.00,0.0153
3714.00,0.0153
3713.00,0.0154
3712.00,0.0154
3711.00,0.0154
3710.00,0.0153
3709.00,0.0153
3708.00,0.0153
3707.00,0.0152
3706.00,0.0151
3705.00,0.0151
3704.00,0.0150
3703.00,0.0149
3702.00,0.0149
3701.00,0.0149
3700.00,0.0149
3699.00,0.0149
3698.00,0.0149
3697.00,0.0149
3696.00,0.0149
3695.00,0.0149
3694.00,0.0150
3693.00,0.0150
3692.00,0.0150
3691.00,0.0150
3690.00,0.0150
3689.00,0.0150
3688.00,0.0150
3687.00,0.0150
3686.00,0.0150
3685.00,0.0150
3684.00,0.0150
3683.00,0.0150
3682.00,0.0150
3681.00,0.0150
3680.00,0.0150
3679.00,0.0150
3678.00,0.0151
3677.00,0.0152
3676.00,0.0152
3675.00,0.0153
3674.00,0.0153
3673.00,0.0154
3672.00,0.0155
3671.00,0.0154
3670.00,0.0153
3669.00,0.0152
3668.00,0.0152
3667.00,0.0152
3666.00,0.0152
3665.00,0.0152
3664.00,0.0151
3663.00,0.0151
3662.00,0.0151
3661.00,0.0152
3660.00,0.0152
3659.00,0.0153
3658.00,0.0154
3657.00,0.0155
3656.00,0.0156
3655.00,0.0156
3654.00,0.0157
3653.00,0.0158
3652.00,0.0159
3651.00,0.0161
3650.00,0.0162
3649.00,0.0162
3648.00,0.0162
3647.00,0.0161
3646.00,0.0161
3645.00,0.0161
3644.00,0.0160
3643.00,0.0160
3642.00,0.0160
3641.00,0.0159
3640.00,0.0159
3639.00,0.0160
3638.00,0.0160
3637.00,0.0160
3636.00,0.0161
3635.00,0.0162
3634.00,0.0163
3633.00,0.0164
3632.00,0.0165
3631.00,0.0166
3630.00,0.0167
3629.00,0.0167
3628.00,0.0168
3627.00,0.0168
3626.00,0.0168
3625.00,0.0168
3624.00,0.0168
3623.00,0.0169
3622.00,0.0169
3621.00,0.0169
3620.00,0.0169
3619.00,0.0170
3618.00,0.0170
3617.00,0.0171
3616.00,0.0172
3615.00,0.0173
3614.00,0.0173
3613.00,0.0174
3612.00,0.0175
3611.00,0.0176
3610.00,0.0176
3609.00,0.0176
3608.00,0.0175
3607.00,0.0174
3606.00,0.0174
3605.00,0.0174
3604.00,0.0174
3603.00,0.0174
3602.00,0.0175
3601.00,0.0175
3600.00,0.0175
3599.00,0.0176
3598.00,0.0176
3597.00,0.0177
3596.00,0.0177
3595.00,0.0177
3594.00,0.0177
3593.00,0.0178
3592.00,0.0179
3591.00,0.0180
3590.00,0.0181
3589.00,0.0181
3588.00,0.0181
3587.00,0.0181
3586.00,0.0181
3585.00,0.0181
3584.00,0.0181
3583.00,0.0181
3582.00,0.0181
3581.00,0.0181
3580.00,0.0181
3579.00,0.0181
3578.00,0.0182
3577.00,0.0182
3576.00,0.0182
3575.00,0.0183
3574.00,0.0183
3573.00,0.0184
3572.00,0.0185
3571.00,0.0185
3570.00,0.0186
3569.00,0.0187
3568.00,0.0188
3567.00,0.0188
3566.00,0.0188
3565.00,0.0188
3564.00,0.0188
3563.00,0.0189
3562.00,0.0189
3561.00,0.0189
3560.00,0.0189
3559.00,0.0189
3558.00,0.0189
3557.00,0.0189
3556.00,0.0190
3555.00,0.0191
3554.00,0.0191
3553.00,0.0191
3552.00,0.0192
3551.00,0.0192
3550.00,0.0193
3549.00,0.0194
3548.00,0.0195
3547.00,0.0195
3546.00,0.0195
3545.00,0.0195
3544.00,0.0195
3543.00,0.0195
3542.00,0.0195
3541.00,0.0196
3540.00,0.0196
3539.00,0.0196
3538.00,0.0196
3537.00,0.0197
3536.00,0.0197
3535.00,0.0197
3534.00,0.0198
3533.00,0.0198
3532.00,0.0199
3531.00,0.0199
3530.00,0.0200
3529.00,0.0200
3528.00,0.0201
3527.00,0.0202
3526.00,0.0202
3525.00,0.0202
3524.00,0.0202
3523.00,0.0202
3522.00,0.0202
3521.00,0.0202
3520.00,0.0202
3519.00,0.0203
3518.00,0.0203
3517.00,0.0203
3516.00,0.0204
3515.00,0.0204
3514.00,0.0204
3513.00,0.0204
3512.00,0.0205
3511.00,0.0205
3510.00,0.0206
3509.00,0.0206
3508.00,0.0206
3507.00,0.0207
3506.00,0.0208
3505.00,0.0208
3504.00,0.0208
3503.00,0.0208
3502.00,0.0208
3501.00,0.0209
3500.00,0.0209
3499.00,0.0209
3498.00,0.0210
3497.00,0.0210
3496.00,0.0210
3495.00,0.0210
3494.00,0.0211
3493.00,0.0211
3492.00,0.0211
3491.00,0.0212
3490.00,0.0212
3489.00,0.0212
3488.00,0.0212
3487.00,0.0213
3486.00,0.0213
3485.00,0.0213
3484.00,0.0214
3483.00,0.0214
3482.00,0.0214
3481.00,0.0215
3480.00,0.0215
3479.00,0.0215
3478.00,0.0215
3477.00,0.0216
3476.00,0.0216
3475.00,0.0216
3474.00,0.0217
3473.00,0.0217
3472.00,0.0217
3471.00,0.0217
3470.00,0.0218
3469.00,0.0218
3468.00,0.0218
3467.00,0.0219
3466.00,0.0219
3465.00,0.0219
3464.00,0.0220
3463.00,0.0220
3462.00,0.0220
3461.00,0.0221
3460.00,0.0221
3459.00,0.0221
3458.00,0.0221
3457.00,0.0221
3456.00,0.0222
3455.00,0.0222
3454.00,0.0222
3453.00,0.0223
3452.00,0.0223
3451.00,0.0224
3450.00,0.0224
3449.00,0.0224
3448.00,0.0225
3447.00,0.0225
3446.00,0.0225
3445.00,0.0226
3444.00,0.0226
3443.00,0.0226
3442.00,0.0226
3441.00,0.0226
3440.00,0.0226
3439.00,0.0226
3438.00,0.0227
3437.00,0.0227
3436.00,0.0227
3435.00,0.0227
3434.00,0.0228
3433.00,0.0228
3432.00,0.0228
3431.00,0.0228
3430.00,0.0229
3429.00,0.0229
3428.00,0.0230
3427.00,0.0230
3426.00,0.0231
3425.00,0.0231
3424.00,0.0232
3423.00,0.0232
3422.00,0.0232
3421.00,0.0232
3420.00,0.0232
3419.00,0.0232
3418.00,0.0233
3417.00,0.0233
3416.00,0.0233
3415.00,0.0233
3414.00,0.0233
3413.00,0.0233
3412.00,0.0233
3411.00,0.0233
3410.00,0.0233
3409.00,0.0234
3408.00,0.0234
3407.00,0.0235
3406.00,0.0235
3405.00,0.0235
3404.00,0.0235
3403.00,0.0235
3402.00,0.0235
3401.00,0.0235
3400.00,0.0235
3399.00,0.0236
3398.00,0.0236
3397.00,0.0236
3396.00,0.0237
3395.00,0.0237
3394.00,0.0237
3393.00,0.0237
3392.00,0.0237
3391.00,0.0237
3390.00,0.0238
3389.00,0.0238
3388.00,0.0238
3387.00,0.0239
3386.00,0.0239
3385.00,0.0239
3384.00,0.0239
3383.00,0.0239
3382.00,0.0240
3381.00,0.0240
3380.00,0.0240
3379.00,0.0240
3378.00,0.0240
3377.00,0.0240
3376.00,0.0240
3375.00,0.0241
3374.00,0.0241
3373.00,0.0241
3372.00,0.0241
3371.00,0.0241
3370.00,0.0241
3369.00,0.0241
3368.00,0.0241
3367.00,0.0241
3366.00,0.0242
3365.00,0.0242
3364.00,0.0242
3363.00,0.0243
3362.00,0.0243
3361.00,0.0243
3360.00,0.0243
3359.00,0.0243
3358.00,0.0243
3357.00,0.0243
3356.00,0.0243
3355.00,0.0243
3354.00,0.0244
3353.00,0.0243
3352.00,0.0243
3351.00,0.0243
3350.00,0.0243
3349.00,0.0243
3348.00,0.0244
3347.00,0.0244
3346.00,0.0244
3345.00,0.0244
3344.00,0.0244
3343.00,0.0244
3342.00,0.0244
3341.00,0.0244
3340.00,0.0244
3339.00,0.0244
3338.00,0.0244
3337.00,0.0244
3336.00,0.0244
3335.00,0.0245
3334.00,0.0245
3333.00,0.0245
3332.00,0.0245
3331.00,0.0245
3330.00,0.0245
3329.00,0.0245
3328.00,0.0245
3327.00,0.0245
3326.00,0.0245
3325.00,0.0245
3324.00,0.0245
3323.00,0.0245
3322.00,0.0246
3321.00,0.0246
3320.00,0.0246
3319.00,0.0246
3318.00,0.0246
3317.00,0.0246
3316.00,0.0246
3315.00,0.0246
3314.00,0.0246
3313.00,0.0246
3312.00,0.0246
3311.00,0.0246
3310.00,0.0245
3309.00,0.0245
3308.00,0.0244
3307.00,0.0244
3306.00,0.0244
3305.00,0.0245
3304.00,0.0245
3303.00,0.0246
3302.00,0.0246
3301.00,0.0246
3300.00,0.0246
3299.00,0.0246
3298.00,0.0246
3297.00,0.0246
3296.00,0.0246
3295.00,0.0246
3294.00,0.0246
3293.00,0.0246
3292.00,0.0246
3291.00,0.0246
3290.00,0.0247
3289.00,0.0247
3288.00,0.0247
3287.00,0.0247
3286.00,0.0247
3285.00,0.0247
3284.00,0.0247
3283.00,0.0247
3282.00,0.0247
3281.00,0.0247
3280.00,0.0247
3279.00,0.0247
3278.00,0.0247
3277.00,0.0247
3276.00,0.0247
3275.00,0.0247
3274.00,0.0246
3273.00,0.0246
3272.00,0.0246
3271.00,0.0246
3270.00,0.0246
3269.00,0.0246
3268.00,0.0247
3267.00,0.0247
3266.00,0.0247
3265.00,0.0247
3264.00,0.0248
3263.00,0.0248
3262.00,0.0248
3261.00,0.0248
3260.00,0.0248
3259.00,0.0248
3258.00,0.0248
3257.00,0.0247
3256.00,0.0247
3255.00,0.0247
3254.00,0.0247
3253.00,0.0248
3252.00,0.0248
3251.00,0.0248
3250.00,0.0247
3249.00,0.0247
3248.00,0.0247
3247.00,0.0246
3246.00,0.0247
3245.00,0.0247
3244.00,0.0247
3243.00,0.0248
3242.00,0.0248
3241.00,0.0248
3240.00,0.0248
3239.00,0.0248
3238.00,0.0248
3237.00,0.0247
3236.00,0.0247
3235.00,0.0246
3234.00,0.0246
3233.00,0.0246
3232.00,0.0246
3231.00,0.0247
3230.00,0.0247
3229.00,0.0248
3228.00,0.0248
3227.00,0.0248
3226.00,0.0248
3225.00,0.0248
3224.00,0.0248
3223.00,0.0248
3222.00,0.0248
3221.00,0.0248
3220.00,0.0248
3219.00,0.0248
3218.00,0.0248
3217.00,0.0248
3216.00,0.0248
3215.00,0.0248
3214.00,0.0248
3213.00,0.0248
3212.00,0.0248
3211.00,0.0248
3210.00,0.0248
3209.00,0.0248
3208.00,0.0247
3207.00,0.0247
3206.00,0.0247
3205.00,0.0247
3204.00,0.0247
3203.00,0.0247
3202.00,0.0248
3201.00,0.0248
3200.00,0.0248
3199.00,0.0247
3198.00,0.0247
3197.00,0.0247
3196.00,0.0247
3195.00,0.0247
3194.00,0.0247
3193.00,0.0247
3192.00,0.0247
3191.00,0.0247
3190.00,0.0246
3189.00,0.0247
3188.00,0.0247
3187.00,0.0247
3186.00,0.0247
3185.00,0.0247
3184.00,0.0247
3183.00,0.0246
3182.00,0.0246
3181.00,0.0246
3180.00,0.0246
3179.00,0.0246
3178.00,0.0246
3177.00,0.0246
3176.00,0.0246
3175.00,0.0246
3174.00,0.0246
3173.00,0.0246
3172.00,0.0246
3171.00,0.0246
3170.00,0.0246
3169.00,0.0246
3168.00,0.0245
3167.00,0.0245
3166.00,0.0245
3165.00,0.0245
3164.00,0.0245
3163.00,0.0245
3162.00,0.0245
3161.00,0.0245
3160.00,0.0244
3159.00,0.0244
3158.00,0.0244
3157.00,0.0244
3156.00,0.0243
3155.00,0.0242
3154.00,0.0242
3153.00,0.0241
3152.00,0.0241
3151.00,0.0241
3150.00,0.0242
3149.00,0.0242
3148.00,0.0243
3147.00,0.0243
3146.00,0.0243
3145.00,0.0243
3144.00,0.0242
3143.00,0.0242
3142.00,0.0241
3141.00,0.0240
3140.00,0.0240
3139.00,0.0240
3138.00,0.0240
3137.00,0.0241
3136.00,0.0241
3135.00,0.0241
3134.00,0.0241
3133.00,0.0241
3132.00,0.0240
3131.00,0.0240
3130.00,0.0240
3129.00,0.0240
3128.00,0.0240
3127.00,0.0241
3126.00,0.0241
3125.00,0.0240
3124.00,0.0240
3123.00,0.0239
3122.00,0.0238
3121.00,0.0237
3120.00,0.0236
3119.00,0.0236
3118.00,0.0236
3117.00,0.0236
3116.00,0.0236
3115.00,0.0237
3114.00,0.0237
3113.00,0.0238
3112.00,0.0238
3111.00,0.0238
3110.00,0.0237
3109.00,0.0237
3108.00,0.0237
3107.00,0.0237
3106.00,0.0238
3105.00,0.0238
3104.00,0.0238
3103.00,0.0238
3102.00,0.0237
3101.00,0.0237
3100.00,0.0237
3099.00,0.0237
3098.00,0.0237
3097.00,0.0237
3096.00,0.0237
3095.00,0.0237
3094.00,0.0237
3093.00,0.0237
3092.00,0.0236
3091.00,0.0236
3090.00,0.0235
3089.00,0.0235
3088.00,0.0235
3087.00,0.0235
3086.00,0.0235
3085.00,0.0235
3084.00,0.0234
3083.00,0.0234
3082.00,0.0234
3081.00,0.0234
3080.00,0.0233
3079.00,0.0233
3078.00,0.0233
3077.00,0.0234
3076.00,0.0234
3075.00,0.0235
3074.00,0.0235
3073.00,0.0235
3072.00,0.0235
3071.00,0.0235
3070.00,0.0235
3069.00,0.0234
3068.00,0.0234
3067.00,0.0234
3066.00,0.0234
3065.00,0.0234
3064.00,0.0234
3063.00,0.0234
3062.00,0.0234
3061.00,0.0234
3060.00,0.0234
3059.00,0.0234
3058.00,0.0233
3057.00,0.0233
3056.00,0.0233
3055.00,0.0233
3054.00,0.0233
3053.00,0.0232
3052.00,0.0232
3051.00,0.0232
3050.00,0.0232
3049.00,0.0232
3048.00,0.0231
3047.00,0.0231
3046.00,0.0231
3045.00,0.0230
3044.00,0.0230
3043.00,0.0230
3042.00,0.0230
3041.00,0.0230
3040.00,0.0230
3039.00,0.0230
3038.00,0.0230
3037.00,0.0230
3036.00,0.0230
3035.00,0.0229
3034.00,0.0229
3033.00,0.0229
3032.00,0.0230
3031.00,0.0230
3030.00,0.0230
3029.00,0.0230
3028.00,0.0230
3027.00,0.0230
3026.00,0.0229
3025.00,0.0229
3024.00,0.0229
3023.00,0.0229
3022.00,0.0228
3021.00,0.0228
3020.00,0.0228
3019.00,0.0228
3018.00,0.0228
3017.00,0.0227
3016.00,0.0227
3015.00,0.0227
3014.00,0.0227
3013.00,0.0227
3012.00,0.0227
3011.00,0.0228
3010.00,0.0229
3009.00,0.0229
3008.00,0.0230
3007.00,0.0231
3006.00,0.0231
3005.00,0.0231
3004.00,0.0232
3003.00,0.0232
3002.00,0.0233
3001.00,0.0233
3000.00,0.0233
2999.00,0.0233
2998.00,0.0233
2997.00,0.0233
2996.00,0.0234
2995.00,0.0234
2994.00,0.0234
2993.00,0.0234
2992.00,0.0234
2991.00,0.0234
2990.00,0.0235
2989.00,0.0235
2988.00,0.0236
2987.00,0.0236
2986.00,0.0237
2985.00,0.0238
2984.00,0.0239
2983.00,0.0240
2982.00,0.0241
2981.00,0.0241
2980.00,0.0240
2979.00,0.0239
2978.00,0.0238
2977.00,0.0238
2976.00,0.0237
2975.00,0.0237
2974.00,0.0237
2973.00,0.0238
2972.00,0.0238
2971.00,0.0238
2970.00,0.0237
2969.00,0.0236
2968.00,0.0235
2967.00,0.0235
2966.00,0.0234
2965.00,0.0234
2964.00,0.0233
2963.00,0.0233
2962.00,0.0232
2961.00,0.0232
2960.00,0.0232
2959.00,0.0232
2958.00,0.0231
2957.00,0.0231
2956.00,0.0230
2955.00,0.0230
2954.00,0.0229
2953.00,0.0229
2952.00,0.0229
2951.00,0.0228
2950.00,0.0228
2949.00,0.0228
2948.00,0.0227
2947.00,0.0227
2946.00,0.0226
2945.00,0.0226
2944.00,0.0226
2943.00,0.0226
2942.00,0.0226
2941.00,0.0226
2940.00,0.0226
2939.00,0.0226
2938.00,0.0226
2937.00,0.0226
2936.00,0.0225
2935.00,0.0225
2934.00,0.0225
2933.00,0.0224
2932.00,0.0224
2931.00,0.0224
2930.00,0.0223
2929.00,0.0223
2928.00,0.0223
2927.00,0.0223
2926.00,0.0223
2925.00,0.0223
2924.00,0.0223
2923.00,0.0223
2922.00,0.0223
2921.00,0.0223
2920.00,0.0223
2919.00,0.0223
2918.00,0.0223
2917.00,0.0223
2916.00,0.0223
2915.00,0.0223
2914.00,0.0223
2913.00,0.0223
2912.00,0.0223
2911.00,0.0224
2910.00,0.0224
2909.00,0.0224
2908.00,0.0225
2907.00,0.0225
2906.00,0.0225
2905.00,0.0225
2904.00,0.0225
2903.00,0.0225
2902.00,0.0225
2901.00,0.0225
2900.00,0.0224
2899.00,0.0224
2898.00,0.0224
2897.00,0.0224
2896.00,0.0224
2895.00,0.0224
2894.00,0.0225
2893.00,0.0225
2892.00,0.0225
2891.00,0.0225
2890.00,0.0225
2889.00,0.0225
2888.00,0.0225
2887.00,0.0225
2886.00,0.0225
2885.00,0.0225
2884.00,0.0225
2883.00,0.0225
2882.00,0.0224
2881.00,0.0224
2880.00,0.0223
2879.00,0.0223
2878.00,0.0222
2877.00,0.0222
2876.00,0.0222
2875.00,0.0221
2874.00,0.0220
2873.00,0.0220
2872.00,0.0220
2871.00,0.0220
2870.00,0.0220
2869.00,0.0220
2868.00,0.0220
2867.00,0.0220
2866.00,0.0219
2865.00,0.0219
2864.00,0.0219
2863.00,0.0219
2862.00,0.0218
2861.00,0.0218
2860.00,0.0217
2859.00,0.0217
2858.00,0.0217
2857.00,0.0217
2856.00,0.0217
2855.00,0.0217
2854.00,0.0217
2853.00,0.0217
2852.00,0.0217
2851.00,0.0217
2850.00,0.0216
2849.00,0.0216
2848.00,0.0216
2847.00,0.0216
2846.00,0.0216
2845.00,0.0216
2844.00,0.0216
2843.00,0.0216
2842.00,0.0216
2841.00,0.0215
2840.00,0.0215
2839.00,0.0214
2838.00,0.0214
2837.00,0.0215
2836.00,0.0215
2835.00,0.0215
2834.00,0.0215
2833.00,0.0215
2832.00,0.0215
2831.00,0.0215
2830.00,0.0215
2829.00,0.0215
2828.00,0.0215
2827.00,0.0215
2826.00,0.0214
2825.00,0.0214
2824.00,0.0214
2823.00,0.0214
2822.00,0.0214
2821.00,0.0214
2820.00,0.0214
2819.00,0.0213
2818.00,0.0213
2817.00,0.0213
2816.00,0.0213
2815.00,0.0213
2814.00,0.0213
2813.00,0.0213
2812.00,0.0213
2811.00,0.0213
2810.00,0.0212
2809.00,0.0212
2808.00,0.0212
2807.00,0.0212
2806.00,0.0212
2805.00,0.0212
2804.00,0.0212
2803.00,0.0212
2802.00,0.0212
2801.00,0.0212
2800.00,0.0211
2799.00,0.0211
2798.00,0.0211
2797.00,0.0211
2796.00,0.0211
2795.00,0.0211
2794.00,0.0211
2793.00,0.0211
2792.00,0.0211
2791.00,0.0210
2790.00,0.0210
2789.00,0.0210
2788.00,0.0210
2787.00,0.0211
2786.00,0.0211
2785.00,0.0211
2784.00,0.0211
2783.00,0.0211
2782.00,0.0211
2781.00,0.0210
2780.00,0.0210
2779.00,0.0210
2778.00,0.0210
2777.00,0.0210
2776.00,0.0210
2775.00,0.0210
2774.00,0.0209
2773.00,0.0210
2772.00,0.0210
2771.00,0.0210
2770.00,0.0210
2769.00,0.0210
2768.00,0.0210
2767.00,0.0210
2766.00,0.0210
2765.00,0.0210
2764.00,0.0210
2763.00,0.0210
2762.00,0.0209
2761.00,0.0209
2760.00,0.0209
2759.00,0.0209
2758.00,0.0209
2757.00,0.0209
2756.00,0.0209
2755.00,0.0209
2754.00,0.0209
2753.00,0.0208
2752.00,0.0208
2751.00,0.0208
2750.00,0.0208
2749.00,0.0208
2748.00,0.0207
2747.00,0.0208
2746.00,0.0208
2745.00,0.0208
2744.00,0.0208
2743.00,0.0208
2742.00,0.0208
2741.00,0.0208
2740.00,0.0208
2739.00,0.0208
2738.00,0.0207
2737.00,0.0207
2736.00,0.0207
2735.00,0.0207
2734.00,0.0207
2733.00,0.0207
2732.00,0.0207
2731.00,0.0207
2730.00,0.0207
2729.00,0.0207
2728.00,0.0206
2727.00,0.0206
2726.00,0.0206
2725.00,0.0206
2724.00,0.0206
2723.00,0.0206
2722.00,0.0206
2721.00,0.0206
2720.00,0.0206
2719.00,0.0206
2718.00,0.0206
2717.00,0.0206
2716.00,0.0206
2715.00,0.0206
2714.00,0.0206
2713.00,0.0206
2712.00,0.0206
2711.00,0.0206
2710.00,0.0205
2709.00,0.0205
2708.00,0.0205
2707.00,0.0205
2706.00,0.0205
2705.00,0.0206
2704.00,0.0206
2703.00,0.0205
2702.00,0.0205
2701.00,0.0205
2700.00,0.0205
2699.00,0.0205
2698.00,0.0205
2697.00,0.0205
2696.00,0.0205
2695.00,0.0205
2694.00,0.0205
2693.00,0.0205
2692.00,0.0205
2691.00,0.0205
2690.00,0.0205
2689.00,0.0205
2688.00,0.0205
2687.00,0.0205
2686.00,0.0204
2685.00,0.0204
2684.00,0.0204
2683.00,0.0204
2682.00,0.0204
2681.00,0.0204
2680.00,0.0204
2679.00,0.0204
2678.00,0.0204
2677.00,0.0204
2676.00,0.0204
2675.00,0.0204
2674.00,0.0204
2673.00,0.0204
2672.00,0.0204
2671.00,0.0204
2670.00,0.0204
2669.00,0.0204
2668.00,0.0204
2667.00,0.0204
2666.00,0.0204
2665.00,0.0204
2664.00,0.0204
2663.00,0.0204
2662.00,0.0205
2661.00,0.0205
2660.00,0.0205
2659.00,0.0205
2658.00,0.0205
2657.00,0.0205
2656.00,0.0205
2655.00,0.0205
2654.00,0.0205
2653.00,0.0204
2652.00,0.0204
2651.00,0.0204
2650.00,0.0204
2649.00,0.0204
2648.00,0.0203
2647.00,0.0203
2646.00,0.0203
2645.00,0.0203
2644.00,0.0202
2643.00,0.0202
2642.00,0.0202
2641.00,0.0202
2640.00,0.0202
2639.00,0.0202
2638.00,0.0201
2637.00,0.0201
2636.00,0.0201
2635.00,0.0200
2634.00,0.0200
2633.00,0.0200
2632.00,0.0200
2631.00,0.0200
2630.00,0.0200
2629.00,0.0199
2628.00,0.0199
2627.00,0.0199
2626.00,0.0198
2625.00,0.0198
2624.00,0.0198
2623.00,0.0198
2622.00,0.0198
2621.00,0.0198
2620.00,0.0198
2619.00,0.0197
2618.00,0.0197
2617.00,0.0197
2616.00,0.0197
2615.00,0.0197
2614.00,0.0197
2613.00,0.0196
2612.00,0.0196
2611.00,0.0196
2610.00,0.0195
2609.00,0.0195
2608.00,0.0195
2607.00,0.0195
2606.00,0.0195
2605.00,0.0195
2604.00,0.0195
2603.00,0.0194
2602.00,0.0194
2601.00,0.0194
2600.00,0.0194
2599.00,0.0194
2598.00,0.0194
2597.00,0.0194
2596.00,0.0194
2595.00,0.0193
2594.00,0.0193
2593.00,0.0193
2592.00,0.0193
2591.00,0.0193
2590.00,0.0193
2589.00,0.0193
2588.00,0.0193
2587.00,0.0192
2586.00,0.0192
2585.00,0.0192
2584.00,0.0192
2583.00,0.0192
2582.00,0.0191
2581.00,0.0191
2580.00,0.0191
2579.00,0.0191
2578.00,0.0190
2577.00,0.0190
2576.00,0.0190
2575.00,0.0190
2574.00,0.0190
2573.00,0.0190
2572.00,0.0190
2571.00,0.0190
2570.00,0.0190
2569.00,0.0190
2568.00,0.0190
2567.00,0.0190
2566.00,0.0190
2565.00,0.0190
2564.00,0.0190
2563.00,0.0190
2562.00,0.0190
2561.00,0.0190
2560.00,0.0189
2559.00,0.0189
2558.00,0.0189
2557.00,0.0189
2556.00,0.0189
2555.00,0.0189
2554.00,0.0189
2553.00,0.0189
2552.00,0.0189
2551.00,0.0189
2550.00,0.0188
2549.00,0.0188
2548.00,0.0188
2547.00,0.0188
2546.00,0.0188
2545.00,0.0188
2544.00,0.0188
2543.00,0.0188
2542.00,0.0188
2541.00,0.0188
2540.00,0.0188
2539.00,0.0188
2538.00,0.0188
2537.00,0.0188
2536.00,0.0187
2535.00,0.0187
2534.00,0.0187
2533.00,0.0187
2532.00,0.0187
2531.00,0.0187
2530.00,0.0187
2529.00,0.0187
2528.00,0.0186
2527.00,0.0186
2526.00,0.0186
2525.00,0.0186
2524.00,0.0186
2523.00,0.0186
2522.00,0.0186
2521.00,0.0186
2520.00,0.0186
2519.00,0.0186
2518.00,0.0186
2517.00,0.0186
2516.00,0.0186
2515.00,0.0186
2514.00,0.0186
2513.00,0.0186
2512.00,0.0186
2511.00,0.0186
2510.00,0.0186
2509.00,0.0186
2508.00,0.0186
2507.00,0.0186
2506.00,0.0186
2505.00,0.0185
2504.00,0.0185
2503.00,0.0186
2502.00,0.0186
2501.00,0.0186
2500.00,0.0186
2499.00,0.0186
2498.00,0.0186
2497.00,0.0186
2496.00,0.0185
2495.00,0.0185
2494.00,0.0185
2493.00,0.0184
2492.00,0.0184
2491.00,0.0184
2490.00,0.0185
2489.00,0.0185
2488.00,0.0185
2487.00,0.0185
2486.00,0.0185
2485.00,0.0185
2484.00,0.0185
2483.00,0.0184
2482.00,0.0184
2481.00,0.0184
2480.00,0.0184
2479.00,0.0184
2478.00,0.0184
2477.00,0.0184
2476.00,0.0184
2475.00,0.0184
2474.00,0.0183
2473.00,0.0184
2472.00,0.0184
2471.00,0.0184
2470.00,0.0184
2469.00,0.0184
2468.00,0.0184
2467.00,0.0183
2466.00,0.0183
2465.00,0.0183
2464.00,0.0183
2463.00,0.0183
2462.00,0.0184
2461.00,0.0184
2460.00,0.0184
2459.00,0.0184
2458.00,0.0184
2457.00,0.0184
2456.00,0.0184
2455.00,0.0184
2454.00,0.0184
2453.00,0.0184
2452.00,0.0184
2451.00,0.0184
2450.00,0.0183
2449.00,0.0183
2448.00,0.0183
2447.00,0.0183
2446.00,0.0183
2445.00,0.0182
2444.00,0.0182
2443.00,0.0182
2442.00,0.0182
2441.00,0.0182
2440.00,0.0181
2439.00,0.0181
2438.00,0.0181
2437.00,0.0181
2436.00,0.0181
2435.00,0.0181
2434.00,0.0181
2433.00,0.0181
2432.00,0.0181
2431.00,0.0181
2430.00,0.0181
2429.00,0.0180
2428.00,0.0180
2427.00,0.0180
2426.00,0.0180
2425.00,0.0180
2424.00,0.0180
2423.00,0.0180
2422.00,0.0180
2421.00,0.0180
2420.00,0.0179
2419.00,0.0179
2418.00,0.0179
2417.00,0.0179
2416.00,0.0179
2415.00,0.0179
2414.00,0.0179
2413.00,0.0179
2412.00,0.0179
2411.00,0.0179
2410.00,0.0179
2409.00,0.0178
2408.00,0.0178
2407.00,0.0178
2406.00,0.0178
2405.00,0.0178
2404.00,0.0177
2403.00,0.0177
2402.00,0.0177
2401.00,0.0176
2400.00,0.0176
2399.00,0.0177
2398.00,0.0177
2397.00,0.0177
2396.00,0.0177
2395.00,0.0177
2394.00,0.0176
2393.00,0.0176
2392.00,0.0176
2391.00,0.0176
2390.00,0.0176
2389.00,0.0176
2388.00,0.0176
2387.00,0.0176
2386.00,0.0175
2385.00,0.0175
2384.00,0.0175
2383.00,0.0175
2382.00,0.0174
2381.00,0.0174
2380.00,0.0174
2379.00,0.0174
2378.00,0.0174
2377.00,0.0174
2376.00,0.0174
2375.00,0.0174
2374.00,0.0174
2373.00,0.0173
2372.00,0.0173
2371.00,0.0173
2370.00,0.0173
2369.00,0.0173
2368.00,0.0172
2367.00,0.0172
2366.00,0.0173
2365.00,0.0173
2364.00,0.0173
2363.00,0.0173
2362.00,0.0173
2361.00,0.0173
2360.00,0.0173
2359.00,0.0173
2358.00,0.0173
2357.00,0.0173
2356.00,0.0173
2355.00,0.0173
2354.00,0.0173
2353.00,0.0173
2352.00,0.0173
2351.00,0.0173
2350.00,0.0173
2349.00,0.0173
2348.00,0.0174
2347.00,0.0174
2346.00,0.0175
2345.00,0.0175
2344.00,0.0174
2343.00,0.0174
2342.00,0.0174
2341.00,0.0175
2340.00,0.0175
2339.00,0.0175
2338.00,0.0175
2337.00,0.0176
2336.00,0.0176
2335.00,0.0175
2334.00,0.0175
2333.00,0.0175
2332.00,0.0174
2331.00,0.0174
2330.00,0.0174
2329.00,0.0175
2328.00,0.0178
2327.00,0.0181
2326.00,0.0183
2325.00,0.0185
2324.00,0.0184
2323.00,0.0183
2322.00,0.0181
2321.00,0.0180
2320.00,0.0179
2319.00,0.0178
2318.00,0.0177
2317.00,0.0177
2316.00,0.0177
2315.00,0.0177
2314.00,0.0176
2313.00,0.0175
2312.00,0.0175
2311.00,0.0174
2310.00,0.0174
2309.00,0.0173
2308.00,0.0173
2307.00,0.0173
2306.00,0.0173
2305.00,0.0173
2304.00,0.0173
2303.00,0.0173
2302.00,0.0174
2301.00,0.0174
2300.00,0.0174
2299.00,0.0174
2298.00,0.0174
2297.00,0.0175
2296.00,0.0175
2295.00,0.0176
2294.00,0.0176
2293.00,0.0177
2292.00,0.0178
2291.00,0.0178
2290.00,0.0179
2289.00,0.0179
2288.00,0.0179
2287.00,0.0179
2286.00,0.0179
2285.00,0.0178
2284.00,0.0178
2283.00,0.0177
2282.00,0.0177
2281.00,0.0176
2280.00,0.0176
2279.00,0.0175
2278.00,0.0175
2277.00,0.0175
2276.00,0.0175
2275.00,0.0174
2274.00,0.0174
2273.00,0.0173
2272.00,0.0173
2271.00,0.0173
2270.00,0.0173
2269.00,0.0173
2268.00,0.0172
2267.00,0.0171
2266.00,0.0170
2265.00,0.0170
2264.00,0.0169
2263.00,0.0169
2262.00,0.0170
2261.00,0.0170
2260.00,0.0170
2259.00,0.0171
2258.00,0.0171
2257.00,0.0170
2256.00,0.0169
2255.00,0.0168
2254.00,0.0168
2253.00,0.0168
2252.00,0.0169
2251.00,0.0170
2250.00,0.0171
2249.00,0.0171
2248.00,0.0171
2247.00,0.0170
2246.00,0.0170
2245.00,0.0170
2244.00,0.0170
2243.00,0.0170
2242.00,0.0170
2241.00,0.0170
2240.00,0.0170
2239.00,0.0170
2238.00,0.0169
2237.00,0.0169
2236.00,0.0168
2235.00,0.0168
2234.00,0.0168
2233.00,0.0168
2232.00,0.0168
2231.00,0.0169
2230.00,0.0169
2229.00,0.0169
2228.00,0.0169
2227.00,0.0169
2226.00,0.0168
2225.00,0.0168
2224.00,0.0168
2223.00,0.0168
2222.00,0.0168
2221.00,0.0168
2220.00,0.0167
2219.00,0.0167
2218.00,0.0166
2217.00,0.0166
2216.00,0.0166
2215.00,0.0166
2214.00,0.0166
2213.00,0.0167
2212.00,0.0167
2211.00,0.0167
2210.00,0.0166
2209.00,0.0166
2208.00,0.0166
2207.00,0.0165
2206.00,0.0165
2205.00,0.0165
2204.00,0.0165
2203.00,0.0165
2202.00,0.0165
2201.00,0.0165
2200.00,0.0166
2199.00,0.0166
2198.00,0.0166
2197.00,0.0166
2196.00,0.0166
2195.00,0.0166
2194.00,0.0166
2193.00,0.0166
2192.00,0.0166
2191.00,0.0165
2190.00,0.0165
2189.00,0.0165
2188.00,0.0165
2187.00,0.0166
2186.00,0.0166
2185.00,0.0165
2184.00,0.0164
2183.00,0.0162
2182.00,0.0160
2181.00,0.0160
2180.00,0.0160
2179.00,0.0161
2178.00,0.0161
2177.00,0.0160
2176.00,0.0159
2175.00,0.0158
2174.00,0.0158
2173.00,0.0160
2172.00,0.0162
2171.00,0.0165
2170.00,0.0168
2169.00,0.0170
2168.00,0.0170
2167.00,0.0168
2166.00,0.0167
2165.00,0.0167
2164.00,0.0167
2163.00,0.0167
2162.00,0.0165
2161.00,0.0159
2160.00,0.0150
2159.00,0.0142
2158.00,0.0137
2157.00,0.0136
2156.00,0.0137
2155.00,0.0139
2154.00,0.0141
2153.00,0.0143
2152.00,0.0145
2151.00,0.0146
2150.00,0.0145
2149.00,0.0144
2148.00,0.0144
2147.00,0.0143
2146.00,0.0144
2145.00,0.0145
2144.00,0.0145
2143.00,0.0146
2142.00,0.0146
2141.00,0.0146
2140.00,0.0146
2139.00,0.0145
2138.00,0.0144
2137.00,0.0143
2136.00,0.0142
2135.00,0.0142
2134.00,0.0142
2133.00,0.0143
2132.00,0.0144
2131.00,0.0146
2130.00,0.0147
2129.00,0.0148
2128.00,0.0149
2127.00,0.0150
2126.00,0.0150
2125.00,0.0151
2124.00,0.0151
2123.00,0.0152
2122.00,0.0152
2121.00,0.0153
2120.00,0.0153
2119.00,0.0154
2118.00,0.0155
2117.00,0.0155
2116.00,0.0156
2115.00,0.0157
2114.00,0.0157
2113.00,0.0157
2112.00,0.0157
2111.00,0.0156
2110.00,0.0156
2109.00,0.0156
2108.00,0.0156
2107.00,0.0156
2106.00,0.0156
2105.00,0.0156
2104.00,0.0156
2103.00,0.0156
2102.00,0.0156
2101.00,0.0156
2100.00,0.0156
2099.00,0.0155
2098.00,0.0154
2097.00,0.0153
2096.00,0.0152
2095.00,0.0151
2094.00,0.0151
2093.00,0.0151
2092.00,0.0152
2091.00,0.0153
2090.00,0.0153
2089.00,0.0153
2088.00,0.0154
2087.00,0.0154
2086.00,0.0154
2085.00,0.0154
2084.00,0.0154
2083.00,0.0154
2082.00,0.0155
2081.00,0.0156
2080.00,0.0156
2079.00,0.0156
2078.00,0.0156
2077.00,0.0155
2076.00,0.0154
2075.00,0.0153
2074.00,0.0152
2073.00,0.0153
2072.00,0.0153
2071.00,0.0153
2070.00,0.0152
2069.00,0.0152
2068.00,0.0151
2067.00,0.0151
2066.00,0.0151
2065.00,0.0151
2064.00,0.0151
2063.00,0.0150
2062.00,0.0150
2061.00,0.0150
2060.00,0.0150
2059.00,0.0150
2058.00,0.0150
2057.00,0.0150
2056.00,0.0150
2055.00,0.0151
2054.00,0.0152
2053.00,0.0155
2052.00,0.0158
2051.00,0.0159
2050.00,0.0157
2049.00,0.0153
2048.00,0.0150
2047.00,0.0149
2046.00,0.0148
2045.00,0.0148
2044.00,0.0148
2043.00,0.0147
2042.00,0.0147
2041.00,0.0147
2040.00,0.0147
2039.00,0.0148
2038.00,0.0147
2037.00,0.0147
2036.00,0.0146
2035.00,0.0144
2034.00,0.0142
2033.00,0.0142
2032.00,0.0142
2031.00,0.0143
2030.00,0.0144
2029.00,0.0144
2028.00,0.0143
2027.00,0.0142
2026.00,0.0140
2025.00,0.0140
2024.00,0.0141
2023.00,0.0141
2022.00,0.0141
2021.00,0.0141
2020.00,0.0141
2019.00,0.0140
2018.00,0.0139
2017.00,0.0139
2016.00,0.0139
2015.00,0.0139
2014.00,0.0139
2013.00,0.0139
2012.00,0.0139
2011.00,0.0138
2010.00,0.0137
2009.00,0.0135
2008.00,0.0133
2007.00,0.0132
2006.00,0.0131
2005.00,0.0132
2004.00,0.0133
2003.00,0.0134
2002.00,0.0135
2001.00,0.0137
2000.00,0.0139
1999.00,0.0140
1998.00,0.0142
1997.00,0.0143
1996.00,0.0143
1995.00,0.0143
1994.00,0.0143
1993.00,0.0142
1992.00,0.0142
1991.00,0.0142
1990.00,0.0141
1989.00,0.0142
1988.00,0.0142
1987.00,0.0142
1986.00,0.0143
1985.00,0.0144
1984.00,0.0146
1983.00,0.0148
1982.00,0.0151
1981.00,0.0152
1980.00,0.0151
1979.00,0.0147
1978.00,0.0142
1977.00,0.0137
1976.00,0.0135
1975.00,0.0133
1974.00,0.0133
1973.00,0.0133
1972.00,0.0134
1971.00,0.0134
1970.00,0.0133
1969.00,0.0130
1968.00,0.0129
1967.00,0.0128
1966.00,0.0128
1965.00,0.0129
1964.00,0.0130
1963.00,0.0131
1962.00,0.0131
1961.00,0.0131
1960.00,0.0130
1959.00,0.0130
1958.00,0.0130
1957.00,0.0131
1956.00,0.0131
1955.00,0.0131
1954.00,0.0131
1953.00,0.0131
1952.00,0.0132
1951.00,0.0132
1950.00,0.0133
1949.00,0.0134
1948.00,0.0135
1947.00,0.0134
1946.00,0.0134
1945.00,0.0133
1944.00,0.0133
1943.00,0.0133
1942.00,0.0132
1941.00,0.0132
1940.00,0.0131
1939.00,0.0131
1938.00,0.0131
1937.00,0.0131
1936.00,0.0132
1935.00,0.0133
1934.00,0.0133
1933.00,0.0133
1932.00,0.0134
1931.00,0.0134
1930.00,0.0134
1929.00,0.0133
1928.00,0.0133
1927.00,0.0133
1926.00,0.0133
1925.00,0.0133
1924.00,0.0133
1923.00,0.0133
1922.00,0.0134
1921.00,0.0135
1920.00,0.0136
1919.00,0.0137
1918.00,0.0136
1917.00,0.0135
1916.00,0.0135
1915.00,0.0135
1914.00,0.0135
1913.00,0.0135
1912.00,0.0135
1911.00,0.0134
1910.00,0.0134
1909.00,0.0134
1908.00,0.0134
1907.00,0.0134
1906.00,0.0134
1905.00,0.0133
1904.00,0.0133
1903.00,0.0133
1902.00,0.0133
1901.00,0.0133
1900.00,0.0133
1899.00,0.0133
1898.00,0.0133
1897.00,0.0133
1896.00,0.0132
1895.00,0.0132
1894.00,0.0132
1893.00,0.0132
1892.00,0.0132
1891.00,0.0132
1890.00,0.0132
1889.00,0.0132
1888.00,0.0132
1887.00,0.0132
1886.00,0.0132
1885.00,0.0132
1884.00,0.0132
1883.00,0.0132
1882.00,0.0132
1881.00,0.0132
1880.00,0.0132
1879.00,0.0131
1878.00,0.0131
1877.00,0.0132
1876.00,0.0132
1875.00,0.0132
1874.00,0.0131
1873.00,0.0131
1872.00,0.0131
1871.00,0.0131
1870.00,0.0131
1869.00,0.0131
1868.00,0.0130
1867.00,0.0129
1866.00,0.0129
1865.00,0.0129
1864.00,0.0129
1863.00,0.0129
1862.00,0.0129
1861.00,0.0129
1860.00,0.0129
1859.00,0.0129
1858.00,0.0129
1857.00,0.0129
1856.00,0.0129
1855.00,0.0129
1854.00,0.0128
1853.00,0.0128
1852.00,0.0128
1851.00,0.0128
1850.00,0.0128
1849.00,0.0128
1848.00,0.0128
1847.00,0.0128
1846.00,0.0128
1845.00,0.0128
1844.00,0.0129
1843.00,0.0128
1842.00,0.0128
1841.00,0.0128
1840.00,0.0128
1839.00,0.0127
1838.00,0.0127
1837.00,0.0127
1836.00,0.0127
1835.00,0.0126
1834.00,0.0126
1833.00,0.0126
1832.00,0.0125
1831.00,0.0125
1830.00,0.0125
1829.00,0.0125
1828.00,0.0125
1827.00,0.0125
1826.00,0.0125
1825.00,0.0125
1824.00,0.0125
1823.00,0.0125
1822.00,0.0125
1821.00,0.0125
1820.00,0.0125
1819.00,0.0124
1818.00,0.0123
1817.00,0.0123
1816.00,0.0123
1815.00,0.0123
1814.00,0.0123
1813.00,0.0124
1812.00,0.0124
1811.00,0.0124
1810.00,0.0124
1809.00,0.0125
1808.00,0.0125
1807.00,0.0125
1806.00,0.0125
1805.00,0.0125
1804.00,0.0125
1803.00,0.0125
1802.00,0.0125
1801.00,0.0126
1800.00,0.0126
1799.00,0.0127
1798.00,0.0127
1797.00,0.0128
1796.00,0.0128
1795.00,0.0128
1794.00,0.0129
1793.00,0.0130
1792.00,0.0130
1791.00,0.0130
1790.00,0.0131
1789.00,0.0131
1788.00,0.0132
1787.00,0.0132
1786.00,0.0133
1785.00,0.0133
1784.00,0.0134
1783.00,0.0135
1782.00,0.0135
1781.00,0.0136
1780.00,0.0137
1779.00,0.0138
1778.00,0.0139
1777.00,0.0140
1776.00,0.0140
1775.00,0.0141
1774.00,0.0142
1773.00,0.0144
1772.00,0.0145
1771.00,0.0145
1770.00,0.0146
1769.00,0.0147
1768.00,0.0148
1767.00,0.0149
1766.00,0.0149
1765.00,0.0149
1764.00,0.0150
1763.00,0.0151
1762.00,0.0152
1761.00,0.0152
1760.00,0.0153
1759.00,0.0154
1758.00,0.0155
1757.00,0.0156
1756.00,0.0157
1755.00,0.0158
1754.00,0.0159
1753.00,0.0160
1752.00,0.0162
1751.00,0.0163
1750.00,0.0163
1749.00,0.0163
1748.00,0.0164
1747.00,0.0166
1746.00,0.0166
1745.00,0.0168
1744.00,0.0169
1743.00,0.0170
1742.00,0.0172
1741.00,0.0174
1740.00,0.0177
1739.00,0.0178
1738.00,0.0180
1737.00,0.0181
1736.00,0.0184
1735.00,0.0188
1734.00,0.0190
1733.00,0.0191
1732.00,0.0192
1731.00,0.0193
1730.00,0.0194
1729.00,0.0196
1728.00,0.0198
1727.00,0.0200
1726.00,0.0202
1725.00,0.0204
1724.00,0.0206
1723.00,0.0208
1722.00,0.0209
1721.00,0.0211
1720.00,0.0212
1719.00,0.0214
1718.00,0.0217
1717.00,0.0220
1716.00,0.0221
1715.00,0.0222
1714.00,0.0222
1713.00,0.0223
1712.00,0.0224
1711.00,0.0225
1710.00,0.0225
1709.00,0.0226
1708.00,0.0227
1707.00,0.0228
1706.00,0.0229
1705.00,0.0229
1704.00,0.0229
1703.00,0.0230
1702.00,0.0232
1701.00,0.0234
1700.00,0.0235
1699.00,0.0235
1698.00,0.0235
1697.00,0.0236
1696.00,0.0236
1695.00,0.0235
1694.00,0.0236
1693.00,0.0237
1692.00,0.0238
1691.00,0.0238
1690.00,0.0239
1689.00,0.0239
1688.00,0.0240
1687.00,0.0240
1686.00,0.0241
1685.00,0.0241
1684.00,0.0242
1683.00,0.0243
1682.00,0.0245
1681.00,0.0247
1680.00,0.0249
1679.00,0.0250
1678.00,0.0251
1677.00,0.0253
1676.00,0.0255
1675.00,0.0256
1674.00,0.0257
1673.00,0.0258
1672.00,0.0260
1671.00,0.0262
1670.00,0.0264
1669.00,0.0265
1668.00,0.0267
1667.00,0.0268
1666.00,0.0269
1665.00,0.0271
1664.00,0.0273
1663.00,0.0275
1662.00,0.0277
1661.00,0.0279
1660.00,0.0281
1659.00,0.0282
1658.00,0.0284
1657.00,0.0284
1656.00,0.0285
1655.00,0.0285
1654.00,0.0286
1653.00,0.0288
1652.00,0.0291
1651.00,0.0293
1650.00,0.0295
1649.00,0.0298
1648.00,0.0301
1647.00,0.0304
1646.00,0.0306
1645.00,0.0308
1644.00,0.0309
1643.00,0.0311
1642.00,0.0313
1641.00,0.0315
1640.00,0.0316
1639.00,0.0318
1638.00,0.0319
1637.00,0.0321
1636.00,0.0324
1635.00,0.0326
1634.00,0.0328
1633.00,0.0330
1632.00,0.0332
1631.00,0.0334
1630.00,0.0336
1629.00,0.0338
1628.00,0.0340
1627.00,0.0342
1626.00,0.0345
1625.00,0.0347
1624.00,0.0350
1623.00,0.0352
1622.00,0.0354
1621.00,0.0355
1620.00,0.0357
1619.00,0.0359
1618.00,0.0361
1617.00,0.0363
1616.00,0.0364
1615.00,0.0366
1614.00,0.0368
1613.00,0.0370
1612.00,0.0372
1611.00,0.0374
1610.00,0.0376
1609.00,0.0378
1608.00,0.0380
1607.00,0.0382
1606.00,0.0384
1605.00,0.0386
1604.00,0.0388
1603.00,0.0391
1602.00,0.0393
1601.00,0.0395
1600.00,0.0398
1599.00,0.0399
1598.00,0.0401
1597.00,0.0403
1596.00,0.0404
1595.00,0.0406
1594.00,0.0407
1593.00,0.0408
1592.00,0.0409
1591.00,0.0409
1590.00,0.0410
1589.00,0.0410
1588.00,0.0411
1587.00,0.0412
1586.00,0.0412
1585.00,0.0413
1584.00,0.0414
1583.00,0.0415
1582.00,0.0415
1581.00,0.0416
1580.00,0.0416
1579.00,0.0417
1578.00,0.0417
1577.00,0.0418
1576.00,0.0418
1575.00,0.0419
1574.00,0.0419
1573.00,0.0419
1572.00,0.0420
1571.00,0.0420
1570.00,0.0420
1569.00,0.0420
1568.00,0.0421
1567.00,0.0421
1566.00,0.0421
1565.00,0.0421
1564.00,0.0420
1563.00,0.0420
1562.00,0.0419
1561.00,0.0418
1560.00,0.0415
1559.00,0.0414
1558.00,0.0414
1557.00,0.0415
1556.00,0.0416
1555.00,0.0416
1554.00,0.0414
1553.00,0.0413
1552.00,0.0411
1551.00,0.0410
1550.00,0.0408
1549.00,0.0406
1548.00,0.0405
1547.00,0.0404
1546.00,0.0402
1545.00,0.0400
1544.00,0.0397
1543.00,0.0396
1542.00,0.0394
1541.00,0.0391
1540.00,0.0384
1539.00,0.0378
1538.00,0.0376
1537.00,0.0375
1536.00,0.0375
1535.00,0.0373
1534.00,0.0370
1533.00,0.0367
1532.00,0.0364
1531.00,0.0363
1530.00,0.0362
1529.00,0.0361
1528.00,0.0360
1527.00,0.0358
1526.00,0.0356
1525.00,0.0355
1524.00,0.0353
1523.00,0.0352
1522.00,0.0350
1521.00,0.0346
1520.00,0.0343
1519.00,0.0342
1518.00,0.0340
1517.00,0.0338
1516.00,0.0337
1515.00,0.0336
1514.00,0.0335
1513.00,0.0335
1512.00,0.0334
1511.00,0.0332
1510.00,0.0330
1509.00,0.0329
1508.00,0.0328
1507.00,0.0325
1506.00,0.0323
1505.00,0.0323
1504.00,0.0323
1503.00,0.0323
1502.00,0.0322
1501.00,0.0321
1500.00,0.0320
1499.00,0.0319
1498.00,0.0318
1497.00,0.0318
1496.00,0.0317
1495.00,0.0317
1494.00,0.0316
1493.00,0.0317
1492.00,0.0317
1491.00,0.0318
1490.00,0.0317
1489.00,0.0316
1488.00,0.0315
1487.00,0.0315
1486.00,0.0315
1485.00,0.0315
1484.00,0.0315
1483.00,0.0315
1482.00,0.0315
1481.00,0.0316
1480.00,0.0316
1479.00,0.0316
1478.00,0.0316
1477.00,0.0316
1476.00,0.0317
1475.00,0.0319
1474.00,0.0321
1473.00,0.0321
1472.00,0.0321
1471.00,0.0319
1470.00,0.0319
1469.00,0.0319
1468.00,0.0320
1467.00,0.0320
1466.00,0.0321
1465.00,0.0322
1464.00,0.0323
1463.00,0.0324
1462.00,0.0324
1461.00,0.0324
1460.00,0.0324
1459.00,0.0325
1458.00,0.0327
1457.00,0.0328
1456.00,0.0328
1455.00,0.0328
1454.00,0.0328
1453.00,0.0328
1452.00,0.0328
1451.00,0.0329
1450.00,0.0329
1449.00,0.0330
1448.00,0.0331
1447.00,0.0332
1446.00,0.0333
1445.00,0.0333
1444.00,0.0334
1443.00,0.0335
1442.00,0.0336
1441.00,0.0337
1440.00,0.0338
1439.00,0.0339
1438.00,0.0340
1437.00,0.0341
1436.00,0.0342
1435.00,0.0343
1434.00,0.0343
1433.00,0.0344
1432.00,0.0345
1431.00,0.0346
1430.00,0.0346
1429.00,0.0347
1428.00,0.0349
1427.00,0.0349
1426.00,0.0350
1425.00,0.0351
1424.00,0.0352
1423.00,0.0353
1422.00,0.0354
1421.00,0.0355
1420.00,0.0356
1419.00,0.0357
1418.00,0.0357
1417.00,0.0359
1416.00,0.0360
1415.00,0.0361
1414.00,0.0362
1413.00,0.0363
1412.00,0.0364
1411.00,0.0365
1410.00,0.0366
1409.00,0.0367
1408.00,0.0368
1407.00,0.0369
1406.00,0.0370
1405.00,0.0372
1404.00,0.0374
1403.00,0.0376
1402.00,0.0378
1401.00,0.0379
1400.00,0.0381
1399.00,0.0383
1398.00,0.0384
1397.00,0.0386
1396.00,0.0387
1395.00,0.0388
1394.00,0.0389
1393.00,0.0390
1392.00,0.0392
1391.00,0.0393
1390.00,0.0394
1389.00,0.0395
1388.00,0.0396
1387.00,0.0397
1386.00,0.0398
1385.00,0.0399
1384.00,0.0400
1383.00,0.0401
1382.00,0.0402
1381.00,0.0402
1380.00,0.0403
1379.00,0.0403
1378.00,0.0403
1377.00,0.0404
1376.00,0.0404
1375.00,0.0404
1374.00,0.0404
1373.00,0.0404
1372.00,0.0404
1371.00,0.0404
1370.00,0.0404
1369.00,0.0404
1368.00,0.0404
1367.00,0.0403
1366.00,0.0403
1365.00,0.0402
1364.00,0.0402
1363.00,0.0401
1362.00,0.0400
1361.00,0.0400
1360.00,0.0400
1359.00,0.0399
1358.00,0.0399
1357.00,0.0398
1356.00,0.0398
1355.00,0.0397
1354.00,0.0397
1353.00,0.0396
1352.00,0.0395
1351.00,0.0394
1350.00,0.0394
1349.00,0.0393
1348.00,0.0392
1347.00,0.0391
1346.00,0.0391
1345.00,0.0390
1344.00,0.0390
1343.00,0.0389
1342.00,0.0389
1341.00,0.0388
1340.00,0.0387
1339.00,0.0386
1338.00,0.0385
1337.00,0.0385
1336.00,0.0385
1335.00,0.0385
1334.00,0.0384
1333.00,0.0383
1332.00,0.0383
1331.00,0.0382
1330.00,0.0381
1329.00,0.0381
1328.00,0.0381
1327.00,0.0380
1326.00,0.0379
1325.00,0.0379
1324.00,0.0379
1323.00,0.0379
1322.00,0.0379
1321.00,0.0379
1320.00,0.0379
1319.00,0.0379
1318.00,0.0379
1317.00,0.0378
1316.00,0.0378
1315.00,0.0378
1314.00,0.0378
1313.00,0.0378
1312.00,0.0378
1311.00,0.0378
1310.00,0.0378
1309.00,0.0378
1308.00,0.0378
1307.00,0.0378
1306.00,0.0378
1305.00,0.0378
1304.00,0.0378
1303.00,0.0378
1302.00,0.0378
1301.00,0.0378
1300.00,0.0378
1299.00,0.0379
1298.00,0.0379
1297.00,0.0379
1296.00,0.0379
1295.00,0.0380
1294.00,0.0380
1293.00,0.0380
1292.00,0.0381
1291.00,0.0381
1290.00,0.0381
1289.00,0.0381
1288.00,0.0382
1287.00,0.0382
1286.00,0.0383
1285.00,0.0383
1284.00,0.0384
1283.00,0.0384
1282.00,0.0384
1281.00,0.0385
1280.00,0.0385
1279.00,0.0385
1278.00,0.0386
1277.00,0.0386
1276.00,0.0387
1275.00,0.0387
1274.00,0.0388
1273.00,0.0388
1272.00,0.0389
1271.00,0.0389
1270.00,0.0390
1269.00,0.0390
1268.00,0.0391
1267.00,0.0391
1266.00,0.0391
1265.00,0.0392
1264.00,0.0392
1263.00,0.0393
1262.00,0.0393
1261.00,0.0394
1260.00,0.0394
1259.00,0.0394
1258.00,0.0395
1257.00,0.0395
1256.00,0.0395
1255.00,0.0396
1254.00,0.0396
1253.00,0.0396
1252.00,0.0397
1251.00,0.0397
1250.00,0.0398
1249.00,0.0398
1248.00,0.0398
1247.00,0.0398
1246.00,0.0398
1245.00,0.0398
1244.00,0.0398
1243.00,0.0398
1242.00,0.0398
1241.00,0.0398
1240.00,0.0398
1239.00,0.0398
1238.00,0.0398
1237.00,0.0398
1236.00,0.0398
1235.00,0.0398
1234.00,0.0398
1233.00,0.0398
1232.00,0.0398
1231.00,0.0398
1230.00,0.0398
1229.00,0.0398
1228.00,0.0398
1227.00,0.0398
1226.00,0.0398
1225.00,0.0398
1224.00,0.0398
1223.00,0.0398
1222.00,0.0398
1221.00,0.0397
1220.00,0.0397
1219.00,0.0397
1218.00,0.0397
1217.00,0.0397
1216.00,0.0397
1215.00,0.0397
1214.00,0.0397
1213.00,0.0396
1212.00,0.0396
1211.00,0.0396
1210.00,0.0396
1209.00,0.0396
1208.00,0.0396
1207.00,0.0396
1206.00,0.0395
1205.00,0.0395
1204.00,0.0395
1203.00,0.0395
1202.00,0.0395
1201.00,0.0395
1200.00,0.0395
1199.00,0.0395
1198.00,0.0395
1197.00,0.0395
1196.00,0.0395
1195.00,0.0395
1194.00,0.0394
1193.00,0.0394
1192.00,0.0394
1191.00,0.0394
1190.00,0.0394
1189.00,0.0394
1188.00,0.0394
1187.00,0.0393
1186.00,0.0393
1185.00,0.0393
1184.00,0.0393
1183.00,0.0392
1182.00,0.0392
1181.00,0.0393
1180.00,0.0395
1179.00,0.0396
1178.00,0.0396
1177.00,0.0396
1176.00,0.0396
1175.00,0.0396
1174.00,0.0396
1173.00,0.0396
1172.00,0.0396
1171.00,0.0396
1170.00,0.0396
1169.00,0.0396
1168.00,0.0396
1167.00,0.0397
1166.00,0.0397
1165.00,0.0397
1164.00,0.0398
1163.00,0.0398
1162.00,0.0398
1161.00,0.0398
1160.00,0.0398
1159.00,0.0397
1158.00,0.0397
1157.00,0.0396
1156.00,0.0396
1155.00,0.0396
1154.00,0.0395
1153.00,0.0395
1152.00,0.0395
1151.00,0.0394
1150.00,0.0394
1149.00,0.0394
1148.00,0.0394
1147.00,0.0394
1146.00,0.0393
1145.00,0.0393
1144.00,0.0392
1143.00,0.0392
1142.00,0.0392
1141.00,0.0392
1140.00,0.0392
1139.00,0.0392
1138.00,0.0392
1137.00,0.0392
1136.00,0.0391
1135.00,0.0391
1134.00,0.0391
1133.00,0.0391
1132.00,0.0391
1131.00,0.0392
1130.00,0.0392
1129.00,0.0392
1128.00,0.0393
1127.00,0.0393
1126.00,0.0393
1125.00,0.0393
1124.00,0.0393
1123.00,0.0393
1122.00,0.0394
1121.00,0.0394
1120.00,0.0395
1119.00,0.0396
1118.00,0.0396
1117.00,0.0396
1116.00,0.0397
1115.00,0.0398
1114.00,0.0398
1113.00,0.0398
1112.00,0.0399
1111.00,0.0399
1110.00,0.0400
1109.00,0.0400
1108.00,0.0401
1107.00,0.0402
1106.00,0.0402
1105.00,0.0403
1104.00,0.0403
1103.00,0.0403
1102.00,0.0404
1101.00,0.0404
1100.00,0.0404
1099.00,0.0405
1098.00,0.0406
1097.00,0.0407
1096.00,0.0408
1095.00,0.0408
1094.00,0.0408
1093.00,0.0409
1092.00,0.0410
1091.00,0.0410
1090.00,0.0411
1089.00,0.0412
1088.00,0.0412
1087.00,0.0413
1086.00,0.0413
1085.00,0.0414
1084.00,0.0414
1083.00,0.0414
1082.00,0.0415
1081.00,0.0415
1080.00,0.0415
1079.00,0.0416
1078.00,0.0416
1077.00,0.0416
1076.00,0.0416
1075.00,0.0417
1074.00,0.0417
1073.00,0.0418
1072.00,0.0419
1071.00,0.0419
1070.00,0.0419
1069.00,0.0419
1068.00,0.0420
1067.00,0.0420
1066.00,0.0421
1065.00,0.0421
1064.00,0.0421
1063.00,0.0420
1062.00,0.0420
1061.00,0.0420
1060.00,0.0420
1059.00,0.0420
1058.00,0.0420
1057.00,0.0420
1056.00,0.0420
1055.00,0.0419
1054.00,0.0419
1053.00,0.0419
1052.00,0.0419
1051.00,0.0419
1050.00,0.0419
1049.00,0.0420
1048.00,0.0420
1047.00,0.0419
1046.00,0.0419
1045.00,0.0419
1044.00,0.0419
1043.00,0.0419
1042.00,0.0420
1041.00,0.0420
1040.00,0.0420
1039.00,0.0421
1038.00,0.0421
1037.00,0.0421
1036.00,0.0421
1035.00,0.0421
1034.00,0.0421
1033.00,0.0421
1032.00,0.0421
1031.00,0.0421
1030.00,0.0420
1029.00,0.0420
1028.00,0.0419
1027.00,0.0419
1026.00,0.0418
1025.00,0.0418
1024.00,0.0417
1023.00,0.0416
1022.00,0.0416
1021.00,0.0415
1020.00,0.0415
1019.00,0.0414
1018.00,0.0414
1017.00,0.0413
1016.00,0.0412
1015.00,0.0411
1014.00,0.0410
1013.00,0.0409
1012.00,0.0408
1011.00,0.0407
1010.00,0.0406
1009.00,0.0405
1008.00,0.0404
1007.00,0.0403
1006.00,0.0402
1005.00,0.0401
1004.00,0.0400
1003.00,0.0399
1002.00,0.0397
1001.00,0.0396
1000.00,0.0395
999.00,0.0394
998.00,0.0393
997.00,0.0392
996.00,0.0391
995.00,0.0390
994.00,0.0389
993.00,0.0387
992.00,0.0386
991.00,0.0385
990.00,0.0384
989.00,0.0383
988.00,0.0382
987.00,0.0381
986.00,0.0380
985.00,0.0379
984.00,0.0378
983.00,0.0377
982.00,0.0376
981.00,0.0376
980.00,0.0375
979.00,0.0374
978.00,0.0373
977.00,0.0372
976.00,0.0371
975.00,0.0370
974.00,0.0370
973.00,0.0369
972.00,0.0368
971.00,0.0367
970.00,0.0366
969.00,0.0365
968.00,0.0365
967.00,0.0364
966.00,0.0363
965.00,0.0362
964.00,0.0361
963.00,0.0360
962.00,0.0360
961.00,0.0359
960.00,0.0358
959.00,0.0358
958.00,0.0357
957.00,0.0356
956.00,0.0356
955.00,0.0355
954.00,0.0354
953.00,0.0353
952.00,0.0352
951.00,0.0352
950.00,0.0351
949.00,0.0350
948.00,0.0350
947.00,0.0350
946.00,0.0350
945.00,0.0349
944.00,0.0349
943.00,0.0348
942.00,0.0348
941.00,0.0348
940.00,0.0347
939.00,0.0347
938.00,0.0347
937.00,0.0346
936.00,0.0346
935.00,0.0346
934.00,0.0345
933.00,0.0344
932.00,0.0344
931.00,0.0344
930.00,0.0344
929.00,0.0344
928.00,0.0344
927.00,0.0343
926.00,0.0343
925.00,0.0344
924.00,0.0344
923.00,0.0344
922.00,0.0344
921.00,0.0344
920.00,0.0344
919.00,0.0344
918.00,0.0344
917.00,0.0345
916.00,0.0345
915.00,0.0346
914.00,0.0346
913.00,0.0346
912.00,0.0346
911.00,0.0346
910.00,0.0346
909.00,0.0347
908.00,0.0347
907.00,0.0347
906.00,0.0347
905.00,0.0347
904.00,0.0348
903.00,0.0348
902.00,0.0349
901.00,0.0349
900.00,0.0349
899.00,0.0349
898.00,0.0350
897.00,0.0349
896.00,0.0349
895.00,0.0349
894.00,0.0349
893.00,0.0349
892.00,0.0350
891.00,0.0350
890.00,0.0349
889.00,0.0349
888.00,0.0349
887.00,0.0350
886.00,0.0350
885.00,0.0350
884.00,0.0349
883.00,0.0349
882.00,0.0350
881.00,0.0350
880.00,0.0350
879.00,0.0351
878.00,0.0351
877.00,0.0351
876.00,0.0350
875.00,0.0350
874.00,0.0350
873.00,0.0350
872.00,0.0351
871.00,0.0351
870.00,0.0351
869.00,0.0352
868.00,0.0351
867.00,0.0352
866.00,0.0352
865.00,0.0352
864.00,0.0352
863.00,0.0353
862.00,0.0353
861.00,0.0353
860.00,0.0354
859.00,0.0354
858.00,0.0355
857.00,0.0355
856.00,0.0356
855.00,0.0357
854.00,0.0357
853.00,0.0358
852.00,0.0359
851.00,0.0359
850.00,0.0361
849.00,0.0362
848.00,0.0363
847.00,0.0364
846.00,0.0366
845.00,0.0367
844.00,0.0368
843.00,0.0370
842.00,0.0371
841.00,0.0372
840.00,0.0373
839.00,0.0374
838.00,0.0375
837.00,0.0376
836.00,0.0377
835.00,0.0378
834.00,0.0380
833.00,0.0382
832.00,0.0383
831.00,0.0384
830.00,0.0385
829.00,0.0386
828.00,0.0387
827.00,0.0388
826.00,0.0389
825.00,0.0391
824.00,0.0392
823.00,0.0393
822.00,0.0394
821.00,0.0395
820.00,0.0397
819.00,0.0398
818.00,0.0399
817.00,0.0400
816.00,0.0401
815.00,0.0402
814.00,0.0403
813.00,0.0404
812.00,0.0405
811.00,0.0405
810.00,0.0406
809.00,0.0407
808.00,0.0408
807.00,0.0409
806.00,0.0409
805.00,0.0410
804.00,0.0412
803.00,0.0413
802.00,0.0415
801.00,0.0416
800.00,0.0417
799.00,0.0417
798.00,0.0417
797.00,0.0417
796.00,0.0418
795.00,0.0418
794.00,0.0419
793.00,0.0419
792.00,0.0420
791.00,0.0420
790.00,0.0421
789.00,0.0421
788.00,0.0422
787.00,0.0423
786.00,0.0424
785.00,0.0425
784.00,0.0426
783.00,0.0426
782.00,0.0427
781.00,0.0427
780.00,0.0428
779.00,0.0429
778.00,0.0429
777.00,0.0430
776.00,0.0431
775.00,0.0432
774.00,0.0433
773.00,0.0434
772.00,0.0435
771.00,0.0435
770.00,0.0437
769.00,0.0438
768.00,0.0439
767.00,0.0439
766.00,0.0440
765.00,0.0441
764.00,0.0441
763.00,0.0441
762.00,0.0442
761.00,0.0442
760.00,0.0443
759.00,0.0444
758.00,0.0445
757.00,0.0445
756.00,0.0445
755.00,0.0445
754.00,0.0445
753.00,0.0446
752.00,0.0447
751.00,0.0447
750.00,0.0447
749.00,0.0447
748.00,0.0447
747.00,0.0447
746.00,0.0447
745.00,0.0447
744.00,0.0447
743.00,0.0448
742.00,0.0449
741.00,0.0449
740.00,0.0449
739.00,0.0449
738.00,0.0450
737.00,0.0450
736.00,0.0450
735.00,0.0450
734.00,0.0450
733.00,0.0450
732.00,0.0450
731.00,0.0451
730.00,0.0452
729.00,0.0452
728.00,0.0453
727.00,0.0453
726.00,0.0454
725.00,0.0456
724.00,0.0457
723.00,0.0457
722.00,0.0458
721.00,0.0459
720.00,0.0461
719.00,0.0462
718.00,0.0463
717.00,0.0463
716.00,0.0465
715.00,0.0466
714.00,0.0467
713.00,0.0466
712.00,0.0465
711.00,0.0465
710.00,0.0465
709.00,0.0467
708.00,0.0468
707.00,0.0470
706.00,0.0471
705.00,0.0472
704.00,0.0472
703.00,0.0472
702.00,0.0472
701.00,0.0473
700.00,0.0473
699.00,0.0473
698.00,0.0472
697.00,0.0472
696.00,0.0473
695.00,0.0474
694.00,0.0475
693.00,0.0476
692.00,0.0477
691.00,0.0477
690.00,0.0477
689.00,0.0478
688.00,0.0478
687.00,0.0479
686.00,0.0479
685.00,0.0480
684.00,0.0481
683.00,0.0482
682.00,0.0483
681.00,0.0483
680.00,0.0484
679.00,0.0484
678.00,0.0485
677.00,0.0486
676.00,0.0488
675.00,0.0490
674.00,0.0491
673.00,0.0492
672.00,0.0493
671.00,0.0493
670.00,0.0494
669.00,0.0494
668.00,0.0496
667.00,0.0499
666.00,0.0501
665.00,0.0502
664.00,0.0504
663.00,0.0506
662.00,0.0507
661.00,0.0508
660.00,0.0510
659.00,0.0511
658.00,0.0512
657.00,0.0513
656.00,0.0514
655.00,0.0516
654.00,0.0516
653.00,0.0517
652.00,0.0517
651.00,0.0518
650.00,0.0519
