Created as New Dataset,Sample 006 By Administrator Date Monday, March 20 2023
cm-1,A
4000.00,0.0205
3999.00,0.0205
3998.00,0.0205
3997.00,0.0205
3996.00,0.0205
3995.00,0.0205
3994.00,0.0204
3993.00,0.0204
3992.00,0.0205
3991.00,0.0205
3990.00,0.0205
3989.00,0.0205
3988.00,0.0205
3987.00,0.0205
3986.00,0.0204
3985.00,0.0204
3984.00,0.0204
3983.00,0.0204
3982.00,0.0204
3981.00,0.0204
3980.00,0.0204
3979.00,0.0204
3978.00,0.0204
3977.00,0.0204
3976.00,0.0204
3975.00,0.0204
3974.00,0.0204
3973.00,0.0204
3972.00,0.0204
3971.00,0.0204
3970.00,0.0204
3969.00,0.0204
3968.00,0.0204
3967.00,0.0204
3966.00,0.0204
3965.00,0.0204
3964.00,0.0204
3963.00,0.0204
3962.00,0.0204
3961.00,0.0204
3960.00,0.0204
3959.00,0.0203
3958.00,0.0203
3957.00,0.0203
3956.00,0.0203
3955.00,0.0203
3954.00,0.0203
3953.00,0.0203
3952.00,0.0203
3951.00,0.0203
3950.00,0.0203
3949.00,0.0203
3948.00,0.0203
3947.00,0.0203
3946.00,0.0203
3945.00,0.0203
3944.00,0.0203
3943.00,0.0203
3942.00,0.0203
3941.00,0.0203
3940.00,0.0203
3939.00,0.0203
3938.00,0.0203
3937.00,0.0203
3936.00,0.0203
3935.00,0.0203
3934.00,0.0203
3933.00,0.0203
3932.00,0.0203
3931.00,0.0202
3930.00,0.0202
3929.00,0.0202
3928.00,0.0202
3927.00,0.0202
3926.00,0.0201
3925.00,0.0201
3924.00,0.0202
3923.00,0.0202
3922.00,0.0202
3921.00,0.0202
3920.00,0.0203
3919.00,0.0203
3918.00,0.0203
3917.00,0.0203
3916.00,0.0202
3915.00,0.0202
3914.00,0.0202
3913.00,0.0201
3912.00,0.0201
3911.00,0.0201
3910.00,0.0201
3909.00,0.0201
3908.00,0.0201
3907.00,0.0201
3906.00,0.0201
3905.00,0.0202
3904.00,0.0202
3903.00,0.0203
3902.00,0.0203
3901.00,0.0202
3900.00,0.0202
3899.00,0.0202
3898.00,0.0202
3897.00,0.0202
3896.00,0.0202
3895.00,0.0201
3894.00,0.0201
3893.00,0.0201
3892.00,0.0201
3891.00,0.0201
3890.00,0.0201
3889.00,0.0201
3888.00,0.0201
3887.00,0.0201
3886.00,0.0201
3885.00,0.0201
3884.00,0.0201
3883.00,0.0200
3882.00,0.0200
3881.00,0.0200
3880.00,0.0200
3879.00,0.0200
3878.00,0.0200
3877.00,0.0200
3876.00,0.0200
3875.00,0.0199
3874.00,0.0199
3873.00,0.0199
3872.00,0.0199
3871.00,0.0200
3870.00,0.0200
3869.00,0.0201
3868.00,0.0201
3867.00,0.0201
3866.00,0.0201
3865.00,0.0200
3864.00,0.0200
3863.00,0.0200
3862.00,0.0200
3861.00,0.0200
3860.00,0.0200
3859.00,0.0199
3858.00,0.0199
3857.00,0.0198
3856.00,0.0198
3855.00,0.0198
3854.00,0.0199
3853.00,0.0199
3852.00,0.0199
3851.00,0.0199
3850.00,0.0199
3849.00,0.0199
3848.00,0.0199
3847.00,0.0199
3846.00,0.0199
3845.00,0.0198
3844.00,0.0198
3843.00,0.0198
3842.00,0.0198
3841.00,0.0198
3840.00,0.0198
3839.00,0.0198
3838.00,0.0198
3837.00,0.0198
3836.00,0.0199
3835.00,0.0199
3834.00,0.0199
3833.00,0.0198
3832.00,0.0198
3831.00,0.0198
3830.00,0.0197
3829.00,0.0197
3828.00,0.0197
3827.00,0.0197
3826.00,0.0196
3825.00,0.0197
3824.00,0.0197
3823.00,0.0197
3822.00,0.0197
3821.00,0.0197
3820.00,0.0197
3819.00,0.0196
3818.00,0.0196
3817.00,0.0196
3816.00,0.0196
3815.00,0.0195
3814.00,0.0195
3813.00,0.0195
3812.00,0.0195
3811.00,0.0195
3810.00,0.0195
3809.00,0.0195
3808.00,0.0195
3807.00,0.0195
3806.00,0.0195
3805.00,0.0195
3804.00,0.0195
3803.00,0.0195
3802.00,0.0195
3801.00,0.0194
3800.00,0.0194
3799.00,0.0194
3798.00,0.0194
3797.00,0.0194
3796.00,0.0194
3795.00,0.0194
3794.00,0.0193
3793.00,0.0193
3792.00,0.0193
3791.00,0.0192
3790.00,0.0192
3789.00,0.0192
3788.00,0.0192
3787.00,0.0192
3786.00,0.0191
3785.00,0.0191
3784.00,0.0191
3783.00,0.0191
3782.00,0.0192
3781.00,0.0192
3780.00,0.0191
3779.00,0.0191
3778.00,0.0191
3777.00,0.0191
3776.00,0.0191
3775.00,0.0191
3774.00,0.0191
3773.00,0.0191
3772.00,0.0191
3771.00,0.0191
3770.00,0.0191
3769.00,0.0191
3768.00,0.0191
3767.00,0.0191
3766.00,0.0191
3765.00,0.0191
3764.00,0.0191
3763.00,0.0190
3762.00,0.0190
3761.00,0.0190
3760.00,0.0190
3759.00,0.0189
3758.00,0.0190
3757.00,0.0190
3756.00,0.0190
3755.00,0.0190
3754.00,0.0191
3753.00,0.0191
3752.00,0.0192
3751.00,0.0193
3750.00,0.0193
3749.00,0.0192
3748.00,0.0192
3747.00,0.0191
3746.00,0.0191
3745.00,0.0191
3744.00,0.0190
3743.00,0.0190
3742.00,0.0189
3741.00,0.0189
3740.00,0.0190
3739.00,0.0190
3738.00,0.0190
3737.00,0.0189
3736.00,0.0189
3735.00,0.0188
3734.00,0.0188
3733.00,0.0188
3732.00,0.0187
3731.00,0.0187
3730.00,0.0187
3729.00,0.0187
3728.00,0.0186
3727.00,0.0186
3726.00,0.0186
3725.00,0.0185
3724.00,0.0185
3723.00,0.0184
3722.00,0.0184
3721.00,0.0184
3720.00,0.0183
3719.00,0.0183
3718.00,0.0183
3717.00,0.0183
3716.00,0.0183
3715.00,0.0183
3714.00,0.0184
3713.00,0.0184
3712.00,0.0184
3711.00,0.0183
3710.00,0.0183
3709.00,0.0183
3708.00,0.0183
3707.00,0.0182
3706.00,0.0182
3705.00,0.0182
3704.00,0.0182
3703.00,0.0181
3702.00,0.0181
3701.00,0.0181
3700.00,0.0181
3699.00,0.0181
3698.00,0.0181
3697.00,0.0181
3696.00,0.0181
3695.00,0.0181
3694.00,0.0181
3693.00,0.0181
3692.00,0.0181
3691.00,0.0181
3690.00,0.0181
3689.00,0.0181
3688.00,0.0181
3687.00,0.0181
3686.00,0.0181
3685.00,0.0181
3684.00,0.0181
3683.00,0.0181
3682.00,0.0181
3681.00,0.0181
3680.00,0.0181
3679.00,0.0181
3678.00,0.0182
3677.00,0.0182
3676.00,0.0182
3675.00,0.0182
3674.00,0.0182
3673.00,0.0183
3672.00,0.0184
3671.00,0.0185
3670.00,0.0185
3669.00,0.0185
3668.00,0.0185
3667.00,0.0185
3666.00,0.0186
3665.00,0.0186
3664.00,0.0187
3663.00,0.0187
3662.00,0.0187
3661.00,0.0188
3660.00,0.0189
3659.00,0.0190
3658.00,0.0191
3657.00,0.0192
3656.00,0.0193
3655.00,0.0194
3654.00,0.0194
3653.00,0.0196
3652.00,0.0197
3651.00,0.0199
3650.00,0.0200
3649.00,0.0201
3648.00,0.0201
3647.00,0.0201
3646.00,0.0202
3645.00,0.0202
3644.00,0.0203
3643.00,0.0203
3642.00,0.0204
3641.00,0.0204
3640.00,0.0205
3639.00,0.0206
3638.00,0.0207
3637.00,0.0208
3636.00,0.0209
3635.00,0.0210
3634.00,0.0211
3633.00,0.0212
3632.00,0.0213
3631.00,0.0214
3630.00,0.0216
3629.00,0.0218
3628.00,0.0219
3627.00,0.0219
3626.00,0.0219
3625.00,0.0220
3624.00,0.0220
3623.00,0.0221
3622.00,0.0222
3621.00,0.0223
3620.00,0.0224
3619.00,0.0225
3618.00,0.0226
3617.00,0.0226
3616.00,0.0227
3615.00,0.0228
3614.00,0.0229
3613.00,0.0230
3612.00,0.0231
3611.00,0.0232
3610.00,0.0233
3609.00,0.0234
3608.00,0.0234
3607.00,0.0234
3606.00,0.0235
3605.00,0.0235
3604.00,0.0236
3603.00,0.0237
3602.00,0.0238
3601.00,0.0238
3600.00,0.0239
3599.00,0.0239
3598.00,0.0240
3597.00,0.0241
3596.00,0.0242
3595.00,0.0242
3594.00,0.0243
3593.00,0.0244
3592.00,0.0245
3591.00,0.0245
3590.00,0.0246
3589.00,0.0247
3588.00,0.0248
3587.00,0.0249
3586.00,0.0250
3585.00,0.0250
3584.00,0.0251
3583.00,0.0251
3582.00,0.0252
3581.00,0.0252
3580.00,0.0253
3579.00,0.0253
3578.00,0.0254
3577.00,0.0255
3576.00,0.0256
3575.00,0.0257
3574.00,0.0257
3573.00,0.0258
3572.00,0.0259
3571.00,0.0259
3570.00,0.0260
3569.00,0.0261
3568.00,0.0262
3567.00,0.0263
3566.00,0.0264
3565.00,0.0264
3564.00,0.0265
3563.00,0.0266
3562.00,0.0267
3561.00,0.0267
3560.00,0.0268
3559.00,0.0269
3558.00,0.0269
3557.00,0.0270
3556.00,0.0271
3555.00,0.0271
3554.00,0.0272
3553.00,0.0273
3552.00,0.0274
3551.00,0.0275
3550.00,0.0276
3549.00,0.0276
3548.00,0.0277
3547.00,0.0278
3546.00,0.0279
3545.00,0.0280
3544.00,0.0281
3543.00,0.0281
3542.00,0.0282
3541.00,0.0282
3540.00,0.0283
3539.00,0.0283
3538.00,0.0284
3537.00,0.0285
3536.00,0.0286
3535.00,0.0287
3534.00,0.0287
3533.00,0.0288
3532.00,0.0289
3531.00,0.0289
3530.00,0.0290
3529.00,0.0291
3528.00,0.0292
3527.00,0.0293
3526.00,0.0294
3525.00,0.0294
3524.00,0.0295
3523.00,0.0296
3522.00,0.0296
3521.00,0.0297
3520.00,0.0297
3519.00,0.0298
3518.00,0.0299
3517.00,0.0300
3516.00,0.0300
3515.00,0.0301
3514.00,0.0301
3513.00,0.0302
3512.00,0.0303
3511.00,0.0303
3510.00,0.0304
3509.00,0.0305
3508.00,0.0306
3507.00,0.0306
3506.00,0.0307
3505.00,0.0308
3504.00,0.0309
3503.00,0.0310
3502.00,0.0310
3501.00,0.0311
3500.00,0.0311
3499.00,0.0312
3498.00,0.0313
3497.00,0.0313
3496.00,0.0314
3495.00,0.0315
3494.00,0.0315
3493.00,0.0316
3492.00,0.0317
3491.00,0.0317
3490.00,0.0318
3489.00,0.0319
3488.00,0.0319
3487.00,0.0320
3486.00,0.0321
3485.00,0.0321
3484.00,0.0322
3483.00,0.0322
3482.00,0.0323
3481.00,0.0324
3480.00,0.0325
3479.00,0.0325
3478.00,0.0326
3477.00,0.0327
3476.00,0.0328
3475.00,0.0328
3474.00,0.0329
3473.00,0.0329
3472.00,0.0330
3471.00,0.0330
3470.00,0.0331
3469.00,0.0331
3468.00,0.0332
3467.00,0.0333
3466.00,0.0334
3465.00,0.0334
3464.00,0.0335
3463.00,0.0335
3462.00,0.0336
3461.00,0.0337
3460.00,0.0337
3459.00,0.0338
3458.00,0.0338
3457.00,0.0339
3456.00,0.0339
3455.00,0.0340
3454.00,0.0341
3453.00,0.0341
3452.00,0.0342
3451.00,0.0342
3450.00,0.0343
3449.00,0.0344
3448.00,0.0344
3447.00,0.0345
3446.00,0.0346
3445.00,0.0346
3444.00,0.0347
3443.00,0.0348
3442.00,0.0348
3441.00,0.0349
3440.00,0.0349
3439.00,0.0349
3438.00,0.0350
3437.00,0.0350
3436.00,0.0351
3435.00,0.0351
3434.00,0.0352
3433.00,0.0352
3432.00,0.0353
3431.00,0.0353
3430.00,0.0354
3429.00,0.0354
3428.00,0.0355
3427.00,0.0356
3426.00,0.0356
3425.00,0.0357
3424.00,0.0357
3423.00,0.0357
3422.00,0.0358
3421.00,0.0358
3420.00,0.0359
3419.00,0.0359
3418.00,0.0360
3417.00,0.0360
3416.00,0.0361
3415.00,0.0361
3414.00,0.0362
3413.00,0.0362
3412.00,0.0362
3411.00,0.0363
3410.00,0.0363
3409.00,0.0364
3408.00,0.0364
3407.00,0.0364
3406.00,0.0365
3405.00,0.0365
3404.00,0.0365
3403.00,0.0365
3402.00,0.0366
3401.00,0.0366
3400.00,0.0366
3399.00,0.0367
3398.00,0.0367
3397.00,0.0368
3396.00,0.0368
3395.00,0.0369
3394.00,0.0369
3393.00,0.0369
3392.00,0.0369
3391.00,0.0370
3390.00,0.0370
3389.00,0.0371
3388.00,0.0371
3387.00,0.0372
3386.00,0.0372
3385.00,0.0372
3384.00,0.0373
3383.00,0.0373
3382.00,0.0373
3381.00,0.0373
3380.00,0.0373
3379.00,0.0374
3378.00,0.0374
3377.00,0.0374
3376.00,0.0374
3375.00,0.0375
3374.00,0.0375
3373.00,0.0375
3372.00,0.0375
3371.00,0.0375
3370.00,0.0375
3369.00,0.0375
3368.00,0.0376
3367.00,0.0376
3366.00,0.0377
3365.00,0.0377
3364.00,0.0377
3363.00,0.0378
3362.00,0.0378
3361.00,0.0378
3360.00,0.0378
3359.00,0.0378
3358.00,0.0378
3357.00,0.0379
3356.00,0.0379
3355.00,0.0379
3354.00,0.0378
3353.00,0.0378
3352.00,0.0378
3351.00,0.0379
3350.00,0.0379
3349.00,0.0379
3348.00,0.0379
3347.00,0.0379
3346.00,0.0379
3345.00,0.0379
3344.00,0.0379
3343.00,0.0380
3342.00,0.0380
3341.00,0.0380
3340.00,0.0380
3339.00,0.0380
3338.00,0.0380
3337.00,0.0380
3336.00,0.0381
3335.00,0.0381
3334.00,0.0381
3333.00,0.0381
3332.00,0.0381
3331.00,0.0381
3330.00,0.0381
3329.00,0.0380
3328.00,0.0380
3327.00,0.0380
3326.00,0.0381
3325.00,0.0381
3324.00,0.0381
3323.00,0.0381
3322.00,0.0381
3321.00,0.0381
3320.00,0.0381
3319.00,0.0381
3318.00,0.0381
3317.00,0.0381
3316.00,0.0381
3315.00,0.0381
3314.00,0.0381
3313.00,0.0381
3312.00,0.0381
3311.00,0.0381
3310.00,0.0380
3309.00,0.0380
3308.00,0.0380
3307.00,0.0380
3306.00,0.0380
3305.00,0.0381
3304.00,0.0381
3303.00,0.0381
3302.00,0.0381
3301.00,0.0381
3300.00,0.0381
3299.00,0.0381
3298.00,0.0381
3297.00,0.0381
3296.00,0.0381
3295.00,0.0381
3294.00,0.0381
3293.00,0.0381
3292.00,0.0381
3291.00,0.0382
3290.00,0.0382
3289.00,0.0383
3288.00,0.0383
3287.00,0.0383
3286.00,0.0383
3285.00,0.0383
3284.00,0.0383
3283.00,0.0382
3282.00,0.0382
3281.00,0.0382
3280.00,0.0382
3279.00,0.0382
3278.00,0.0382
3277.00,0.0382
3276.00,0.0382
3275.00,0.0381
3274.00,0.0381
3273.00,0.0381
3272.00,0.0381
3271.00,0.0381
3270.00,0.0381
3269.00,0.0382
3268.00,0.0382
3267.00,0.0382
3266.00,0.0382
3265.00,0.0382
3264.00,0.0382
3263.00,0.0382
3262.00,0.0383
3261.00,0.0383
3260.00,0.0383
3259.00,0.0382
3258.00,0.0382
3257.00,0.0382
3256.00,0.0381
3255.00,0.0382
3254.00,0.0382
3253.00,0.0382
3252.00,0.0382
3251.00,0.0382
3250.00,0.0381
3249.00,0.0381
3248.00,0.0380
3247.00,0.0380
3246.00,0.0381
3245.00,0.0381
3244.00,0.0381
3243.00,0.0381
3242.00,0.0381
3241.00,0.0381
3240.00,0.0381
3239.00,0.0381
3238.00,0.0380
3237.00,0.0380
3236.00,0.0379
3235.00,0.0379
3234.00,0.0379
3233.00,0.0379
3232.00,0.0379
3231.00,0.0380
3230.00,0.0380
3229.00,0.0380
3228.00,0.0380
3227.00,0.0380
3226.00,0.0380
3225.00,0.0380
3224.00,0.0380
3223.00,0.0380
3222.00,0.0380
3221.00,0.0380
3220.00,0.0380
3219.00,0.0379
3218.00,0.0379
3217.00,0.0379
3216.00,0.0379
3215.00,0.0379
3214.00,0.0379
3213.00,0.0379
3212.00,0.0379
3211.00,0.0379
3210.00,0.0378
3209.00,0.0378
3208.00,0.0378
3207.00,0.0378
3206.00,0.0378
3205.00,0.0378
3204.00,0.0378
3203.00,0.0378
3202.00,0.0378
3201.00,0.0377
3200.00,0.0377
3199.00,0.0377
3198.00,0.0377
3197.00,0.0377
3196.00,0.0377
3195.00,0.0376
3194.00,0.0376
3193.00,0.0376
3192.00,0.0375
3191.00,0.0375
3190.00,0.0375
3189.00,0.0375
3188.00,0.0374
3187.00,0.0374
3186.00,0.0374
3185.00,0.0374
3184.00,0.0374
3183.00,0.0374
3182.00,0.0373
3181.00,0.0373
3180.00,0.0373
3179.00,0.0373
3178.00,0.0373
3177.00,0.0372
3176.00,0.0372
3175.00,0.0372
3174.00,0.0371
3173.00,0.0371
3172.00,0.0371
3171.00,0.0371
3170.00,0.0371
3169.00,0.0371
3168.00,0.0371
3167.00,0.0370
3166.00,0.0370
3165.00,0.0370
3164.00,0.0369
3163.00,0.0369
3162.00,0.0368
3161.00,0.0368
3160.00,0.0368
3159.00,0.0367
3158.00,0.0367
3157.00,0.0366
3156.00,0.0365
3155.00,0.0364
3154.00,0.0364
3153.00,0.0363
3152.00,0.0364
3151.00,0.0364
3150.00,0.0364
3149.00,0.0365
3148.00,0.0365
3147.00,0.0365
3146.00,0.0364
3145.00,0.0364
3144.00,0.0364
3143.00,0.0363
3142.00,0.0362
3141.00,0.0361
3140.00,0.0361
3139.00,0.0361
3138.00,0.0361
3137.00,0.0361
3136.00,0.0362
3135.00,0.0361
3134.00,0.0361
3133.00,0.0361
3132.00,0.0360
3131.00,0.0360
3130.00,0.0359
3129.00,0.0359
3128.00,0.0360
3127.00,0.0360
3126.00,0.0359
3125.00,0.0359
3124.00,0.0358
3123.00,0.0357
3122.00,0.0356
3121.00,0.0355
3120.00,0.0354
3119.00,0.0354
3118.00,0.0353
3117.00,0.0353
3116.00,0.0354
3115.00,0.0354
3114.00,0.0355
3113.00,0.0355
3112.00,0.0355
3111.00,0.0354
3110.00,0.0354
3109.00,0.0354
3108.00,0.0354
3107.00,0.0354
3106.00,0.0354
3105.00,0.0354
3104.00,0.0354
3103.00,0.0353
3102.00,0.0353
3101.00,0.0353
3100.00,0.0352
3099.00,0.0353
3098.00,0.0353
3097.00,0.0353
3096.00,0.0353
3095.00,0.0353
3094.00,0.0352
3093.00,0.0351
3092.00,0.0351
3091.00,0.0350
3090.00,0.0350
3089.00,0.0350
3088.00,0.0350
3087.00,0.0349
3086.00,0.0349
3085.00,0.0348
3084.00,0.0348
3083.00,0.0348
3082.00,0.0347
3081.00,0.0347
3080.00,0.0347
3079.00,0.0347
3078.00,0.0347
3077.00,0.0347
3076.00,0.0348
3075.00,0.0348
3074.00,0.0348
3073.00,0.0348
3072.00,0.0347
3071.00,0.0347
3070.00,0.0346
3069.00,0.0345
3068.00,0.0345
3067.00,0.0345
3066.00,0.0345
3065.00,0.0345
3064.00,0.0345
3063.00,0.0345
3062.00,0.0345
3061.00,0.0345
3060.00,0.0344
3059.00,0.0344
3058.00,0.0343
3057.00,0.0342
3056.00,0.0342
3055.00,0.0342
3054.00,0.0342
3053.00,0.0341
3052.00,0.0341
3051.00,0.0340
3050.00,0.0340
3049.00,0.0340
3048.00,0.0340
3047.00,0.0339
3046.00,0.0339
3045.00,0.0338
3044.00,0.0337
3043.00,0.0337
3042.00,0.0337
3041.00,0.0337
3040.00,0.0337
3039.00,0.0337
3038.00,0.0337
3037.00,0.0336
3036.00,0.0335
3035.00,0.0335
3034.00,0.0335
3033.00,0.0335
3032.00,0.0335
3031.00,0.0335
3030.00,0.0335
3029.00,0.0334
3028.00,0.0334
3027.00,0.0334
3026.00,0.0333
3025.00,0.0333
3024.00,0.0333
3023.00,0.0332
3022.00,0.0332
3021.00,0.0331
3020.00,0.0331
3019.00,0.0331
3018.00,0.0330
3017.00,0.0330
3016.00,0.0329
3015.00,0.0329
3014.00,0.0329
3013.00,0.0329
3012.00,0.0329
3011.00,0.0329
3010.00,0.0330
3009.00,0.0330
3008.00,0.0330
3007.00,0.0330
3006.00,0.0330
3005.00,0.0330
3004.00,0.0330
3003.00,0.0330
3002.00,0.0330
3001.00,0.0330
3000.00,0.0330
2999.00,0.0330
2998.00,0.0330
2997.00,0.0330
2996.00,0.0330
2995.00,0.0330
2994.00,0.0330
2993.00,0.0330
2992.00,0.0330
2991.00,0.0331
2990.00,0.0331
2989.00,0.0331
2988.00,0.0332
2987.00,0.0332
2986.00,0.0332
2985.00,0.0332
2984.00,0.0333
2983.00,0.0333
2982.00,0.0334
2981.00,0.0334
2980.00,0.0334
2979.00,0.0334
2978.00,0.0333
2977.00,0.0333
2976.00,0.0333
2975.00,0.0333
2974.00,0.0333
2973.00,0.0333
2972.00,0.0334
2971.00,0.0334
2970.00,0.0334
2969.00,0.0333
2968.00,0.0333
2967.00,0.0333
2966.00,0.0333
2965.00,0.0333
2964.00,0.0333
2963.00,0.0333
2962.00,0.0333
2961.00,0.0333
2960.00,0.0333
2959.00,0.0334
2958.00,0.0334
2957.00,0.0334
2956.00,0.0334
2955.00,0.0334
2954.00,0.0334
2953.00,0.0334
2952.00,0.0334
2951.00,0.0334
2950.00,0.0334
2949.00,0.0334
2948.00,0.0334
2947.00,0.0335
2946.00,0.0335
2945.00,0.0335
2944.00,0.0336
2943.00,0.0337
2942.00,0.0337
2941.00,0.0338
2940.00,0.0339
2939.00,0.0339
2938.00,0.0339
2937.00,0.0339
2936.00,0.0339
2935.00,0.0340
2934.00,0.0340
2933.00,0.0339
2932.00,0.0339
2931.00,0.0339
2930.00,0.0339
2929.00,0.0339
2928.00,0.0340
2927.00,0.0340
2926.00,0.0340
2925.00,0.0340
2924.00,0.0340
2923.00,0.0340
2922.00,0.0340
2921.00,0.0339
2920.00,0.0339
2919.00,0.0338
2918.00,0.0338
2917.00,0.0338
2916.00,0.0337
2915.00,0.0337
2914.00,0.0337
2913.00,0.0337
2912.00,0.0337
2911.00,0.0337
2910.00,0.0337
2909.00,0.0337
2908.00,0.0336
2907.00,0.0336
2906.00,0.0336
2905.00,0.0336
2904.00,0.0335
2903.00,0.0335
2902.00,0.0335
2901.00,0.0334
2900.00,0.0334
2899.00,0.0333
2898.00,0.0333
2897.00,0.0333
2896.00,0.0332
2895.00,0.0332
2894.00,0.0332
2893.00,0.0332
2892.00,0.0332
2891.00,0.0332
2890.00,0.0332
2889.00,0.0331
2888.00,0.0331
2887.00,0.0331
2886.00,0.0331
2885.00,0.0330
2884.00,0.0330
2883.00,0.0330
2882.00,0.0329
2881.00,0.0329
2880.00,0.0328
2879.00,0.0328
2878.00,0.0327
2877.00,0.0327
2876.00,0.0326
2875.00,0.0325
2874.00,0.0325
2873.00,0.0325
2872.00,0.0325
2871.00,0.0325
2870.00,0.0325
2869.00,0.0325
2868.00,0.0325
2867.00,0.0325
2866.00,0.0324
2865.00,0.0324
2864.00,0.0324
2863.00,0.0324
2862.00,0.0324
2861.00,0.0323
2860.00,0.0323
2859.00,0.0323
2858.00,0.0323
2857.00,0.0323
2856.00,0.0323
2855.00,0.0323
2854.00,0.0324
2853.00,0.0324
2852.00,0.0323
2851.00,0.0323
2850.00,0.0323
2849.00,0.0322
2848.00,0.0322
2847.00,0.0322
2846.00,0.0322
2845.00,0.0321
2844.00,0.0321
2843.00,0.0320
2842.00,0.0319
2841.00,0.0318
2840.00,0.0317
2839.00,0.0316
2838.00,0.0316
2837.00,0.0316
2836.00,0.0316
2835.00,0.0315
2834.00,0.0315
2833.00,0.0315
2832.00,0.0314
2831.00,0.0314
2830.00,0.0314
2829.00,0.0313
2828.00,0.0313
2827.00,0.0312
2826.00,0.0312
2825.00,0.0311
2824.00,0.0311
2823.00,0.0311
2822.00,0.0310
2821.00,0.0310
2820.00,0.0310
2819.00,0.0309
2818.00,0.0309
2817.00,0.0309
2816.00,0.0309
2815.00,0.0308
2814.00,0.0308
2813.00,0.0308
2812.00,0.0307
2811.00,0.0307
2810.00,0.0307
2809.00,0.0307
2808.00,0.0307
2807.00,0.0307
2806.00,0.0306
2805.00,0.0306
2804.00,0.0306
2803.00,0.0306
2802.00,0.0305
2801.00,0.0305
2800.00,0.0304
2799.00,0.0304
2798.00,0.0304
2797.00,0.0304
2796.00,0.0304
2795.00,0.0304
2794.00,0.0304
2793.00,0.0303
2792.00,0.0303
2791.00,0.0302
2790.00,0.0302
2789.00,0.0302
2788.00,0.0302
2787.00,0.0302
2786.00,0.0302
2785.00,0.0302
2784.00,0.0302
2783.00,0.0302
2782.00,0.0302
2781.00,0.0302
2780.00,0.0302
2779.00,0.0301
2778.00,0.0301
2777.00,0.0301
2776.00,0.0300
2775.00,0.0300
2774.00,0.0300
2773.00,0.0300
2772.00,0.0300
2771.00,0.0300
2770.00,0.0300
2769.00,0.0300
2768.00,0.0300
2767.00,0.0300
2766.00,0.0300
2765.00,0.0300
2764.00,0.0299
2763.00,0.0299
2762.00,0.0299
2761.00,0.0299
2760.00,0.0298
2759.00,0.0298
2758.00,0.0298
2757.00,0.0298
2756.00,0.0298
2755.00,0.0298
2754.00,0.0298
2753.00,0.0297
2752.00,0.0297
2751.00,0.0297
2750.00,0.0296
2749.00,0.0296
2748.00,0.0296
2747.00,0.0296
2746.00,0.0296
2745.00,0.0296
2744.00,0.0296
2743.00,0.0296
2742.00,0.0296
2741.00,0.0296
2740.00,0.0296
2739.00,0.0296
2738.00,0.0295
2737.00,0.0295
2736.00,0.0295
2735.00,0.0295
2734.00,0.0295
2733.00,0.0295
2732.00,0.0295
2731.00,0.0295
2730.00,0.0295
2729.00,0.0294
2728.00,0.0294
2727.00,0.0294
2726.00,0.0293
2725.00,0.0293
2724.00,0.0294
2723.00,0.0294
2722.00,0.0293
2721.00,0.0293
2720.00,0.0293
2719.00,0.0293
2718.00,0.0293
2717.00,0.0293
2716.00,0.0293
2715.00,0.0293
2714.00,0.0293
2713.00,0.0292
2712.00,0.0292
2711.00,0.0292
2710.00,0.0292
2709.00,0.0292
2708.00,0.0292
2707.00,0.0291
2706.00,0.0291
2705.00,0.0291
2704.00,0.0291
2703.00,0.0291
2702.00,0.0291
2701.00,0.0291
2700.00,0.0290
2699.00,0.0290
2698.00,0.0290
2697.00,0.0290
2696.00,0.0290
2695.00,0.0290
2694.00,0.0290
2693.00,0.0290
2692.00,0.0290
2691.00,0.0290
2690.00,0.0290
2689.00,0.0290
2688.00,0.0289
2687.00,0.0289
2686.00,0.0289
2685.00,0.0289
2684.00,0.0289
2683.00,0.0289
2682.00,0.0289
2681.00,0.0289
2680.00,0.0288
2679.00,0.0288
2678.00,0.0288
2677.00,0.0288
2676.00,0.0288
2675.00,0.0288
2674.00,0.0288
2673.00,0.0288
2672.00,0.0288
2671.00,0.0288
2670.00,0.0288
2669.00,0.0288
2668.00,0.0288
2667.00,0.0288
2666.00,0.0288
2665.00,0.0288
2664.00,0.0288
2663.00,0.0289
2662.00,0.0289
2661.00,0.0289
2660.00,0.0289
2659.00,0.0289
2658.00,0.0289
2657.00,0.0289
2656.00,0.0289
2655.00,0.0289
2654.00,0.0289
2653.00,0.0289
2652.00,0.0289
2651.00,0.0288
2650.00,0.0288
2649.00,0.0288
2648.00,0.0288
2647.00,0.0288
2646.00,0.0288
2645.00,0.0288
2644.00,0.0287
2643.00,0.0287
2642.00,0.0287
2641.00,0.0286
2640.00,0.0286
2639.00,0.0286
2638.00,0.0286
2637.00,0.0285
2636.00,0.0285
2635.00,0.0285
2634.00,0.0285
2633.00,0.0284
2632.00,0.0284
2631.00,0.0284
2630.00,0.0284
2629.00,0.0284
2628.00,0.0284
2627.00,0.0283
2626.00,0.0283
2625.00,0.0283
2624.00,0.0283
2623.00,0.0283
2622.00,0.0283
2621.00,0.0282
2620.00,0.0282
2619.00,0.0282
2618.00,0.0282
2617.00,0.0282
2616.00,0.0282
2615.00,0.0282
2614.00,0.0282
2613.00,0.0281
2612.00,0.0281
2611.00,0.0280
2610.00,0.0280
2609.00,0.0280
2608.00,0.0280
2607.00,0.0280
2606.00,0.0280
2605.00,0.0280
2604.00,0.0279
2603.00,0.0279
2602.00,0.0279
2601.00,0.0279
2600.00,0.0279
2599.00,0.0279
2598.00,0.0278
2597.00,0.0278
2596.00,0.0278
2595.00,0.0278
2594.00,0.0277
2593.00,0.0277
2592.00,0.0277
2591.00,0.0277
2590.00,0.0277
2589.00,0.0277
2588.00,0.0277
2587.00,0.0276
2586.00,0.0276
2585.00,0.0276
2584.00,0.0276
2583.00,0.0276
2582.00,0.0275
2581.00,0.0275
2580.00,0.0275
2579.00,0.0275
2578.00,0.0275
2577.00,0.0275
2576.00,0.0274
2575.00,0.0274
2574.00,0.0274
2573.00,0.0274
2572.00,0.0274
2571.00,0.0274
2570.00,0.0273
2569.00,0.0273
2568.00,0.0273
2567.00,0.0273
2566.00,0.0274
2565.00,0.0274
2564.00,0.0273
2563.00,0.0273
2562.00,0.0273
2561.00,0.0273
2560.00,0.0273
2559.00,0.0273
2558.00,0.0272
2557.00,0.0272
2556.00,0.0272
2555.00,0.0272
2554.00,0.0272
2553.00,0.0272
2552.00,0.0271
2551.00,0.0271
2550.00,0.0271
2549.00,0.0271
2548.00,0.0270
2547.00,0.0270
2546.00,0.0270
2545.00,0.0270
2544.00,0.0270
2543.00,0.0269
2542.00,0.0269
2541.00,0.0269
2540.00,0.0269
2539.00,0.0269
2538.00,0.0269
2537.00,0.0269
2536.00,0.0269
2535.00,0.0268
2534.00,0.0268
2533.00,0.0268
2532.00,0.0268
2531.00,0.0268
2530.00,0.0268
2529.00,0.0268
2528.00,0.0267
2527.00,0.0267
2526.00,0.0267
2525.00,0.0267
2524.00,0.0267
2523.00,0.0267
2522.00,0.0267
2521.00,0.0267
2520.00,0.0267
2519.00,0.0267
2518.00,0.0267
2517.00,0.0267
2516.00,0.0267
2515.00,0.0266
2514.00,0.0266
2513.00,0.0265
2512.00,0.0265
2511.00,0.0265
2510.00,0.0264
2509.00,0.0264
2508.00,0.0264
2507.00,0.0264
2506.00,0.0264
2505.00,0.0264
2504.00,0.0264
2503.00,0.0264
2502.00,0.0264
2501.00,0.0264
2500.00,0.0264
2499.00,0.0264
2498.00,0.0264
2497.00,0.0264
2496.00,0.0263
2495.00,0.0263
2494.00,0.0263
2493.00,0.0262
2492.00,0.0262
2491.00,0.0262
2490.00,0.0262
2489.00,0.0262
2488.00,0.0262
2487.00,0.0262
2486.00,0.0262
2485.00,0.0262
2484.00,0.0261
2483.00,0.0261
2482.00,0.0261
2481.00,0.0261
2480.00,0.0261
2479.00,0.0261
2478.00,0.0261
2477.00,0.0261
2476.00,0.0260
2475.00,0.0260
2474.00,0.0260
2473.00,0.0260
2472.00,0.0260
2471.00,0.0260
2470.00,0.0260
2469.00,0.0260
2468.00,0.0260
2467.00,0.0259
2466.00,0.0259
2465.00,0.0259
2464.00,0.0259
2463.00,0.0259
2462.00,0.0259
2461.00,0.0259
2460.00,0.0259
2459.00,0.0259
2458.00,0.0259
2457.00,0.0259
2456.00,0.0259
2455.00,0.0259
2454.00,0.0259
2453.00,0.0259
2452.00,0.0259
2451.00,0.0258
2450.00,0.0258
2449.00,0.0258
2448.00,0.0258
2447.00,0.0257
2446.00,0.0257
2445.00,0.0257
2444.00,0.0257
2443.00,0.0256
2442.00,0.0256
2441.00,0.0256
2440.00,0.0256
2439.00,0.0255
2438.00,0.0255
2437.00,0.0254
2436.00,0.0254
2435.00,0.0254
2434.00,0.0254
2433.00,0.0254
2432.00,0.0254
2431.00,0.0253
2430.00,0.0253
2429.00,0.0253
2428.00,0.0253
2427.00,0.0253
2426.00,0.0253
2425.00,0.0253
2424.00,0.0252
2423.00,0.0252
2422.00,0.0252
2421.00,0.0252
2420.00,0.0251
2419.00,0.0251
2418.00,0.0251
2417.00,0.0251
2416.00,0.0251
2415.00,0.0251
2414.00,0.0251
2413.00,0.0251
2412.00,0.0251
2411.00,0.0251
2410.00,0.0251
2409.00,0.0250
2408.00,0.0249
2407.00,0.0249
2406.00,0.0249
2405.00,0.0248
2404.00,0.0248
2403.00,0.0248
2402.00,0.0248
2401.00,0.0248
2400.00,0.0247
2399.00,0.0247
2398.00,0.0247
2397.00,0.0247
2396.00,0.0247
2395.00,0.0247
2394.00,0.0246
2393.00,0.0246
2392.00,0.0246
2391.00,0.0246
2390.00,0.0246
2389.00,0.0246
2388.00,0.0245
2387.00,0.0245
2386.00,0.0245
2385.00,0.0244
2384.00,0.0244
2383.00,0.0244
2382.00,0.0243
2381.00,0.0243
2380.00,0.0242
2379.00,0.0242
2378.00,0.0242
2377.00,0.0242
2376.00,0.0242
2375.00,0.0242
2374.00,0.0242
2373.00,0.0241
2372.00,0.0241
2371.00,0.0241
2370.00,0.0240
2369.00,0.0240
2368.00,0.0240
2367.00,0.0240
2366.00,0.0240
2365.00,0.0241
2364.00,0.0241
2363.00,0.0241
2362.00,0.0241
2361.00,0.0241
2360.00,0.0241
2359.00,0.0241
2358.00,0.0240
2357.00,0.0240
2356.00,0.0240
2355.00,0.0240
2354.00,0.0240
2353.00,0.0240
2352.00,0.0240
2351.00,0.0240
2350.00,0.0239
2349.00,0.0239
2348.00,0.0240
2347.00,0.0241
2346.00,0.0242
2345.00,0.0242
2344.00,0.0241
2343.00,0.0240
2342.00,0.0240
2341.00,0.0240
2340.00,0.0241
2339.00,0.0241
2338.00,0.0241
2337.00,0.0241
2336.00,0.0241
2335.00,0.0241
2334.00,0.0240
2333.00,0.0240
2332.00,0.0240
2331.00,0.0239
2330.00,0.0239
2329.00,0.0240
2328.00,0.0243
2327.00,0.0245
2326.00,0.0248
2325.00,0.0249
2324.00,0.0249
2323.00,0.0248
2322.00,0.0246
2321.00,0.0244
2320.00,0.0243
2319.00,0.0242
2318.00,0.0241
2317.00,0.0241
2316.00,0.0240
2315.00,0.0240
2314.00,0.0240
2313.00,0.0239
2312.00,0.0238
2311.00,0.0237
2310.00,0.0237
2309.00,0.0236
2308.00,0.0236
2307.00,0.0236
2306.00,0.0236
2305.00,0.0236
2304.00,0.0236
2303.00,0.0236
2302.00,0.0236
2301.00,0.0236
2300.00,0.0236
2299.00,0.0237
2298.00,0.0237
2297.00,0.0237
2296.00,0.0238
2295.00,0.0238
2294.00,0.0238
2293.00,0.0239
2292.00,0.0240
2291.00,0.0240
2290.00,0.0241
2289.00,0.0241
2288.00,0.0241
2287.00,0.0241
2286.00,0.0241
2285.00,0.0241
2284.00,0.0240
2283.00,0.0240
2282.00,0.0239
2281.00,0.0238
2280.00,0.0237
2279.00,0.0237
2278.00,0.0237
2277.00,0.0236
2276.00,0.0236
2275.00,0.0236
2274.00,0.0236
2273.00,0.0235
2272.00,0.0235
2271.00,0.0234
2270.00,0.0234
2269.00,0.0234
2268.00,0.0233
2267.00,0.0232
2266.00,0.0231
2265.00,0.0231
2264.00,0.0231
2263.00,0.0231
2262.00,0.0231
2261.00,0.0231
2260.00,0.0231
2259.00,0.0231
2258.00,0.0231
2257.00,0.0230
2256.00,0.0229
2255.00,0.0228
2254.00,0.0227
2253.00,0.0227
2252.00,0.0228
2251.00,0.0229
2250.00,0.0229
2249.00,0.0229
2248.00,0.0229
2247.00,0.0229
2246.00,0.0229
2245.00,0.0229
2244.00,0.0229
2243.00,0.0229
2242.00,0.0229
2241.00,0.0229
2240.00,0.0229
2239.00,0.0228
2238.00,0.0228
2237.00,0.0227
2236.00,0.0227
2235.00,0.0227
2234.00,0.0227
2233.00,0.0227
2232.00,0.0227
2231.00,0.0226
2230.00,0.0226
2229.00,0.0226
2228.00,0.0226
2227.00,0.0226
2226.00,0.0226
2225.00,0.0226
2224.00,0.0226
2223.00,0.0225
2222.00,0.0225
2221.00,0.0224
2220.00,0.0224
2219.00,0.0223
2218.00,0.0223
2217.00,0.0222
2216.00,0.0222
2215.00,0.0221
2214.00,0.0222
2213.00,0.0222
2212.00,0.0223
2211.00,0.0223
2210.00,0.0223
2209.00,0.0222
2208.00,0.0222
2207.00,0.0222
2206.00,0.0222
2205.00,0.0221
2204.00,0.0221
2203.00,0.0221
2202.00,0.0221
2201.00,0.0222
2200.00,0.0222
2199.00,0.0223
2198.00,0.0223
2197.00,0.0223
2196.00,0.0222
2195.00,0.0222
2194.00,0.0221
2193.00,0.0221
2192.00,0.0220
2191.00,0.0220
2190.00,0.0220
2189.00,0.0221
2188.00,0.0221
2187.00,0.0221
2186.00,0.0220
2185.00,0.0218
2184.00,0.0216
2183.00,0.0214
2182.00,0.0213
2181.00,0.0214
2180.00,0.0215
2179.00,0.0216
2178.00,0.0215
2177.00,0.0214
2176.00,0.0213
2175.00,0.0213
2174.00,0.0214
2173.00,0.0216
2172.00,0.0217
2171.00,0.0219
2170.00,0.0220
2169.00,0.0221
2168.00,0.0220
2167.00,0.0220
2166.00,0.0219
2165.00,0.0220
2164.00,0.0222
2163.00,0.0222
2162.00,0.0219
2161.00,0.0212
2160.00,0.0201
2159.00,0.0191
2158.00,0.0186
2157.00,0.0185
2156.00,0.0187
2155.00,0.0190
2154.00,0.0193
2153.00,0.0195
2152.00,0.0197
2151.00,0.0198
2150.00,0.0198
2149.00,0.0197
2148.00,0.0196
2147.00,0.0195
2146.00,0.0194
2145.00,0.0195
2144.00,0.0196
2143.00,0.0197
2142.00,0.0197
2141.00,0.0197
2140.00,0.0198
2139.00,0.0198
2138.00,0.0197
2137.00,0.0196
2136.00,0.0194
2135.00,0.0192
2134.00,0.0192
2133.00,0.0192
2132.00,0.0193
2131.00,0.0195
2130.00,0.0196
2129.00,0.0198
2128.00,0.0199
2127.00,0.0200
2126.00,0.0201
2125.00,0.0201
2124.00,0.0201
2123.00,0.0202
2122.00,0.0202
2121.00,0.0203
2120.00,0.0204
2119.00,0.0204
2118.00,0.0205
2117.00,0.0206
2116.00,0.0207
2115.00,0.0207
2114.00,0.0208
2113.00,0.0208
2112.00,0.0207
2111.00,0.0207
2110.00,0.0207
2109.00,0.0206
2108.00,0.0206
2107.00,0.0205
2106.00,0.0204
2105.00,0.0204
2104.00,0.0205
2103.00,0.0205
2102.00,0.0205
2101.00,0.0205
2100.00,0.0205
2099.00,0.0204
2098.00,0.0203
2097.00,0.0201
2096.00,0.0200
2095.00,0.0199
2094.00,0.0199
2093.00,0.0199
2092.00,0.0200
2091.00,0.0201
2090.00,0.0201
2089.00,0.0201
2088.00,0.0201
2087.00,0.0201
2086.00,0.0202
2085.00,0.0202
2084.00,0.0202
2083.00,0.0201
2082.00,0.0201
2081.00,0.0201
2080.00,0.0202
2079.00,0.0202
2078.00,0.0202
2077.00,0.0202
2076.00,0.0200
2075.00,0.0199
2074.00,0.0199
2073.00,0.0199
2072.00,0.0199
2071.00,0.0199
2070.00,0.0199
2069.00,0.0198
2068.00,0.0198
2067.00,0.0197
2066.00,0.0196
2065.00,0.0196
2064.00,0.0196
2063.00,0.0195
2062.00,0.0195
2061.00,0.0195
2060.00,0.0194
2059.00,0.0194
2058.00,0.0194
2057.00,0.0194
2056.00,0.0194
2055.00,0.0195
2054.00,0.0196
2053.00,0.0199
2052.00,0.0202
2051.00,0.0203
2050.00,0.0200
2049.00,0.0197
2048.00,0.0193
2047.00,0.0191
2046.00,0.0189
2045.00,0.0189
2044.00,0.0189
2043.00,0.0190
2042.00,0.0191
2041.00,0.0191
2040.00,0.0190
2039.00,0.0189
2038.00,0.0187
2037.00,0.0186
2036.00,0.0185
2035.00,0.0183
2034.00,0.0182
2033.00,0.0182
2032.00,0.0183
2031.00,0.0183
2030.00,0.0183
2029.00,0.0183
2028.00,0.0183
2027.00,0.0182
2026.00,0.0182
2025.00,0.0181
2024.00,0.0180
2023.00,0.0179
2022.00,0.0178
2021.00,0.0177
2020.00,0.0176
2019.00,0.0176
2018.00,0.0175
2017.00,0.0174
2016.00,0.0175
2015.00,0.0176
2014.00,0.0176
2013.00,0.0176
2012.00,0.0177
2011.00,0.0176
2010.00,0.0176
2009.00,0.0175
2008.00,0.0173
2007.00,0.0171
2006.00,0.0170
2005.00,0.0170
2004.00,0.0172
2003.00,0.0173
2002.00,0.0173
2001.00,0.0174
2000.00,0.0176
1999.00,0.0177
1998.00,0.0178
1997.00,0.0179
1996.00,0.0180
1995.00,0.0180
1994.00,0.0180
1993.00,0.0180
1992.00,0.0179
1991.00,0.0179
1990.00,0.0179
1989.00,0.0179
1988.00,0.0180
1987.00,0.0180
1986.00,0.0181
1985.00,0.0182
1984.00,0.0184
1983.00,0.0185
1982.00,0.0186
1981.00,0.0186
1980.00,0.0184
1979.00,0.0180
1978.00,0.0175
1977.00,0.0172
1976.00,0.0170
1975.00,0.0169
1974.00,0.0168
1973.00,0.0169
1972.00,0.0170
1971.00,0.0170
1970.00,0.0169
1969.00,0.0167
1968.00,0.0166
1967.00,0.0165
1966.00,0.0164
1965.00,0.0164
1964.00,0.0165
1963.00,0.0165
1962.00,0.0164
1961.00,0.0163
1960.00,0.0163
1959.00,0.0163
1958.00,0.0163
1957.00,0.0164
1956.00,0.0166
1955.00,0.0166
1954.00,0.0166
1953.00,0.0165
1952.00,0.0165
1951.00,0.0165
1950.00,0.0166
1949.00,0.0166
1948.00,0.0167
1947.00,0.0167
1946.00,0.0167
1945.00,0.0166
1944.00,0.0165
1943.00,0.0164
1942.00,0.0163
1941.00,0.0162
1940.00,0.0162
1939.00,0.0162
1938.00,0.0163
1937.00,0.0163
1936.00,0.0164
1935.00,0.0165
1934.00,0.0165
1933.00,0.0165
1932.00,0.0165
1931.00,0.0165
1930.00,0.0164
1929.00,0.0164
1928.00,0.0164
1927.00,0.0164
1926.00,0.0164
1925.00,0.0164
1924.00,0.0164
1923.00,0.0164
1922.00,0.0164
1921.00,0.0165
1920.00,0.0166
1919.00,0.0165
1918.00,0.0164
1917.00,0.0163
1916.00,0.0163
1915.00,0.0163
1914.00,0.0163
1913.00,0.0164
1912.00,0.0164
1911.00,0.0164
1910.00,0.0163
1909.00,0.0162
1908.00,0.0162
1907.00,0.0162
1906.00,0.0161
1905.00,0.0161
1904.00,0.0161
1903.00,0.0161
1902.00,0.0161
1901.00,0.0161
1900.00,0.0161
1899.00,0.0161
1898.00,0.0161
1897.00,0.0161
1896.00,0.0161
1895.00,0.0160
1894.00,0.0160
1893.00,0.0160
1892.00,0.0161
1891.00,0.0160
1890.00,0.0159
1889.00,0.0157
1888.00,0.0157
1887.00,0.0157
1886.00,0.0158
1885.00,0.0158
1884.00,0.0158
1883.00,0.0158
1882.00,0.0158
1881.00,0.0158
1880.00,0.0158
1879.00,0.0158
1878.00,0.0157
1877.00,0.0156
1876.00,0.0156
1875.00,0.0156
1874.00,0.0156
1873.00,0.0157
1872.00,0.0157
1871.00,0.0157
1870.00,0.0156
1869.00,0.0154
1868.00,0.0151
1867.00,0.0150
1866.00,0.0150
1865.00,0.0151
1864.00,0.0152
1863.00,0.0153
1862.00,0.0153
1861.00,0.0153
1860.00,0.0153
1859.00,0.0153
1858.00,0.0152
1857.00,0.0152
1856.00,0.0151
1855.00,0.0151
1854.00,0.0151
1853.00,0.0150
1852.00,0.0150
1851.00,0.0151
1850.00,0.0151
1849.00,0.0151
1848.00,0.0151
1847.00,0.0150
1846.00,0.0149
1845.00,0.0148
1844.00,0.0147
1843.00,0.0146
1842.00,0.0146
1841.00,0.0147
1840.00,0.0148
1839.00,0.0148
1838.00,0.0147
1837.00,0.0147
1836.00,0.0147
1835.00,0.0147
1834.00,0.0147
1833.00,0.0147
1832.00,0.0147
1831.00,0.0145
1830.00,0.0144
1829.00,0.0143
1828.00,0.0144
1827.00,0.0145
1826.00,0.0146
1825.00,0.0145
1824.00,0.0145
1823.00,0.0145
1822.00,0.0146
1821.00,0.0146
1820.00,0.0146
1819.00,0.0146
1818.00,0.0145
1817.00,0.0144
1816.00,0.0144
1815.00,0.0145
1814.00,0.0146
1813.00,0.0147
1812.00,0.0147
1811.00,0.0147
1810.00,0.0147
1809.00,0.0147
1808.00,0.0148
1807.00,0.0149
1806.00,0.0149
1805.00,0.0150
1804.00,0.0151
1803.00,0.0152
1802.00,0.0152
1801.00,0.0152
1800.00,0.0152
1799.00,0.0152
1798.00,0.0154
1797.00,0.0156
1796.00,0.0157
1795.00,0.0158
1794.00,0.0158
1793.00,0.0158
1792.00,0.0158
1791.00,0.0158
1790.00,0.0159
1789.00,0.0162
1788.00,0.0164
1787.00,0.0166
1786.00,0.0168
1785.00,0.0170
1784.00,0.0171
1783.00,0.0173
1782.00,0.0174
1781.00,0.0175
1780.00,0.0176
1779.00,0.0178
1778.00,0.0180
1777.00,0.0183
1776.00,0.0185
1775.00,0.0187
1774.00,0.0188
1773.00,0.0188
1772.00,0.0189
1771.00,0.0189
1770.00,0.0192
1769.00,0.0196
1768.00,0.0199
1767.00,0.0202
1766.00,0.0203
1765.00,0.0205
1764.00,0.0207
1763.00,0.0209
1762.00,0.0210
1761.00,0.0212
1760.00,0.0214
1759.00,0.0217
1758.00,0.0220
1757.00,0.0223
1756.00,0.0225
1755.00,0.0228
1754.00,0.0232
1753.00,0.0236
1752.00,0.0241
1751.00,0.0244
1750.00,0.0246
1749.00,0.0248
1748.00,0.0251
1747.00,0.0255
1746.00,0.0260
1745.00,0.0265
1744.00,0.0269
1743.00,0.0273
1742.00,0.0276
1741.00,0.0281
1740.00,0.0286
1739.00,0.0291
1738.00,0.0296
1737.00,0.0301
1736.00,0.0307
1735.00,0.0314
1734.00,0.0319
1733.00,0.0324
1732.00,0.0328
1731.00,0.0332
1730.00,0.0336
1729.00,0.0341
1728.00,0.0346
1727.00,0.0351
1726.00,0.0355
1725.00,0.0360
1724.00,0.0365
1723.00,0.0369
1722.00,0.0371
1721.00,0.0374
1720.00,0.0376
1719.00,0.0380
1718.00,0.0383
1717.00,0.0386
1716.00,0.0388
1715.00,0.0390
1714.00,0.0392
1713.00,0.0395
1712.00,0.0397
1711.00,0.0400
1710.00,0.0402
1709.00,0.0403
1708.00,0.0405
1707.00,0.0406
1706.00,0.0407
1705.00,0.0407
1704.00,0.0408
1703.00,0.0409
1702.00,0.0410
1701.00,0.0411
1700.00,0.0411
1699.00,0.0412
1698.00,0.0414
1697.00,0.0416
1696.00,0.0417
1695.00,0.0417
1694.00,0.0418
1693.00,0.0419
1692.00,0.0419
1691.00,0.0420
1690.00,0.0421
1689.00,0.0421
1688.00,0.0422
1687.00,0.0422
1686.00,0.0422
1685.00,0.0422
1684.00,0.0420
1683.00,0.0421
1682.00,0.0423
1681.00,0.0426
1680.00,0.0428
1679.00,0.0430
1678.00,0.0430
1677.00,0.0431
1676.00,0.0432
1675.00,0.0433
1674.00,0.0434
1673.00,0.0435
1672.00,0.0437
1671.00,0.0438
1670.00,0.0440
1669.00,0.0442
1668.00,0.0445
1667.00,0.0448
1666.00,0.0451
1665.00,0.0453
1664.00,0.0455
1663.00,0.0458
1662.00,0.0461
1661.00,0.0464
1660.00,0.0467
1659.00,0.0470
1658.00,0.0472
1657.00,0.0474
1656.00,0.0474
1655.00,0.0476
1654.00,0.0479
1653.00,0.0483
1652.00,0.0489
1651.00,0.0492
1650.00,0.0493
1649.00,0.0495
1648.00,0.0499
1647.00,0.0504
1646.00,0.0510
1645.00,0.0514
1644.00,0.0519
1643.00,0.0522
1642.00,0.0525
1641.00,0.0528
1640.00,0.0531
1639.00,0.0533
1638.00,0.0534
1637.00,0.0537
1636.00,0.0542
1635.00,0.0547
1634.00,0.0552
1633.00,0.0557
1632.00,0.0561
1631.00,0.0564
1630.00,0.0567
1629.00,0.0570
1628.00,0.0574
1627.00,0.0577
1626.00,0.0580
1625.00,0.0583
1624.00,0.0588
1623.00,0.0592
1622.00,0.0596
1621.00,0.0599
1620.00,0.0601
1619.00,0.0603
1618.00,0.0606
1617.00,0.0611
1616.00,0.0616
1615.00,0.0620
1614.00,0.0622
1613.00,0.0625
1612.00,0.0627
1611.00,0.0631
1610.00,0.0634
1609.00,0.0636
1608.00,0.0640
1607.00,0.0643
1606.00,0.0645
1605.00,0.0647
1604.00,0.0650
1603.00,0.0653
1602.00,0.0655
1601.00,0.0657
1600.00,0.0659
1599.00,0.0661
1598.00,0.0662
1597.00,0.0663
1596.00,0.0665
1595.00,0.0666
1594.00,0.0668
1593.00,0.0670
1592.00,0.0672
1591.00,0.0674
1590.00,0.0676
1589.00,0.0677
1588.00,0.0679
1587.00,0.0681
1586.00,0.0682
1585.00,0.0683
1584.00,0.0684
1583.00,0.0685
1582.00,0.0686
1581.00,0.0685
1580.00,0.0684
1579.00,0.0683
1578.00,0.0683
1577.00,0.0684
1576.00,0.0686
1575.00,0.0687
1574.00,0.0686
1573.00,0.0684
1572.00,0.0681
1571.00,0.0680
1570.00,0.0680
1569.00,0.0680
1568.00,0.0680
1567.00,0.0679
1566.00,0.0678
1565.00,0.0677
1564.00,0.0675
1563.00,0.0672
1562.00,0.0668
1561.00,0.0662
1560.00,0.0658
1559.00,0.0660
1558.00,0.0661
1557.00,0.0661
1556.00,0.0661
1555.00,0.0660
1554.00,0.0658
1553.00,0.0655
1552.00,0.0651
1551.00,0.0648
1550.00,0.0646
1549.00,0.0643
1548.00,0.0641
1547.00,0.0638
1546.00,0.0635
1545.00,0.0632
1544.00,0.0629
1543.00,0.0624
1542.00,0.0620
1541.00,0.0616
1540.00,0.0613
1539.00,0.0611
1538.00,0.0610
1537.00,0.0608
1536.00,0.0605
1535.00,0.0602
1534.00,0.0598
1533.00,0.0595
1532.00,0.0593
1531.00,0.0591
1530.00,0.0588
1529.00,0.0586
1528.00,0.0583
1527.00,0.0580
1526.00,0.0578
1525.00,0.0574
1524.00,0.0571
1523.00,0.0569
1522.00,0.0568
1521.00,0.0567
1520.00,0.0565
1519.00,0.0563
1518.00,0.0561
1517.00,0.0560
1516.00,0.0560
1515.00,0.0560
1514.00,0.0560
1513.00,0.0559
1512.00,0.0558
1511.00,0.0556
1510.00,0.0554
1509.00,0.0551
1508.00,0.0549
1507.00,0.0546
1506.00,0.0544
1505.00,0.0546
1504.00,0.0547
1503.00,0.0546
1502.00,0.0545
1501.00,0.0543
1500.00,0.0541
1499.00,0.0540
1498.00,0.0539
1497.00,0.0539
1496.00,0.0540
1495.00,0.0540
1494.00,0.0539
1493.00,0.0539
1492.00,0.0538
1491.00,0.0538
1490.00,0.0538
1489.00,0.0537
1488.00,0.0536
1487.00,0.0536
1486.00,0.0536
1485.00,0.0536
1484.00,0.0537
1483.00,0.0537
1482.00,0.0537
1481.00,0.0537
1480.00,0.0538
1479.00,0.0538
1478.00,0.0538
1477.00,0.0538
1476.00,0.0539
1475.00,0.0541
1474.00,0.0543
1473.00,0.0546
1472.00,0.0548
1471.00,0.0550
1470.00,0.0551
1469.00,0.0553
1468.00,0.0554
1467.00,0.0556
1466.00,0.0558
1465.00,0.0560
1464.00,0.0563
1463.00,0.0565
1462.00,0.0566
1461.00,0.0566
1460.00,0.0565
1459.00,0.0566
1458.00,0.0570
1457.00,0.0574
1456.00,0.0577
1455.00,0.0578
1454.00,0.0578
1453.00,0.0578
1452.00,0.0579
1451.00,0.0579
1450.00,0.0580
1449.00,0.0581
1448.00,0.0582
1447.00,0.0583
1446.00,0.0583
1445.00,0.0584
1444.00,0.0585
1443.00,0.0585
1442.00,0.0586
1441.00,0.0587
1440.00,0.0587
1439.00,0.0588
1438.00,0.0589
1437.00,0.0592
1436.00,0.0595
1435.00,0.0596
1434.00,0.0596
1433.00,0.0596
1432.00,0.0596
1431.00,0.0597
1430.00,0.0598
1429.00,0.0600
1428.00,0.0601
1427.00,0.0602
1426.00,0.0603
1425.00,0.0605
1424.00,0.0606
1423.00,0.0607
1422.00,0.0607
1421.00,0.0608
1420.00,0.0610
1419.00,0.0613
1418.00,0.0615
1417.00,0.0616
1416.00,0.0617
1415.00,0.0617
1414.00,0.0617
1413.00,0.0618
1412.00,0.0620
1411.00,0.0621
1410.00,0.0621
1409.00,0.0622
1408.00,0.0623
1407.00,0.0624
1406.00,0.0625
1405.00,0.0626
1404.00,0.0628
1403.00,0.0630
1402.00,0.0631
1401.00,0.0632
1400.00,0.0634
1399.00,0.0636
1398.00,0.0637
1397.00,0.0639
1396.00,0.0641
1395.00,0.0643
1394.00,0.0644
1393.00,0.0646
1392.00,0.0647
1391.00,0.0648
1390.00,0.0649
1389.00,0.0651
1388.00,0.0654
1387.00,0.0656
1386.00,0.0657
1385.00,0.0658
1384.00,0.0660
1383.00,0.0661
1382.00,0.0663
1381.00,0.0666
1380.00,0.0668
1379.00,0.0670
1378.00,0.0671
1377.00,0.0672
1376.00,0.0673
1375.00,0.0675
1374.00,0.0676
1373.00,0.0678
1372.00,0.0678
1371.00,0.0679
1370.00,0.0680
1369.00,0.0681
1368.00,0.0682
1367.00,0.0683
1366.00,0.0683
1365.00,0.0683
1364.00,0.0684
1363.00,0.0685
1362.00,0.0685
1361.00,0.0686
1360.00,0.0685
1359.00,0.0685
1358.00,0.0685
1357.00,0.0685
1356.00,0.0685
1355.00,0.0685
1354.00,0.0685
1353.00,0.0684
1352.00,0.0684
1351.00,0.0684
1350.00,0.0684
1349.00,0.0683
1348.00,0.0683
1347.00,0.0683
1346.00,0.0683
1345.00,0.0682
1344.00,0.0682
1343.00,0.0682
1342.00,0.0683
1341.00,0.0683
1340.00,0.0684
1339.00,0.0684
1338.00,0.0684
1337.00,0.0683
1336.00,0.0683
1335.00,0.0682
1334.00,0.0682
1333.00,0.0681
1332.00,0.0681
1331.00,0.0681
1330.00,0.0680
1329.00,0.0680
1328.00,0.0680
1327.00,0.0680
1326.00,0.0680
1325.00,0.0680
1324.00,0.0680
1323.00,0.0679
1322.00,0.0679
1321.00,0.0679
1320.00,0.0679
1319.00,0.0679
1318.00,0.0679
1317.00,0.0679
1316.00,0.0679
1315.00,0.0679
1314.00,0.0679
1313.00,0.0679
1312.00,0.0678
1311.00,0.0678
1310.00,0.0677
1309.00,0.0677
1308.00,0.0677
1307.00,0.0677
1306.00,0.0677
1305.00,0.0677
1304.00,0.0678
1303.00,0.0678
1302.00,0.0678
1301.00,0.0678
1300.00,0.0679
1299.00,0.0680
1298.00,0.0680
1297.00,0.0681
1296.00,0.0682
1295.00,0.0683
1294.00,0.0683
1293.00,0.0684
1292.00,0.0685
1291.00,0.0686
1290.00,0.0686
1289.00,0.0687
1288.00,0.0688
1287.00,0.0688
1286.00,0.0689
1285.00,0.0690
1284.00,0.0691
1283.00,0.0692
1282.00,0.0692
1281.00,0.0693
1280.00,0.0693
1279.00,0.0694
1278.00,0.0695
1277.00,0.0696
1276.00,0.0696
1275.00,0.0697
1274.00,0.0698
1273.00,0.0699
1272.00,0.0700
1271.00,0.0701
1270.00,0.0701
1269.00,0.0702
1268.00,0.0703
1267.00,0.0704
1266.00,0.0704
1265.00,0.0705
1264.00,0.0706
1263.00,0.0707
1262.00,0.0707
1261.00,0.0708
1260.00,0.0708
1259.00,0.0709
1258.00,0.0709
1257.00,0.0709
1256.00,0.0709
1255.00,0.0709
1254.00,0.0709
1253.00,0.0709
1252.00,0.0710
1251.00,0.0710
1250.00,0.0710
1249.00,0.0710
1248.00,0.0711
1247.00,0.0711
1246.00,0.0711
1245.00,0.0711
1244.00,0.0711
1243.00,0.0711
1242.00,0.0711
1241.00,0.0710
1240.00,0.0710
1239.00,0.0711
1238.00,0.0711
1237.00,0.0711
1236.00,0.0711
1235.00,0.0711
1234.00,0.0711
1233.00,0.0710
1232.00,0.0710
1231.00,0.0710
1230.00,0.0710
1229.00,0.0710
1228.00,0.0710
1227.00,0.0709
1226.00,0.0709
1225.00,0.0708
1224.00,0.0707
1223.00,0.0707
1222.00,0.0706
1221.00,0.0706
1220.00,0.0705
1219.00,0.0705
1218.00,0.0704
1217.00,0.0704
1216.00,0.0704
1215.00,0.0704
1214.00,0.0704
1213.00,0.0704
1212.00,0.0704
1211.00,0.0704
1210.00,0.0704
1209.00,0.0704
1208.00,0.0704
1207.00,0.0704
1206.00,0.0705
1205.00,0.0705
1204.00,0.0705
1203.00,0.0705
1202.00,0.0705
1201.00,0.0705
1200.00,0.0705
1199.00,0.0705
1198.00,0.0705
1197.00,0.0705
1196.00,0.0705
1195.00,0.0705
1194.00,0.0705
1193.00,0.0705
1192.00,0.0705
1191.00,0.0705
1190.00,0.0705
1189.00,0.0705
1188.00,0.0706
1187.00,0.0706
1186.00,0.0706
1185.00,0.0706
1184.00,0.0707
1183.00,0.0707
1182.00,0.0709
1181.00,0.0710
1180.00,0.0713
1179.00,0.0714
1178.00,0.0716
1177.00,0.0717
1176.00,0.0718
1175.00,0.0719
1174.00,0.0720
1173.00,0.0722
1172.00,0.0723
1171.00,0.0724
1170.00,0.0726
1169.00,0.0727
1168.00,0.0728
1167.00,0.0729
1166.00,0.0730
1165.00,0.0731
1164.00,0.0733
1163.00,0.0733
1162.00,0.0734
1161.00,0.0735
1160.00,0.0735
1159.00,0.0736
1158.00,0.0736
1157.00,0.0736
1156.00,0.0737
1155.00,0.0737
1154.00,0.0736
1153.00,0.0737
1152.00,0.0737
1151.00,0.0737
1150.00,0.0737
1149.00,0.0737
1148.00,0.0736
1147.00,0.0736
1146.00,0.0735
1145.00,0.0734
1144.00,0.0734
1143.00,0.0733
1142.00,0.0733
1141.00,0.0733
1140.00,0.0732
1139.00,0.0732
1138.00,0.0732
1137.00,0.0731
1136.00,0.0731
1135.00,0.0731
1134.00,0.0730
1133.00,0.0730
1132.00,0.0730
1131.00,0.0730
1130.00,0.0730
1129.00,0.0730
1128.00,0.0731
1127.00,0.0731
1126.00,0.0731
1125.00,0.0731
1124.00,0.0732
1123.00,0.0733
1122.00,0.0734
1121.00,0.0735
1120.00,0.0735
1119.00,0.0736
1118.00,0.0737
1117.00,0.0738
1116.00,0.0739
1115.00,0.0739
1114.00,0.0740
1113.00,0.0741
1112.00,0.0742
1111.00,0.0743
1110.00,0.0743
1109.00,0.0744
1108.00,0.0745
1107.00,0.0746
1106.00,0.0746
1105.00,0.0747
1104.00,0.0748
1103.00,0.0749
1102.00,0.0749
1101.00,0.0750
1100.00,0.0751
1099.00,0.0751
1098.00,0.0752
1097.00,0.0753
1096.00,0.0754
1095.00,0.0755
1094.00,0.0755
1093.00,0.0756
1092.00,0.0757
1091.00,0.0758
1090.00,0.0759
1089.00,0.0760
1088.00,0.0761
1087.00,0.0762
1086.00,0.0764
1085.00,0.0765
1084.00,0.0766
1083.00,0.0767
1082.00,0.0768
1081.00,0.0769
1080.00,0.0771
1079.00,0.0772
1078.00,0.0774
1077.00,0.0775
1076.00,0.0776
1075.00,0.0777
1074.00,0.0778
1073.00,0.0778
1072.00,0.0779
1071.00,0.0779
1070.00,0.0779
1069.00,0.0779
1068.00,0.0780
1067.00,0.0781
1066.00,0.0782
1065.00,0.0782
1064.00,0.0783
1063.00,0.0783
1062.00,0.0784
1061.00,0.0785
1060.00,0.0785
1059.00,0.0786
1058.00,0.0786
1057.00,0.0787
1056.00,0.0787
1055.00,0.0787
1054.00,0.0787
1053.00,0.0787
1052.00,0.0787
1051.00,0.0787
1050.00,0.0787
1049.00,0.0787
1048.00,0.0787
1047.00,0.0786
1046.00,0.0786
1045.00,0.0785
1044.00,0.0784
1043.00,0.0784
1042.00,0.0783
1041.00,0.0782
1040.00,0.0782
1039.00,0.0781
1038.00,0.0780
1037.00,0.0779
1036.00,0.0778
1035.00,0.0778
1034.00,0.0777
1033.00,0.0776
1032.00,0.0775
1031.00,0.0774
1030.00,0.0772
1029.00,0.0771
1028.00,0.0769
1027.00,0.0767
1026.00,0.0765
1025.00,0.0763
1024.00,0.0761
1023.00,0.0759
1022.00,0.0756
1021.00,0.0754
1020.00,0.0752
1019.00,0.0750
1018.00,0.0747
1017.00,0.0745
1016.00,0.0742
1015.00,0.0739
1014.00,0.0736
1013.00,0.0733
1012.00,0.0730
1011.00,0.0727
1010.00,0.0724
1009.00,0.0721
1008.00,0.0718
1007.00,0.0715
1006.00,0.0713
1005.00,0.0710
1004.00,0.0707
1003.00,0.0704
1002.00,0.0701
1001.00,0.0698
1000.00,0.0696
999.00,0.0693
998.00,0.0690
997.00,0.0687
996.00,0.0684
995.00,0.0682
994.00,0.0679
993.00,0.0676
992.00,0.0674
991.00,0.0671
990.00,0.0669
989.00,0.0666
988.00,0.0664
987.00,0.0662
986.00,0.0660
985.00,0.0658
984.00,0.0656
983.00,0.0654
982.00,0.0652
981.00,0.0650
980.00,0.0647
979.00,0.0645
978.00,0.0643
977.00,0.0641
976.00,0.0639
975.00,0.0638
974.00,0.0636
973.00,0.0635
972.00,0.0633
971.00,0.0631
970.00,0.0629
969.00,0.0627
968.00,0.0626
967.00,0.0624
966.00,0.0622
965.00,0.0621
964.00,0.0619
963.00,0.0617
962.00,0.0616
961.00,0.0614
960.00,0.0613
959.00,0.0611
958.00,0.0609
957.00,0.0608
956.00,0.0607
955.00,0.0605
954.00,0.0603
953.00,0.0601
952.00,0.0600
951.00,0.0599
950.00,0.0598
949.00,0.0597
948.00,0.0596
947.00,0.0595
946.00,0.0593
945.00,0.0592
944.00,0.0591
943.00,0.0590
942.00,0.0589
941.00,0.0588
940.00,0.0587
939.00,0.0585
938.00,0.0585
937.00,0.0584
936.00,0.0583
935.00,0.0582
934.00,0.0581
933.00,0.0580
932.00,0.0580
931.00,0.0579
930.00,0.0579
929.00,0.0579
928.00,0.0579
927.00,0.0579
926.00,0.0579
925.00,0.0579
924.00,0.0579
923.00,0.0580
922.00,0.0580
921.00,0.0581
920.00,0.0581
919.00,0.0580
918.00,0.0580
917.00,0.0580
916.00,0.0581
915.00,0.0582
914.00,0.0582
913.00,0.0582
912.00,0.0582
911.00,0.0581
910.00,0.0581
909.00,0.0581
908.00,0.0581
907.00,0.0581
906.00,0.0581
905.00,0.0581
904.00,0.0581
903.00,0.0581
902.00,0.0581
901.00,0.0582
900.00,0.0582
899.00,0.0582
898.00,0.0583
897.00,0.0583
896.00,0.0582
895.00,0.0582
894.00,0.0583
893.00,0.0583
892.00,0.0584
891.00,0.0584
890.00,0.0584
889.00,0.0584
888.00,0.0584
887.00,0.0584
886.00,0.0585
885.00,0.0586
884.00,0.0587
883.00,0.0588
882.00,0.0588
881.00,0.0588
880.00,0.0588
879.00,0.0589
878.00,0.0589
877.00,0.0589
876.00,0.0589
875.00,0.0589
874.00,0.0589
873.00,0.0590
872.00,0.0591
871.00,0.0592
870.00,0.0593
869.00,0.0593
868.00,0.0593
867.00,0.0594
866.00,0.0594
865.00,0.0595
864.00,0.0596
863.00,0.0595
862.00,0.0595
861.00,0.0595
860.00,0.0596
859.00,0.0597
858.00,0.0598
857.00,0.0599
856.00,0.0600
855.00,0.0601
854.00,0.0601
853.00,0.0602
852.00,0.0603
851.00,0.0605
850.00,0.0606
849.00,0.0608
848.00,0.0609
847.00,0.0610
846.00,0.0612
845.00,0.0613
844.00,0.0615
843.00,0.0617
842.00,0.0618
841.00,0.0619
840.00,0.0620
839.00,0.0621
838.00,0.0622
837.00,0.0625
836.00,0.0627
835.00,0.0629
834.00,0.0631
833.00,0.0633
832.00,0.0635
831.00,0.0636
830.00,0.0637
829.00,0.0639
828.00,0.0641
827.00,0.0644
826.00,0.0646
825.00,0.0648
824.00,0.0650
823.00,0.0652
822.00,0.0655
821.00,0.0657
820.00,0.0658
819.00,0.0659
818.00,0.0660
817.00,0.0661
816.00,0.0662
815.00,0.0664
814.00,0.0665
813.00,0.0666
812.00,0.0667
811.00,0.0668
810.00,0.0668
809.00,0.0670
808.00,0.0671
807.00,0.0672
806.00,0.0673
805.00,0.0673
804.00,0.0674
803.00,0.0675
802.00,0.0677
801.00,0.0679
800.00,0.0681
799.00,0.0682
798.00,0.0683
797.00,0.0683
796.00,0.0684
795.00,0.0686
794.00,0.0687
793.00,0.0689
792.00,0.0690
791.00,0.0690
790.00,0.0691
789.00,0.0692
788.00,0.0693
787.00,0.0695
786.00,0.0697
785.00,0.0698
784.00,0.0699
783.00,0.0700
782.00,0.0701
781.00,0.0703
780.00,0.0706
779.00,0.0708
778.00,0.0709
777.00,0.0709
776.00,0.0710
775.00,0.0712
774.00,0.0714
773.00,0.0717
772.00,0.0719
771.00,0.0721
770.00,0.0723
769.00,0.0725
768.00,0.0726
767.00,0.0727
766.00,0.0729
765.00,0.0731
764.00,0.0732
763.00,0.0733
762.00,0.0732
761.00,0.0733
760.00,0.0734
759.00,0.0735
758.00,0.0737
757.00,0.0738
756.00,0.0738
755.00,0.0738
754.00,0.0739
753.00,0.0740
752.00,0.0741
751.00,0.0742
750.00,0.0742
749.00,0.0741
748.00,0.0741
747.00,0.0742
746.00,0.0743
745.00,0.0744
744.00,0.0745
743.00,0.0745
742.00,0.0745
741.00,0.0745
740.00,0.0744
739.00,0.0744
738.00,0.0745
737.00,0.0745
736.00,0.0746
735.00,0.0746
734.00,0.0745
733.00,0.0745
732.00,0.0745
731.00,0.0746
730.00,0.0747
729.00,0.0748
728.00,0.0748
727.00,0.0749
726.00,0.0750
725.00,0.0751
724.00,0.0753
723.00,0.0754
722.00,0.0755
721.00,0.0756
720.00,0.0757
719.00,0.0758
718.00,0.0759
717.00,0.0760
716.00,0.0761
715.00,0.0763
714.00,0.0765
713.00,0.0765
712.00,0.0766
711.00,0.0766
710.00,0.0767
709.00,0.0769
708.00,0.0772
707.00,0.0773
706.00,0.0774
705.00,0.0775
704.00,0.0776
703.00,0.0778
702.00,0.0780
701.00,0.0782
700.00,0.0784
699.00,0.0784
698.00,0.0784
697.00,0.0785
696.00,0.0788
695.00,0.0791
694.00,0.0794
693.00,0.0796
692.00,0.0797
691.00,0.0797
690.00,0.0797
689.00,0.0798
688.00,0.0801
687.00,0.0803
686.00,0.0803
685.00,0.0803
684.00,0.0803
683.00,0.0804
682.00,0.0806
681.00,0.0808
680.00,0.0811
679.00,0.0812
678.00,0.0813
677.00,0.0813
676.00,0.0814
675.00,0.0814
674.00,0.0816
673.00,0.0817
672.00,0.0819
671.00,0.0818
670.00,0.0818
669.00,0.0820
668.00,0.0824
667.00,0.0828
666.00,0.0830
665.00,0.0829
664.00,0.0829
663.00,0.0829
662.00,0.0830
661.00,0.0832
660.00,0.0834
659.00,0.0836
658.00,0.0837
657.00,0.0839
656.00,0.0841
655.00,0.0844
654.00,0.0846
653.00,0.0848
652.00,0.0850
651.00,0.0850
650.00,0.0851
