Created as New Dataset,Sample 004 By Administrator Date Monday, March 20 2023
cm-1,A
4000.00,0.0361
3999.00,0.0361
3998.00,0.0361
3997.00,0.0361
3996.00,0.0361
3995.00,0.0361
3994.00,0.0361
3993.00,0.0361
3992.00,0.0361
3991.00,0.0361
3990.00,0.0361
3989.00,0.0361
3988.00,0.0361
3987.00,0.0361
3986.00,0.0361
3985.00,0.0361
3984.00,0.0361
3983.00,0.0361
3982.00,0.0361
3981.00,0.0361
3980.00,0.0360
3979.00,0.0360
3978.00,0.0360
3977.00,0.0360
3976.00,0.0360
3975.00,0.0360
3974.00,0.0360
3973.00,0.0360
3972.00,0.0360
3971.00,0.0360
3970.00,0.0360
3969.00,0.0360
3968.00,0.0360
3967.00,0.0359
3966.00,0.0359
3965.00,0.0359
3964.00,0.0359
3963.00,0.0359
3962.00,0.0359
3961.00,0.0359
3960.00,0.0359
3959.00,0.0359
3958.00,0.0359
3957.00,0.0359
3956.00,0.0359
3955.00,0.0358
3954.00,0.0358
3953.00,0.0357
3952.00,0.0357
3951.00,0.0357
3950.00,0.0357
3949.00,0.0357
3948.00,0.0357
3947.00,0.0357
3946.00,0.0357
3945.00,0.0357
3944.00,0.0357
3943.00,0.0356
3942.00,0.0356
3941.00,0.0357
3940.00,0.0357
3939.00,0.0357
3938.00,0.0357
3937.00,0.0356
3936.00,0.0356
3935.00,0.0355
3934.00,0.0355
3933.00,0.0355
3932.00,0.0355
3931.00,0.0355
3930.00,0.0355
3929.00,0.0355
3928.00,0.0355
3927.00,0.0355
3926.00,0.0354
3925.00,0.0354
3924.00,0.0353
3923.00,0.0354
3922.00,0.0354
3921.00,0.0354
3920.00,0.0354
3919.00,0.0354
3918.00,0.0355
3917.00,0.0355
3916.00,0.0355
3915.00,0.0355
3914.00,0.0355
3913.00,0.0355
3912.00,0.0355
3911.00,0.0354
3910.00,0.0353
3909.00,0.0352
3908.00,0.0351
3907.00,0.0350
3906.00,0.0349
3905.00,0.0349
3904.00,0.0349
3903.00,0.0350
3902.00,0.0352
3901.00,0.0353
3900.00,0.0353
3899.00,0.0353
3898.00,0.0353
3897.00,0.0352
3896.00,0.0352
3895.00,0.0351
3894.00,0.0351
3893.00,0.0352
3892.00,0.0351
3891.00,0.0350
3890.00,0.0349
3889.00,0.0350
3888.00,0.0351
3887.00,0.0351
3886.00,0.0350
3885.00,0.0349
3884.00,0.0349
3883.00,0.0350
3882.00,0.0351
3881.00,0.0350
3880.00,0.0349
3879.00,0.0349
3878.00,0.0349
3877.00,0.0349
3876.00,0.0348
3875.00,0.0346
3874.00,0.0345
3873.00,0.0345
3872.00,0.0347
3871.00,0.0347
3870.00,0.0346
3869.00,0.0346
3868.00,0.0347
3867.00,0.0348
3866.00,0.0348
3865.00,0.0348
3864.00,0.0348
3863.00,0.0348
3862.00,0.0348
3861.00,0.0348
3860.00,0.0347
3859.00,0.0346
3858.00,0.0344
3857.00,0.0343
3856.00,0.0342
3855.00,0.0343
3854.00,0.0344
3853.00,0.0342
3852.00,0.0342
3851.00,0.0343
3850.00,0.0345
3849.00,0.0346
3848.00,0.0347
3847.00,0.0346
3846.00,0.0345
3845.00,0.0344
3844.00,0.0342
3843.00,0.0341
3842.00,0.0340
3841.00,0.0341
3840.00,0.0342
3839.00,0.0342
3838.00,0.0342
3837.00,0.0342
3836.00,0.0342
3835.00,0.0343
3834.00,0.0345
3833.00,0.0345
3832.00,0.0345
3831.00,0.0344
3830.00,0.0344
3829.00,0.0344
3828.00,0.0343
3827.00,0.0342
3826.00,0.0340
3825.00,0.0339
3824.00,0.0340
3823.00,0.0340
3822.00,0.0340
3821.00,0.0339
3820.00,0.0339
3819.00,0.0340
3818.00,0.0342
3817.00,0.0343
3816.00,0.0341
3815.00,0.0341
3814.00,0.0341
3813.00,0.0342
3812.00,0.0341
3811.00,0.0340
3810.00,0.0340
3809.00,0.0341
3808.00,0.0340
3807.00,0.0338
3806.00,0.0337
3805.00,0.0337
3804.00,0.0338
3803.00,0.0338
3802.00,0.0337
3801.00,0.0336
3800.00,0.0336
3799.00,0.0337
3798.00,0.0339
3797.00,0.0339
3796.00,0.0339
3795.00,0.0339
3794.00,0.0339
3793.00,0.0339
3792.00,0.0339
3791.00,0.0338
3790.00,0.0338
3789.00,0.0337
3788.00,0.0336
3787.00,0.0336
3786.00,0.0336
3785.00,0.0335
3784.00,0.0335
3783.00,0.0335
3782.00,0.0335
3781.00,0.0335
3780.00,0.0335
3779.00,0.0335
3778.00,0.0335
3777.00,0.0336
3776.00,0.0335
3775.00,0.0334
3774.00,0.0333
3773.00,0.0333
3772.00,0.0333
3771.00,0.0332
3770.00,0.0332
3769.00,0.0332
3768.00,0.0333
3767.00,0.0333
3766.00,0.0333
3765.00,0.0332
3764.00,0.0331
3763.00,0.0331
3762.00,0.0331
3761.00,0.0330
3760.00,0.0330
3759.00,0.0329
3758.00,0.0328
3757.00,0.0328
3756.00,0.0328
3755.00,0.0327
3754.00,0.0326
3753.00,0.0325
3752.00,0.0326
3751.00,0.0327
3750.00,0.0326
3749.00,0.0325
3748.00,0.0327
3747.00,0.0329
3746.00,0.0331
3745.00,0.0329
3744.00,0.0325
3743.00,0.0323
3742.00,0.0324
3741.00,0.0324
3740.00,0.0324
3739.00,0.0324
3738.00,0.0323
3737.00,0.0322
3736.00,0.0321
3735.00,0.0322
3734.00,0.0323
3733.00,0.0324
3732.00,0.0324
3731.00,0.0323
3730.00,0.0323
3729.00,0.0323
3728.00,0.0323
3727.00,0.0321
3726.00,0.0321
3725.00,0.0320
3724.00,0.0320
3723.00,0.0320
3722.00,0.0320
3721.00,0.0320
3720.00,0.0320
3719.00,0.0320
3718.00,0.0319
3717.00,0.0319
3716.00,0.0318
3715.00,0.0318
3714.00,0.0317
3713.00,0.0317
3712.00,0.0318
3711.00,0.0318
3710.00,0.0319
3709.00,0.0319
3708.00,0.0319
3707.00,0.0319
3706.00,0.0319
3705.00,0.0319
3704.00,0.0319
3703.00,0.0318
3702.00,0.0318
3701.00,0.0318
3700.00,0.0318
3699.00,0.0318
3698.00,0.0318
3697.00,0.0317
3696.00,0.0317
3695.00,0.0316
3694.00,0.0315
3693.00,0.0314
3692.00,0.0314
3691.00,0.0314
3690.00,0.0315
3689.00,0.0314
3688.00,0.0313
3687.00,0.0313
3686.00,0.0314
3685.00,0.0315
3684.00,0.0316
3683.00,0.0315
3682.00,0.0315
3681.00,0.0314
3680.00,0.0312
3679.00,0.0312
3678.00,0.0313
3677.00,0.0314
3676.00,0.0313
3675.00,0.0312
3674.00,0.0313
3673.00,0.0316
3672.00,0.0318
3671.00,0.0319
3670.00,0.0319
3669.00,0.0319
3668.00,0.0321
3667.00,0.0323
3666.00,0.0324
3665.00,0.0325
3664.00,0.0326
3663.00,0.0327
3662.00,0.0327
3661.00,0.0328
3660.00,0.0328
3659.00,0.0330
3658.00,0.0331
3657.00,0.0332
3656.00,0.0332
3655.00,0.0332
3654.00,0.0333
3653.00,0.0333
3652.00,0.0333
3651.00,0.0334
3650.00,0.0338
3649.00,0.0341
3648.00,0.0344
3647.00,0.0345
3646.00,0.0347
3645.00,0.0349
3644.00,0.0351
3643.00,0.0352
3642.00,0.0353
3641.00,0.0354
3640.00,0.0355
3639.00,0.0356
3638.00,0.0357
3637.00,0.0358
3636.00,0.0359
3635.00,0.0360
3634.00,0.0359
3633.00,0.0359
3632.00,0.0360
3631.00,0.0362
3630.00,0.0366
3629.00,0.0370
3628.00,0.0372
3627.00,0.0373
3626.00,0.0374
3625.00,0.0375
3624.00,0.0375
3623.00,0.0375
3622.00,0.0376
3621.00,0.0377
3620.00,0.0378
3619.00,0.0380
3618.00,0.0381
3617.00,0.0382
3616.00,0.0383
3615.00,0.0384
3614.00,0.0385
3613.00,0.0387
3612.00,0.0388
3611.00,0.0390
3610.00,0.0392
3609.00,0.0394
3608.00,0.0396
3607.00,0.0397
3606.00,0.0398
3605.00,0.0398
3604.00,0.0398
3603.00,0.0398
3602.00,0.0399
3601.00,0.0399
3600.00,0.0400
3599.00,0.0401
3598.00,0.0402
3597.00,0.0403
3596.00,0.0404
3595.00,0.0406
3594.00,0.0407
3593.00,0.0407
3592.00,0.0407
3591.00,0.0407
3590.00,0.0407
3589.00,0.0409
3588.00,0.0412
3587.00,0.0415
3586.00,0.0417
3585.00,0.0418
3584.00,0.0419
3583.00,0.0419
3582.00,0.0420
3581.00,0.0420
3580.00,0.0420
3579.00,0.0421
3578.00,0.0422
3577.00,0.0423
3576.00,0.0424
3575.00,0.0425
3574.00,0.0425
3573.00,0.0425
3572.00,0.0424
3571.00,0.0423
3570.00,0.0422
3569.00,0.0423
3568.00,0.0426
3567.00,0.0430
3566.00,0.0433
3565.00,0.0435
3564.00,0.0436
3563.00,0.0437
3562.00,0.0438
3561.00,0.0439
3560.00,0.0439
3559.00,0.0440
3558.00,0.0441
3557.00,0.0441
3556.00,0.0441
3555.00,0.0442
3554.00,0.0443
3553.00,0.0444
3552.00,0.0445
3551.00,0.0446
3550.00,0.0446
3549.00,0.0446
3548.00,0.0447
3547.00,0.0449
3546.00,0.0451
3545.00,0.0453
3544.00,0.0455
3543.00,0.0456
3542.00,0.0456
3541.00,0.0457
3540.00,0.0457
3539.00,0.0457
3538.00,0.0458
3537.00,0.0459
3536.00,0.0460
3535.00,0.0461
3534.00,0.0462
3533.00,0.0462
3532.00,0.0462
3531.00,0.0463
3530.00,0.0463
3529.00,0.0464
3528.00,0.0465
3527.00,0.0466
3526.00,0.0468
3525.00,0.0469
3524.00,0.0470
3523.00,0.0472
3522.00,0.0473
3521.00,0.0473
3520.00,0.0474
3519.00,0.0475
3518.00,0.0475
3517.00,0.0476
3516.00,0.0477
3515.00,0.0478
3514.00,0.0478
3513.00,0.0478
3512.00,0.0479
3511.00,0.0480
3510.00,0.0481
3509.00,0.0482
3508.00,0.0483
3507.00,0.0483
3506.00,0.0483
3505.00,0.0484
3504.00,0.0485
3503.00,0.0487
3502.00,0.0489
3501.00,0.0490
3500.00,0.0490
3499.00,0.0491
3498.00,0.0492
3497.00,0.0492
3496.00,0.0493
3495.00,0.0494
3494.00,0.0495
3493.00,0.0496
3492.00,0.0496
3491.00,0.0497
3490.00,0.0497
3489.00,0.0498
3488.00,0.0499
3487.00,0.0500
3486.00,0.0500
3485.00,0.0501
3484.00,0.0501
3483.00,0.0502
3482.00,0.0504
3481.00,0.0505
3480.00,0.0506
3479.00,0.0507
3478.00,0.0508
3477.00,0.0508
3476.00,0.0509
3475.00,0.0510
3474.00,0.0511
3473.00,0.0511
3472.00,0.0512
3471.00,0.0512
3470.00,0.0513
3469.00,0.0514
3468.00,0.0515
3467.00,0.0516
3466.00,0.0516
3465.00,0.0517
3464.00,0.0518
3463.00,0.0519
3462.00,0.0519
3461.00,0.0520
3460.00,0.0521
3459.00,0.0522
3458.00,0.0522
3457.00,0.0523
3456.00,0.0524
3455.00,0.0524
3454.00,0.0525
3453.00,0.0525
3452.00,0.0526
3451.00,0.0526
3450.00,0.0526
3449.00,0.0527
3448.00,0.0528
3447.00,0.0529
3446.00,0.0531
3445.00,0.0531
3444.00,0.0532
3443.00,0.0533
3442.00,0.0533
3441.00,0.0534
3440.00,0.0534
3439.00,0.0535
3438.00,0.0535
3437.00,0.0536
3436.00,0.0537
3435.00,0.0537
3434.00,0.0538
3433.00,0.0538
3432.00,0.0539
3431.00,0.0540
3430.00,0.0541
3429.00,0.0541
3428.00,0.0542
3427.00,0.0543
3426.00,0.0543
3425.00,0.0544
3424.00,0.0544
3423.00,0.0544
3422.00,0.0545
3421.00,0.0546
3420.00,0.0547
3419.00,0.0548
3418.00,0.0548
3417.00,0.0549
3416.00,0.0549
3415.00,0.0550
3414.00,0.0550
3413.00,0.0551
3412.00,0.0551
3411.00,0.0551
3410.00,0.0552
3409.00,0.0552
3408.00,0.0553
3407.00,0.0553
3406.00,0.0554
3405.00,0.0554
3404.00,0.0554
3403.00,0.0555
3402.00,0.0555
3401.00,0.0555
3400.00,0.0556
3399.00,0.0557
3398.00,0.0557
3397.00,0.0557
3396.00,0.0558
3395.00,0.0558
3394.00,0.0559
3393.00,0.0559
3392.00,0.0560
3391.00,0.0561
3390.00,0.0562
3389.00,0.0562
3388.00,0.0562
3387.00,0.0562
3386.00,0.0562
3385.00,0.0563
3384.00,0.0563
3383.00,0.0563
3382.00,0.0564
3381.00,0.0564
3380.00,0.0564
3379.00,0.0564
3378.00,0.0565
3377.00,0.0565
3376.00,0.0565
3375.00,0.0565
3374.00,0.0565
3373.00,0.0565
3372.00,0.0565
3371.00,0.0565
3370.00,0.0565
3369.00,0.0566
3368.00,0.0566
3367.00,0.0567
3366.00,0.0568
3365.00,0.0568
3364.00,0.0568
3363.00,0.0569
3362.00,0.0569
3361.00,0.0569
3360.00,0.0569
3359.00,0.0569
3358.00,0.0569
3357.00,0.0570
3356.00,0.0570
3355.00,0.0570
3354.00,0.0570
3353.00,0.0569
3352.00,0.0569
3351.00,0.0570
3350.00,0.0570
3349.00,0.0570
3348.00,0.0571
3347.00,0.0571
3346.00,0.0571
3345.00,0.0570
3344.00,0.0570
3343.00,0.0570
3342.00,0.0570
3341.00,0.0570
3340.00,0.0570
3339.00,0.0570
3338.00,0.0570
3337.00,0.0571
3336.00,0.0571
3335.00,0.0571
3334.00,0.0571
3333.00,0.0571
3332.00,0.0571
3331.00,0.0571
3330.00,0.0571
3329.00,0.0570
3328.00,0.0570
3327.00,0.0570
3326.00,0.0571
3325.00,0.0571
3324.00,0.0571
3323.00,0.0571
3322.00,0.0571
3321.00,0.0571
3320.00,0.0571
3319.00,0.0571
3318.00,0.0571
3317.00,0.0571
3316.00,0.0570
3315.00,0.0570
3314.00,0.0570
3313.00,0.0570
3312.00,0.0570
3311.00,0.0569
3310.00,0.0569
3309.00,0.0569
3308.00,0.0569
3307.00,0.0569
3306.00,0.0570
3305.00,0.0570
3304.00,0.0570
3303.00,0.0570
3302.00,0.0570
3301.00,0.0570
3300.00,0.0570
3299.00,0.0570
3298.00,0.0569
3297.00,0.0569
3296.00,0.0569
3295.00,0.0569
3294.00,0.0569
3293.00,0.0570
3292.00,0.0570
3291.00,0.0571
3290.00,0.0571
3289.00,0.0571
3288.00,0.0571
3287.00,0.0571
3286.00,0.0571
3285.00,0.0571
3284.00,0.0571
3283.00,0.0571
3282.00,0.0571
3281.00,0.0571
3280.00,0.0571
3279.00,0.0570
3278.00,0.0570
3277.00,0.0570
3276.00,0.0570
3275.00,0.0570
3274.00,0.0570
3273.00,0.0570
3272.00,0.0570
3271.00,0.0570
3270.00,0.0570
3269.00,0.0571
3268.00,0.0571
3267.00,0.0571
3266.00,0.0571
3265.00,0.0571
3264.00,0.0572
3263.00,0.0572
3262.00,0.0572
3261.00,0.0572
3260.00,0.0571
3259.00,0.0571
3258.00,0.0571
3257.00,0.0571
3256.00,0.0571
3255.00,0.0571
3254.00,0.0572
3253.00,0.0572
3252.00,0.0572
3251.00,0.0571
3250.00,0.0571
3249.00,0.0570
3248.00,0.0570
3247.00,0.0570
3246.00,0.0571
3245.00,0.0571
3244.00,0.0572
3243.00,0.0572
3242.00,0.0572
3241.00,0.0572
3240.00,0.0572
3239.00,0.0572
3238.00,0.0571
3237.00,0.0571
3236.00,0.0570
3235.00,0.0570
3234.00,0.0570
3233.00,0.0570
3232.00,0.0571
3231.00,0.0572
3230.00,0.0572
3229.00,0.0572
3228.00,0.0573
3227.00,0.0573
3226.00,0.0573
3225.00,0.0573
3224.00,0.0573
3223.00,0.0572
3222.00,0.0572
3221.00,0.0572
3220.00,0.0572
3219.00,0.0572
3218.00,0.0572
3217.00,0.0572
3216.00,0.0572
3215.00,0.0572
3214.00,0.0573
3213.00,0.0573
3212.00,0.0573
3211.00,0.0573
3210.00,0.0573
3209.00,0.0573
3208.00,0.0572
3207.00,0.0572
3206.00,0.0572
3205.00,0.0572
3204.00,0.0572
3203.00,0.0572
3202.00,0.0572
3201.00,0.0572
3200.00,0.0572
3199.00,0.0572
3198.00,0.0572
3197.00,0.0572
3196.00,0.0572
3195.00,0.0572
3194.00,0.0571
3193.00,0.0571
3192.00,0.0571
3191.00,0.0570
3190.00,0.0570
3189.00,0.0570
3188.00,0.0570
3187.00,0.0570
3186.00,0.0570
3185.00,0.0570
3184.00,0.0570
3183.00,0.0570
3182.00,0.0569
3181.00,0.0569
3180.00,0.0569
3179.00,0.0569
3178.00,0.0569
3177.00,0.0569
3176.00,0.0569
3175.00,0.0568
3174.00,0.0568
3173.00,0.0568
3172.00,0.0568
3171.00,0.0567
3170.00,0.0567
3169.00,0.0567
3168.00,0.0567
3167.00,0.0567
3166.00,0.0566
3165.00,0.0566
3164.00,0.0566
3163.00,0.0566
3162.00,0.0566
3161.00,0.0565
3160.00,0.0565
3159.00,0.0565
3158.00,0.0564
3157.00,0.0563
3156.00,0.0562
3155.00,0.0561
3154.00,0.0560
3153.00,0.0560
3152.00,0.0561
3151.00,0.0561
3150.00,0.0562
3149.00,0.0562
3148.00,0.0562
3147.00,0.0562
3146.00,0.0562
3145.00,0.0562
3144.00,0.0561
3143.00,0.0560
3142.00,0.0559
3141.00,0.0559
3140.00,0.0558
3139.00,0.0559
3138.00,0.0559
3137.00,0.0560
3136.00,0.0560
3135.00,0.0560
3134.00,0.0559
3133.00,0.0559
3132.00,0.0558
3131.00,0.0558
3130.00,0.0558
3129.00,0.0558
3128.00,0.0558
3127.00,0.0558
3126.00,0.0557
3125.00,0.0557
3124.00,0.0556
3123.00,0.0555
3122.00,0.0554
3121.00,0.0553
3120.00,0.0552
3119.00,0.0552
3118.00,0.0552
3117.00,0.0552
3116.00,0.0553
3115.00,0.0553
3114.00,0.0554
3113.00,0.0554
3112.00,0.0554
3111.00,0.0553
3110.00,0.0553
3109.00,0.0553
3108.00,0.0553
3107.00,0.0554
3106.00,0.0554
3105.00,0.0554
3104.00,0.0553
3103.00,0.0552
3102.00,0.0552
3101.00,0.0552
3100.00,0.0552
3099.00,0.0552
3098.00,0.0552
3097.00,0.0553
3096.00,0.0553
3095.00,0.0553
3094.00,0.0552
3093.00,0.0551
3092.00,0.0550
3091.00,0.0550
3090.00,0.0550
3089.00,0.0550
3088.00,0.0549
3087.00,0.0549
3086.00,0.0549
3085.00,0.0548
3084.00,0.0548
3083.00,0.0547
3082.00,0.0547
3081.00,0.0546
3080.00,0.0546
3079.00,0.0547
3078.00,0.0547
3077.00,0.0548
3076.00,0.0548
3075.00,0.0548
3074.00,0.0548
3073.00,0.0548
3072.00,0.0547
3071.00,0.0546
3070.00,0.0545
3069.00,0.0545
3068.00,0.0544
3067.00,0.0545
3066.00,0.0545
3065.00,0.0545
3064.00,0.0546
3063.00,0.0545
3062.00,0.0545
3061.00,0.0545
3060.00,0.0544
3059.00,0.0543
3058.00,0.0542
3057.00,0.0542
3056.00,0.0542
3055.00,0.0541
3054.00,0.0541
3053.00,0.0541
3052.00,0.0540
3051.00,0.0540
3050.00,0.0540
3049.00,0.0539
3048.00,0.0539
3047.00,0.0538
3046.00,0.0537
3045.00,0.0536
3044.00,0.0536
3043.00,0.0535
3042.00,0.0535
3041.00,0.0535
3040.00,0.0535
3039.00,0.0535
3038.00,0.0534
3037.00,0.0534
3036.00,0.0533
3035.00,0.0532
3034.00,0.0532
3033.00,0.0532
3032.00,0.0532
3031.00,0.0532
3030.00,0.0532
3029.00,0.0532
3028.00,0.0531
3027.00,0.0531
3026.00,0.0530
3025.00,0.0530
3024.00,0.0529
3023.00,0.0529
3022.00,0.0528
3021.00,0.0528
3020.00,0.0527
3019.00,0.0526
3018.00,0.0526
3017.00,0.0525
3016.00,0.0525
3015.00,0.0525
3014.00,0.0524
3013.00,0.0525
3012.00,0.0525
3011.00,0.0525
3010.00,0.0525
3009.00,0.0525
3008.00,0.0525
3007.00,0.0525
3006.00,0.0524
3005.00,0.0524
3004.00,0.0524
3003.00,0.0524
3002.00,0.0524
3001.00,0.0523
3000.00,0.0523
2999.00,0.0522
2998.00,0.0522
2997.00,0.0522
2996.00,0.0522
2995.00,0.0522
2994.00,0.0522
2993.00,0.0522
2992.00,0.0522
2991.00,0.0522
2990.00,0.0522
2989.00,0.0522
2988.00,0.0522
2987.00,0.0522
2986.00,0.0522
2985.00,0.0522
2984.00,0.0521
2983.00,0.0521
2982.00,0.0521
2981.00,0.0521
2980.00,0.0521
2979.00,0.0521
2978.00,0.0520
2977.00,0.0520
2976.00,0.0520
2975.00,0.0519
2974.00,0.0519
2973.00,0.0520
2972.00,0.0520
2971.00,0.0520
2970.00,0.0519
2969.00,0.0519
2968.00,0.0518
2967.00,0.0518
2966.00,0.0517
2965.00,0.0517
2964.00,0.0517
2963.00,0.0517
2962.00,0.0517
2961.00,0.0517
2960.00,0.0517
2959.00,0.0517
2958.00,0.0517
2957.00,0.0516
2956.00,0.0516
2955.00,0.0515
2954.00,0.0515
2953.00,0.0514
2952.00,0.0514
2951.00,0.0514
2950.00,0.0514
2949.00,0.0513
2948.00,0.0513
2947.00,0.0513
2946.00,0.0513
2945.00,0.0513
2944.00,0.0513
2943.00,0.0513
2942.00,0.0513
2941.00,0.0513
2940.00,0.0513
2939.00,0.0513
2938.00,0.0513
2937.00,0.0513
2936.00,0.0512
2935.00,0.0512
2934.00,0.0512
2933.00,0.0511
2932.00,0.0511
2931.00,0.0510
2930.00,0.0510
2929.00,0.0511
2928.00,0.0511
2927.00,0.0512
2926.00,0.0512
2925.00,0.0512
2924.00,0.0512
2923.00,0.0513
2922.00,0.0513
2921.00,0.0513
2920.00,0.0512
2919.00,0.0512
2918.00,0.0512
2917.00,0.0511
2916.00,0.0511
2915.00,0.0511
2914.00,0.0510
2913.00,0.0510
2912.00,0.0510
2911.00,0.0510
2910.00,0.0510
2909.00,0.0510
2908.00,0.0509
2907.00,0.0509
2906.00,0.0509
2905.00,0.0508
2904.00,0.0508
2903.00,0.0508
2902.00,0.0508
2901.00,0.0507
2900.00,0.0507
2899.00,0.0507
2898.00,0.0506
2897.00,0.0506
2896.00,0.0506
2895.00,0.0506
2894.00,0.0506
2893.00,0.0506
2892.00,0.0506
2891.00,0.0505
2890.00,0.0505
2889.00,0.0505
2888.00,0.0505
2887.00,0.0504
2886.00,0.0504
2885.00,0.0504
2884.00,0.0503
2883.00,0.0503
2882.00,0.0503
2881.00,0.0502
2880.00,0.0502
2879.00,0.0501
2878.00,0.0501
2877.00,0.0500
2876.00,0.0500
2875.00,0.0499
2874.00,0.0499
2873.00,0.0499
2872.00,0.0499
2871.00,0.0499
2870.00,0.0499
2869.00,0.0498
2868.00,0.0498
2867.00,0.0497
2866.00,0.0497
2865.00,0.0497
2864.00,0.0497
2863.00,0.0496
2862.00,0.0496
2861.00,0.0496
2860.00,0.0496
2859.00,0.0496
2858.00,0.0496
2857.00,0.0496
2856.00,0.0496
2855.00,0.0496
2854.00,0.0496
2853.00,0.0496
2852.00,0.0496
2851.00,0.0496
2850.00,0.0495
2849.00,0.0495
2848.00,0.0495
2847.00,0.0495
2846.00,0.0494
2845.00,0.0494
2844.00,0.0494
2843.00,0.0493
2842.00,0.0492
2841.00,0.0491
2840.00,0.0490
2839.00,0.0490
2838.00,0.0490
2837.00,0.0490
2836.00,0.0489
2835.00,0.0489
2834.00,0.0489
2833.00,0.0489
2832.00,0.0489
2831.00,0.0488
2830.00,0.0488
2829.00,0.0488
2828.00,0.0488
2827.00,0.0487
2826.00,0.0487
2825.00,0.0486
2824.00,0.0486
2823.00,0.0486
2822.00,0.0486
2821.00,0.0485
2820.00,0.0485
2819.00,0.0485
2818.00,0.0484
2817.00,0.0484
2816.00,0.0484
2815.00,0.0483
2814.00,0.0483
2813.00,0.0483
2812.00,0.0482
2811.00,0.0482
2810.00,0.0482
2809.00,0.0482
2808.00,0.0482
2807.00,0.0482
2806.00,0.0482
2805.00,0.0481
2804.00,0.0481
2803.00,0.0481
2802.00,0.0480
2801.00,0.0480
2800.00,0.0479
2799.00,0.0479
2798.00,0.0479
2797.00,0.0479
2796.00,0.0479
2795.00,0.0479
2794.00,0.0478
2793.00,0.0478
2792.00,0.0477
2791.00,0.0477
2790.00,0.0477
2789.00,0.0477
2788.00,0.0477
2787.00,0.0477
2786.00,0.0477
2785.00,0.0477
2784.00,0.0477
2783.00,0.0477
2782.00,0.0476
2781.00,0.0476
2780.00,0.0476
2779.00,0.0476
2778.00,0.0475
2777.00,0.0475
2776.00,0.0474
2775.00,0.0474
2774.00,0.0474
2773.00,0.0474
2772.00,0.0474
2771.00,0.0474
2770.00,0.0474
2769.00,0.0474
2768.00,0.0474
2767.00,0.0474
2766.00,0.0474
2765.00,0.0473
2764.00,0.0473
2763.00,0.0473
2762.00,0.0472
2761.00,0.0472
2760.00,0.0472
2759.00,0.0472
2758.00,0.0472
2757.00,0.0471
2756.00,0.0471
2755.00,0.0471
2754.00,0.0471
2753.00,0.0471
2752.00,0.0470
2751.00,0.0470
2750.00,0.0470
2749.00,0.0469
2748.00,0.0469
2747.00,0.0469
2746.00,0.0469
2745.00,0.0469
2744.00,0.0469
2743.00,0.0469
2742.00,0.0469
2741.00,0.0468
2740.00,0.0468
2739.00,0.0468
2738.00,0.0468
2737.00,0.0467
2736.00,0.0467
2735.00,0.0467
2734.00,0.0467
2733.00,0.0467
2732.00,0.0467
2731.00,0.0466
2730.00,0.0466
2729.00,0.0466
2728.00,0.0465
2727.00,0.0465
2726.00,0.0465
2725.00,0.0465
2724.00,0.0465
2723.00,0.0465
2722.00,0.0465
2721.00,0.0465
2720.00,0.0464
2719.00,0.0464
2718.00,0.0464
2717.00,0.0464
2716.00,0.0463
2715.00,0.0463
2714.00,0.0463
2713.00,0.0463
2712.00,0.0463
2711.00,0.0462
2710.00,0.0462
2709.00,0.0462
2708.00,0.0462
2707.00,0.0462
2706.00,0.0461
2705.00,0.0461
2704.00,0.0461
2703.00,0.0461
2702.00,0.0461
2701.00,0.0461
2700.00,0.0461
2699.00,0.0460
2698.00,0.0460
2697.00,0.0460
2696.00,0.0460
2695.00,0.0460
2694.00,0.0460
2693.00,0.0459
2692.00,0.0459
2691.00,0.0459
2690.00,0.0458
2689.00,0.0458
2688.00,0.0458
2687.00,0.0458
2686.00,0.0458
2685.00,0.0458
2684.00,0.0458
2683.00,0.0457
2682.00,0.0457
2681.00,0.0457
2680.00,0.0457
2679.00,0.0457
2678.00,0.0457
2677.00,0.0456
2676.00,0.0456
2675.00,0.0456
2674.00,0.0456
2673.00,0.0456
2672.00,0.0456
2671.00,0.0456
2670.00,0.0456
2669.00,0.0456
2668.00,0.0456
2667.00,0.0456
2666.00,0.0456
2665.00,0.0456
2664.00,0.0456
2663.00,0.0456
2662.00,0.0457
2661.00,0.0457
2660.00,0.0456
2659.00,0.0456
2658.00,0.0456
2657.00,0.0456
2656.00,0.0455
2655.00,0.0455
2654.00,0.0455
2653.00,0.0454
2652.00,0.0454
2651.00,0.0454
2650.00,0.0453
2649.00,0.0453
2648.00,0.0453
2647.00,0.0452
2646.00,0.0452
2645.00,0.0451
2644.00,0.0451
2643.00,0.0451
2642.00,0.0450
2641.00,0.0450
2640.00,0.0450
2639.00,0.0450
2638.00,0.0449
2637.00,0.0449
2636.00,0.0449
2635.00,0.0448
2634.00,0.0448
2633.00,0.0448
2632.00,0.0447
2631.00,0.0447
2630.00,0.0447
2629.00,0.0447
2628.00,0.0446
2627.00,0.0446
2626.00,0.0445
2625.00,0.0445
2624.00,0.0445
2623.00,0.0445
2622.00,0.0445
2621.00,0.0445
2620.00,0.0444
2619.00,0.0444
2618.00,0.0444
2617.00,0.0443
2616.00,0.0443
2615.00,0.0443
2614.00,0.0443
2613.00,0.0443
2612.00,0.0443
2611.00,0.0442
2610.00,0.0442
2609.00,0.0441
2608.00,0.0441
2607.00,0.0441
2606.00,0.0441
2605.00,0.0441
2604.00,0.0440
2603.00,0.0440
2602.00,0.0440
2601.00,0.0440
2600.00,0.0440
2599.00,0.0439
2598.00,0.0439
2597.00,0.0439
2596.00,0.0439
2595.00,0.0439
2594.00,0.0439
2593.00,0.0439
2592.00,0.0439
2591.00,0.0438
2590.00,0.0438
2589.00,0.0438
2588.00,0.0437
2587.00,0.0437
2586.00,0.0437
2585.00,0.0437
2584.00,0.0436
2583.00,0.0436
2582.00,0.0436
2581.00,0.0435
2580.00,0.0435
2579.00,0.0435
2578.00,0.0435
2577.00,0.0434
2576.00,0.0434
2575.00,0.0434
2574.00,0.0434
2573.00,0.0434
2572.00,0.0434
2571.00,0.0434
2570.00,0.0434
2569.00,0.0433
2568.00,0.0433
2567.00,0.0433
2566.00,0.0433
2565.00,0.0433
2564.00,0.0433
2563.00,0.0432
2562.00,0.0432
2561.00,0.0432
2560.00,0.0432
2559.00,0.0432
2558.00,0.0432
2557.00,0.0432
2556.00,0.0432
2555.00,0.0431
2554.00,0.0431
2553.00,0.0430
2552.00,0.0430
2551.00,0.0430
2550.00,0.0429
2549.00,0.0429
2548.00,0.0429
2547.00,0.0429
2546.00,0.0429
2545.00,0.0429
2544.00,0.0428
2543.00,0.0428
2542.00,0.0428
2541.00,0.0428
2540.00,0.0428
2539.00,0.0427
2538.00,0.0427
2537.00,0.0427
2536.00,0.0427
2535.00,0.0427
2534.00,0.0427
2533.00,0.0426
2532.00,0.0426
2531.00,0.0426
2530.00,0.0426
2529.00,0.0425
2528.00,0.0425
2527.00,0.0425
2526.00,0.0425
2525.00,0.0425
2524.00,0.0425
2523.00,0.0425
2522.00,0.0425
2521.00,0.0424
2520.00,0.0424
2519.00,0.0424
2518.00,0.0424
2517.00,0.0424
2516.00,0.0423
2515.00,0.0423
2514.00,0.0423
2513.00,0.0423
2512.00,0.0422
2511.00,0.0422
2510.00,0.0421
2509.00,0.0421
2508.00,0.0421
2507.00,0.0420
2506.00,0.0420
2505.00,0.0420
2504.00,0.0420
2503.00,0.0421
2502.00,0.0420
2501.00,0.0420
2500.00,0.0420
2499.00,0.0420
2498.00,0.0420
2497.00,0.0419
2496.00,0.0419
2495.00,0.0418
2494.00,0.0418
2493.00,0.0418
2492.00,0.0417
2491.00,0.0417
2490.00,0.0417
2489.00,0.0417
2488.00,0.0417
2487.00,0.0417
2486.00,0.0417
2485.00,0.0416
2484.00,0.0416
2483.00,0.0416
2482.00,0.0416
2481.00,0.0415
2480.00,0.0415
2479.00,0.0415
2478.00,0.0415
2477.00,0.0415
2476.00,0.0415
2475.00,0.0415
2474.00,0.0415
2473.00,0.0415
2472.00,0.0415
2471.00,0.0414
2470.00,0.0414
2469.00,0.0414
2468.00,0.0413
2467.00,0.0413
2466.00,0.0413
2465.00,0.0413
2464.00,0.0413
2463.00,0.0413
2462.00,0.0412
2461.00,0.0412
2460.00,0.0412
2459.00,0.0412
2458.00,0.0412
2457.00,0.0412
2456.00,0.0412
2455.00,0.0411
2454.00,0.0411
2453.00,0.0411
2452.00,0.0411
2451.00,0.0411
2450.00,0.0410
2449.00,0.0410
2448.00,0.0410
2447.00,0.0410
2446.00,0.0410
2445.00,0.0409
2444.00,0.0409
2443.00,0.0408
2442.00,0.0408
2441.00,0.0408
2440.00,0.0407
2439.00,0.0407
2438.00,0.0407
2437.00,0.0406
2436.00,0.0406
2435.00,0.0406
2434.00,0.0406
2433.00,0.0406
2432.00,0.0405
2431.00,0.0405
2430.00,0.0405
2429.00,0.0404
2428.00,0.0404
2427.00,0.0404
2426.00,0.0404
2425.00,0.0404
2424.00,0.0404
2423.00,0.0403
2422.00,0.0403
2421.00,0.0403
2420.00,0.0402
2419.00,0.0402
2418.00,0.0402
2417.00,0.0402
2416.00,0.0402
2415.00,0.0401
2414.00,0.0401
2413.00,0.0401
2412.00,0.0401
2411.00,0.0401
2410.00,0.0400
2409.00,0.0400
2408.00,0.0399
2407.00,0.0399
2406.00,0.0399
2405.00,0.0398
2404.00,0.0398
2403.00,0.0398
2402.00,0.0397
2401.00,0.0397
2400.00,0.0397
2399.00,0.0397
2398.00,0.0397
2397.00,0.0397
2396.00,0.0396
2395.00,0.0396
2394.00,0.0396
2393.00,0.0396
2392.00,0.0396
2391.00,0.0395
2390.00,0.0395
2389.00,0.0395
2388.00,0.0395
2387.00,0.0394
2386.00,0.0394
2385.00,0.0394
2384.00,0.0393
2383.00,0.0393
2382.00,0.0392
2381.00,0.0391
2380.00,0.0390
2379.00,0.0390
2378.00,0.0389
2377.00,0.0389
2376.00,0.0389
2375.00,0.0390
2374.00,0.0390
2373.00,0.0390
2372.00,0.0389
2371.00,0.0388
2370.00,0.0388
2369.00,0.0387
2368.00,0.0386
2367.00,0.0386
2366.00,0.0386
2365.00,0.0386
2364.00,0.0386
2363.00,0.0386
2362.00,0.0386
2361.00,0.0386
2360.00,0.0386
2359.00,0.0387
2358.00,0.0387
2357.00,0.0388
2356.00,0.0389
2355.00,0.0390
2354.00,0.0392
2353.00,0.0394
2352.00,0.0394
2351.00,0.0392
2350.00,0.0388
2349.00,0.0386
2348.00,0.0385
2347.00,0.0386
2346.00,0.0388
2345.00,0.0388
2344.00,0.0387
2343.00,0.0385
2342.00,0.0384
2341.00,0.0384
2340.00,0.0384
2339.00,0.0385
2338.00,0.0386
2337.00,0.0386
2336.00,0.0386
2335.00,0.0386
2334.00,0.0386
2333.00,0.0386
2332.00,0.0387
2331.00,0.0388
2330.00,0.0388
2329.00,0.0390
2328.00,0.0392
2327.00,0.0394
2326.00,0.0395
2325.00,0.0396
2324.00,0.0396
2323.00,0.0395
2322.00,0.0394
2321.00,0.0393
2320.00,0.0392
2319.00,0.0391
2318.00,0.0390
2317.00,0.0390
2316.00,0.0389
2315.00,0.0388
2314.00,0.0388
2313.00,0.0387
2312.00,0.0387
2311.00,0.0385
2310.00,0.0384
2309.00,0.0383
2308.00,0.0382
2307.00,0.0381
2306.00,0.0381
2305.00,0.0380
2304.00,0.0380
2303.00,0.0380
2302.00,0.0380
2301.00,0.0380
2300.00,0.0380
2299.00,0.0379
2298.00,0.0379
2297.00,0.0379
2296.00,0.0379
2295.00,0.0379
2294.00,0.0379
2293.00,0.0380
2292.00,0.0380
2291.00,0.0380
2290.00,0.0380
2289.00,0.0381
2288.00,0.0381
2287.00,0.0380
2286.00,0.0380
2285.00,0.0379
2284.00,0.0378
2283.00,0.0378
2282.00,0.0377
2281.00,0.0376
2280.00,0.0375
2279.00,0.0374
2278.00,0.0374
2277.00,0.0373
2276.00,0.0373
2275.00,0.0373
2274.00,0.0372
2273.00,0.0372
2272.00,0.0371
2271.00,0.0371
2270.00,0.0371
2269.00,0.0370
2268.00,0.0369
2267.00,0.0368
2266.00,0.0367
2265.00,0.0367
2264.00,0.0366
2263.00,0.0366
2262.00,0.0366
2261.00,0.0366
2260.00,0.0366
2259.00,0.0366
2258.00,0.0366
2257.00,0.0365
2256.00,0.0365
2255.00,0.0364
2254.00,0.0363
2253.00,0.0364
2252.00,0.0364
2251.00,0.0364
2250.00,0.0364
2249.00,0.0364
2248.00,0.0363
2247.00,0.0363
2246.00,0.0363
2245.00,0.0363
2244.00,0.0363
2243.00,0.0363
2242.00,0.0363
2241.00,0.0362
2240.00,0.0362
2239.00,0.0362
2238.00,0.0362
2237.00,0.0363
2236.00,0.0363
2235.00,0.0363
2234.00,0.0363
2233.00,0.0363
2232.00,0.0362
2231.00,0.0362
2230.00,0.0361
2229.00,0.0361
2228.00,0.0361
2227.00,0.0361
2226.00,0.0360
2225.00,0.0359
2224.00,0.0359
2223.00,0.0359
2222.00,0.0358
2221.00,0.0358
2220.00,0.0358
2219.00,0.0358
2218.00,0.0358
2217.00,0.0357
2216.00,0.0357
2215.00,0.0356
2214.00,0.0356
2213.00,0.0356
2212.00,0.0356
2211.00,0.0355
2210.00,0.0354
2209.00,0.0354
2208.00,0.0354
2207.00,0.0353
2206.00,0.0353
2205.00,0.0353
2204.00,0.0353
2203.00,0.0353
2202.00,0.0352
2201.00,0.0352
2200.00,0.0352
2199.00,0.0352
2198.00,0.0353
2197.00,0.0353
2196.00,0.0353
2195.00,0.0353
2194.00,0.0353
2193.00,0.0353
2192.00,0.0352
2191.00,0.0351
2190.00,0.0349
2189.00,0.0349
2188.00,0.0349
2187.00,0.0349
2186.00,0.0349
2185.00,0.0348
2184.00,0.0347
2183.00,0.0344
2182.00,0.0342
2181.00,0.0342
2180.00,0.0343
2179.00,0.0344
2178.00,0.0344
2177.00,0.0343
2176.00,0.0343
2175.00,0.0342
2174.00,0.0342
2173.00,0.0343
2172.00,0.0344
2171.00,0.0346
2170.00,0.0347
2169.00,0.0347
2168.00,0.0346
2167.00,0.0345
2166.00,0.0344
2165.00,0.0345
2164.00,0.0347
2163.00,0.0347
2162.00,0.0344
2161.00,0.0336
2160.00,0.0326
2159.00,0.0317
2158.00,0.0313
2157.00,0.0314
2156.00,0.0317
2155.00,0.0320
2154.00,0.0322
2153.00,0.0323
2152.00,0.0324
2151.00,0.0324
2150.00,0.0325
2149.00,0.0324
2148.00,0.0324
2147.00,0.0323
2146.00,0.0322
2145.00,0.0322
2144.00,0.0323
2143.00,0.0324
2142.00,0.0324
2141.00,0.0325
2140.00,0.0325
2139.00,0.0324
2138.00,0.0323
2137.00,0.0321
2136.00,0.0319
2135.00,0.0318
2134.00,0.0319
2133.00,0.0320
2132.00,0.0322
2131.00,0.0323
2130.00,0.0324
2129.00,0.0325
2128.00,0.0326
2127.00,0.0327
2126.00,0.0327
2125.00,0.0329
2124.00,0.0329
2123.00,0.0330
2122.00,0.0330
2121.00,0.0330
2120.00,0.0330
2119.00,0.0330
2118.00,0.0331
2117.00,0.0332
2116.00,0.0333
2115.00,0.0333
2114.00,0.0333
2113.00,0.0334
2112.00,0.0333
2111.00,0.0333
2110.00,0.0332
2109.00,0.0331
2108.00,0.0331
2107.00,0.0330
2106.00,0.0329
2105.00,0.0329
2104.00,0.0329
2103.00,0.0329
2102.00,0.0329
2101.00,0.0329
2100.00,0.0329
2099.00,0.0328
2098.00,0.0327
2097.00,0.0326
2096.00,0.0325
2095.00,0.0325
2094.00,0.0324
2093.00,0.0324
2092.00,0.0325
2091.00,0.0325
2090.00,0.0325
2089.00,0.0325
2088.00,0.0325
2087.00,0.0325
2086.00,0.0325
2085.00,0.0325
2084.00,0.0324
2083.00,0.0324
2082.00,0.0324
2081.00,0.0324
2080.00,0.0325
2079.00,0.0325
2078.00,0.0324
2077.00,0.0323
2076.00,0.0321
2075.00,0.0320
2074.00,0.0319
2073.00,0.0319
2072.00,0.0320
2071.00,0.0320
2070.00,0.0319
2069.00,0.0319
2068.00,0.0318
2067.00,0.0317
2066.00,0.0316
2065.00,0.0316
2064.00,0.0315
2063.00,0.0315
2062.00,0.0314
2061.00,0.0314
2060.00,0.0315
2059.00,0.0315
2058.00,0.0314
2057.00,0.0314
2056.00,0.0313
2055.00,0.0313
2054.00,0.0314
2053.00,0.0316
2052.00,0.0318
2051.00,0.0317
2050.00,0.0315
2049.00,0.0312
2048.00,0.0309
2047.00,0.0307
2046.00,0.0306
2045.00,0.0305
2044.00,0.0305
2043.00,0.0305
2042.00,0.0306
2041.00,0.0307
2040.00,0.0307
2039.00,0.0306
2038.00,0.0304
2037.00,0.0301
2036.00,0.0297
2035.00,0.0295
2034.00,0.0294
2033.00,0.0295
2032.00,0.0296
2031.00,0.0296
2030.00,0.0296
2029.00,0.0296
2028.00,0.0296
2027.00,0.0295
2026.00,0.0294
2025.00,0.0293
2024.00,0.0293
2023.00,0.0292
2022.00,0.0292
2021.00,0.0292
2020.00,0.0292
2019.00,0.0291
2018.00,0.0290
2017.00,0.0290
2016.00,0.0291
2015.00,0.0291
2014.00,0.0290
2013.00,0.0291
2012.00,0.0291
2011.00,0.0291
2010.00,0.0291
2009.00,0.0290
2008.00,0.0288
2007.00,0.0286
2006.00,0.0284
2005.00,0.0285
2004.00,0.0286
2003.00,0.0287
2002.00,0.0288
2001.00,0.0290
2000.00,0.0291
1999.00,0.0292
1998.00,0.0292
1997.00,0.0293
1996.00,0.0293
1995.00,0.0293
1994.00,0.0292
1993.00,0.0292
1992.00,0.0291
1991.00,0.0290
1990.00,0.0289
1989.00,0.0290
1988.00,0.0290
1987.00,0.0290
1986.00,0.0291
1985.00,0.0292
1984.00,0.0294
1983.00,0.0295
1982.00,0.0296
1981.00,0.0296
1980.00,0.0294
1979.00,0.0290
1978.00,0.0286
1977.00,0.0282
1976.00,0.0279
1975.00,0.0277
1974.00,0.0276
1973.00,0.0277
1972.00,0.0278
1971.00,0.0278
1970.00,0.0277
1969.00,0.0276
1968.00,0.0275
1967.00,0.0273
1966.00,0.0272
1965.00,0.0272
1964.00,0.0273
1963.00,0.0273
1962.00,0.0272
1961.00,0.0272
1960.00,0.0272
1959.00,0.0272
1958.00,0.0272
1957.00,0.0273
1956.00,0.0274
1955.00,0.0273
1954.00,0.0272
1953.00,0.0272
1952.00,0.0273
1951.00,0.0273
1950.00,0.0273
1949.00,0.0274
1948.00,0.0275
1947.00,0.0275
1946.00,0.0275
1945.00,0.0276
1944.00,0.0275
1943.00,0.0273
1942.00,0.0270
1941.00,0.0269
1940.00,0.0269
1939.00,0.0270
1938.00,0.0271
1937.00,0.0271
1936.00,0.0272
1935.00,0.0272
1934.00,0.0271
1933.00,0.0271
1932.00,0.0271
1931.00,0.0271
1930.00,0.0271
1929.00,0.0271
1928.00,0.0271
1927.00,0.0270
1926.00,0.0270
1925.00,0.0270
1924.00,0.0270
1923.00,0.0268
1922.00,0.0267
1921.00,0.0269
1920.00,0.0271
1919.00,0.0270
1918.00,0.0267
1917.00,0.0264
1916.00,0.0264
1915.00,0.0265
1914.00,0.0267
1913.00,0.0267
1912.00,0.0267
1911.00,0.0267
1910.00,0.0265
1909.00,0.0264
1908.00,0.0263
1907.00,0.0263
1906.00,0.0263
1905.00,0.0263
1904.00,0.0262
1903.00,0.0262
1902.00,0.0261
1901.00,0.0262
1900.00,0.0262
1899.00,0.0262
1898.00,0.0263
1897.00,0.0263
1896.00,0.0262
1895.00,0.0260
1894.00,0.0259
1893.00,0.0260
1892.00,0.0262
1891.00,0.0261
1890.00,0.0258
1889.00,0.0255
1888.00,0.0253
1887.00,0.0254
1886.00,0.0255
1885.00,0.0256
1884.00,0.0255
1883.00,0.0255
1882.00,0.0255
1881.00,0.0255
1880.00,0.0254
1879.00,0.0253
1878.00,0.0252
1877.00,0.0252
1876.00,0.0252
1875.00,0.0252
1874.00,0.0252
1873.00,0.0253
1872.00,0.0255
1871.00,0.0256
1870.00,0.0253
1869.00,0.0247
1868.00,0.0241
1867.00,0.0239
1866.00,0.0240
1865.00,0.0243
1864.00,0.0245
1863.00,0.0246
1862.00,0.0247
1861.00,0.0247
1860.00,0.0246
1859.00,0.0245
1858.00,0.0244
1857.00,0.0243
1856.00,0.0243
1855.00,0.0243
1854.00,0.0242
1853.00,0.0242
1852.00,0.0242
1851.00,0.0242
1850.00,0.0242
1849.00,0.0242
1848.00,0.0243
1847.00,0.0245
1846.00,0.0246
1845.00,0.0241
1844.00,0.0233
1843.00,0.0227
1842.00,0.0228
1841.00,0.0233
1840.00,0.0237
1839.00,0.0238
1838.00,0.0237
1837.00,0.0236
1836.00,0.0235
1835.00,0.0235
1834.00,0.0236
1833.00,0.0239
1832.00,0.0240
1831.00,0.0238
1830.00,0.0231
1829.00,0.0226
1828.00,0.0227
1827.00,0.0230
1826.00,0.0232
1825.00,0.0230
1824.00,0.0227
1823.00,0.0227
1822.00,0.0229
1821.00,0.0231
1820.00,0.0232
1819.00,0.0231
1818.00,0.0230
1817.00,0.0229
1816.00,0.0229
1815.00,0.0230
1814.00,0.0232
1813.00,0.0234
1812.00,0.0233
1811.00,0.0231
1810.00,0.0229
1809.00,0.0229
1808.00,0.0231
1807.00,0.0232
1806.00,0.0234
1805.00,0.0236
1804.00,0.0238
1803.00,0.0239
1802.00,0.0239
1801.00,0.0237
1800.00,0.0235
1799.00,0.0234
1798.00,0.0236
1797.00,0.0240
1796.00,0.0244
1795.00,0.0249
1794.00,0.0250
1793.00,0.0248
1792.00,0.0242
1791.00,0.0238
1790.00,0.0240
1789.00,0.0246
1788.00,0.0254
1787.00,0.0259
1786.00,0.0261
1785.00,0.0262
1784.00,0.0263
1783.00,0.0265
1782.00,0.0268
1781.00,0.0270
1780.00,0.0271
1779.00,0.0273
1778.00,0.0277
1777.00,0.0282
1776.00,0.0288
1775.00,0.0293
1774.00,0.0296
1773.00,0.0293
1772.00,0.0288
1771.00,0.0286
1770.00,0.0291
1769.00,0.0299
1768.00,0.0304
1767.00,0.0306
1766.00,0.0309
1765.00,0.0316
1764.00,0.0323
1763.00,0.0326
1762.00,0.0324
1761.00,0.0323
1760.00,0.0326
1759.00,0.0333
1758.00,0.0338
1757.00,0.0340
1756.00,0.0342
1755.00,0.0346
1754.00,0.0354
1753.00,0.0361
1752.00,0.0365
1751.00,0.0365
1750.00,0.0365
1749.00,0.0367
1748.00,0.0371
1747.00,0.0377
1746.00,0.0384
1745.00,0.0390
1744.00,0.0397
1743.00,0.0403
1742.00,0.0409
1741.00,0.0414
1740.00,0.0419
1739.00,0.0422
1738.00,0.0429
1737.00,0.0440
1736.00,0.0451
1735.00,0.0456
1734.00,0.0456
1733.00,0.0455
1732.00,0.0461
1731.00,0.0472
1730.00,0.0482
1729.00,0.0489
1728.00,0.0496
1727.00,0.0504
1726.00,0.0511
1725.00,0.0517
1724.00,0.0524
1723.00,0.0528
1722.00,0.0533
1721.00,0.0539
1720.00,0.0544
1719.00,0.0547
1718.00,0.0548
1717.00,0.0550
1716.00,0.0552
1715.00,0.0556
1714.00,0.0561
1713.00,0.0567
1712.00,0.0573
1711.00,0.0576
1710.00,0.0579
1709.00,0.0582
1708.00,0.0585
1707.00,0.0587
1706.00,0.0588
1705.00,0.0588
1704.00,0.0590
1703.00,0.0594
1702.00,0.0596
1701.00,0.0595
1700.00,0.0590
1699.00,0.0586
1698.00,0.0591
1697.00,0.0598
1696.00,0.0598
1695.00,0.0593
1694.00,0.0591
1693.00,0.0597
1692.00,0.0602
1691.00,0.0603
1690.00,0.0603
1689.00,0.0604
1688.00,0.0605
1687.00,0.0607
1686.00,0.0606
1685.00,0.0604
1684.00,0.0600
1683.00,0.0596
1682.00,0.0600
1681.00,0.0607
1680.00,0.0612
1679.00,0.0615
1678.00,0.0618
1677.00,0.0619
1676.00,0.0620
1675.00,0.0619
1674.00,0.0618
1673.00,0.0620
1672.00,0.0624
1671.00,0.0628
1670.00,0.0630
1669.00,0.0631
1668.00,0.0632
1667.00,0.0636
1666.00,0.0641
1665.00,0.0645
1664.00,0.0648
1663.00,0.0650
1662.00,0.0653
1661.00,0.0656
1660.00,0.0660
1659.00,0.0664
1658.00,0.0668
1657.00,0.0669
1656.00,0.0671
1655.00,0.0671
1654.00,0.0677
1653.00,0.0681
1652.00,0.0677
1651.00,0.0679
1650.00,0.0688
1649.00,0.0696
1648.00,0.0705
1647.00,0.0714
1646.00,0.0720
1645.00,0.0724
1644.00,0.0729
1643.00,0.0735
1642.00,0.0741
1641.00,0.0745
1640.00,0.0748
1639.00,0.0750
1638.00,0.0753
1637.00,0.0759
1636.00,0.0769
1635.00,0.0778
1634.00,0.0782
1633.00,0.0788
1632.00,0.0794
1631.00,0.0800
1630.00,0.0805
1629.00,0.0810
1628.00,0.0816
1627.00,0.0822
1626.00,0.0826
1625.00,0.0831
1624.00,0.0839
1623.00,0.0848
1622.00,0.0854
1621.00,0.0858
1620.00,0.0860
1619.00,0.0863
1618.00,0.0868
1617.00,0.0877
1616.00,0.0885
1615.00,0.0890
1614.00,0.0895
1613.00,0.0899
1612.00,0.0903
1611.00,0.0908
1610.00,0.0913
1609.00,0.0919
1608.00,0.0924
1607.00,0.0930
1606.00,0.0934
1605.00,0.0938
1604.00,0.0943
1603.00,0.0949
1602.00,0.0955
1601.00,0.0960
1600.00,0.0964
1599.00,0.0968
1598.00,0.0971
1597.00,0.0974
1596.00,0.0977
1595.00,0.0982
1594.00,0.0985
1593.00,0.0986
1592.00,0.0986
1591.00,0.0987
1590.00,0.0987
1589.00,0.0988
1588.00,0.0988
1587.00,0.0989
1586.00,0.0991
1585.00,0.0991
1584.00,0.0992
1583.00,0.0994
1582.00,0.0995
1581.00,0.0994
1580.00,0.0991
1579.00,0.0988
1578.00,0.0987
1577.00,0.0991
1576.00,0.0999
1575.00,0.1003
1574.00,0.1002
1573.00,0.0998
1572.00,0.0993
1571.00,0.0992
1570.00,0.0995
1569.00,0.0999
1568.00,0.1001
1567.00,0.1000
1566.00,0.0999
1565.00,0.0997
1564.00,0.0996
1563.00,0.0991
1562.00,0.0982
1561.00,0.0966
1560.00,0.0961
1559.00,0.0983
1558.00,0.0995
1557.00,0.0991
1556.00,0.0990
1555.00,0.0990
1554.00,0.0988
1553.00,0.0984
1552.00,0.0981
1551.00,0.0979
1550.00,0.0977
1549.00,0.0973
1548.00,0.0967
1547.00,0.0959
1546.00,0.0949
1545.00,0.0940
1544.00,0.0932
1543.00,0.0923
1542.00,0.0914
1541.00,0.0911
1540.00,0.0914
1539.00,0.0910
1538.00,0.0902
1537.00,0.0897
1536.00,0.0893
1535.00,0.0887
1534.00,0.0884
1533.00,0.0882
1532.00,0.0878
1531.00,0.0873
1530.00,0.0868
1529.00,0.0863
1528.00,0.0859
1527.00,0.0855
1526.00,0.0850
1525.00,0.0844
1524.00,0.0839
1523.00,0.0834
1522.00,0.0832
1521.00,0.0830
1520.00,0.0826
1519.00,0.0822
1518.00,0.0820
1517.00,0.0820
1516.00,0.0819
1515.00,0.0817
1514.00,0.0815
1513.00,0.0811
1512.00,0.0808
1511.00,0.0802
1510.00,0.0796
1509.00,0.0790
1508.00,0.0789
1507.00,0.0793
1506.00,0.0793
1505.00,0.0788
1504.00,0.0787
1503.00,0.0788
1502.00,0.0786
1501.00,0.0783
1500.00,0.0779
1499.00,0.0777
1498.00,0.0775
1497.00,0.0777
1496.00,0.0779
1495.00,0.0779
1494.00,0.0778
1493.00,0.0778
1492.00,0.0777
1491.00,0.0777
1490.00,0.0779
1489.00,0.0782
1488.00,0.0783
1487.00,0.0782
1486.00,0.0782
1485.00,0.0782
1484.00,0.0782
1483.00,0.0782
1482.00,0.0782
1481.00,0.0782
1480.00,0.0782
1479.00,0.0782
1478.00,0.0781
1477.00,0.0781
1476.00,0.0782
1475.00,0.0782
1474.00,0.0784
1473.00,0.0788
1472.00,0.0792
1471.00,0.0793
1470.00,0.0793
1469.00,0.0794
1468.00,0.0795
1467.00,0.0795
1466.00,0.0796
1465.00,0.0798
1464.00,0.0801
1463.00,0.0802
1462.00,0.0802
1461.00,0.0800
1460.00,0.0799
1459.00,0.0798
1458.00,0.0801
1457.00,0.0809
1456.00,0.0813
1455.00,0.0815
1454.00,0.0817
1453.00,0.0819
1452.00,0.0820
1451.00,0.0822
1450.00,0.0823
1449.00,0.0825
1448.00,0.0828
1447.00,0.0830
1446.00,0.0831
1445.00,0.0832
1444.00,0.0833
1443.00,0.0835
1442.00,0.0836
1441.00,0.0836
1440.00,0.0837
1439.00,0.0837
1438.00,0.0838
1437.00,0.0843
1436.00,0.0847
1435.00,0.0850
1434.00,0.0850
1433.00,0.0850
1432.00,0.0851
1431.00,0.0853
1430.00,0.0855
1429.00,0.0858
1428.00,0.0860
1427.00,0.0860
1426.00,0.0861
1425.00,0.0861
1424.00,0.0864
1423.00,0.0866
1422.00,0.0866
1421.00,0.0865
1420.00,0.0867
1419.00,0.0872
1418.00,0.0876
1417.00,0.0878
1416.00,0.0881
1415.00,0.0882
1414.00,0.0882
1413.00,0.0883
1412.00,0.0885
1411.00,0.0887
1410.00,0.0888
1409.00,0.0888
1408.00,0.0889
1407.00,0.0891
1406.00,0.0893
1405.00,0.0897
1404.00,0.0901
1403.00,0.0903
1402.00,0.0904
1401.00,0.0904
1400.00,0.0907
1399.00,0.0910
1398.00,0.0913
1397.00,0.0914
1396.00,0.0917
1395.00,0.0921
1394.00,0.0924
1393.00,0.0925
1392.00,0.0926
1391.00,0.0926
1390.00,0.0927
1389.00,0.0928
1388.00,0.0932
1387.00,0.0937
1386.00,0.0940
1385.00,0.0942
1384.00,0.0944
1383.00,0.0945
1382.00,0.0946
1381.00,0.0948
1380.00,0.0950
1379.00,0.0951
1378.00,0.0952
1377.00,0.0952
1376.00,0.0952
1375.00,0.0955
1374.00,0.0958
1373.00,0.0960
1372.00,0.0960
1371.00,0.0960
1370.00,0.0960
1369.00,0.0961
1368.00,0.0962
1367.00,0.0963
1366.00,0.0962
1365.00,0.0962
1364.00,0.0963
1363.00,0.0966
1362.00,0.0969
1361.00,0.0970
1360.00,0.0970
1359.00,0.0970
1358.00,0.0969
1357.00,0.0969
1356.00,0.0969
1355.00,0.0969
1354.00,0.0969
1353.00,0.0969
1352.00,0.0969
1351.00,0.0968
1350.00,0.0968
1349.00,0.0967
1348.00,0.0967
1347.00,0.0967
1346.00,0.0967
1345.00,0.0966
1344.00,0.0966
1343.00,0.0964
1342.00,0.0963
1341.00,0.0963
1340.00,0.0965
1339.00,0.0967
1338.00,0.0968
1337.00,0.0968
1336.00,0.0967
1335.00,0.0966
1334.00,0.0964
1333.00,0.0963
1332.00,0.0962
1331.00,0.0962
1330.00,0.0961
1329.00,0.0961
1328.00,0.0961
1327.00,0.0961
1326.00,0.0961
1325.00,0.0961
1324.00,0.0960
1323.00,0.0960
1322.00,0.0959
1321.00,0.0959
1320.00,0.0959
1319.00,0.0960
1318.00,0.0961
1317.00,0.0961
1316.00,0.0960
1315.00,0.0960
1314.00,0.0960
1313.00,0.0960
1312.00,0.0960
1311.00,0.0960
1310.00,0.0960
1309.00,0.0960
1308.00,0.0960
1307.00,0.0961
1306.00,0.0961
1305.00,0.0961
1304.00,0.0961
1303.00,0.0961
1302.00,0.0962
1301.00,0.0962
1300.00,0.0962
1299.00,0.0963
1298.00,0.0964
1297.00,0.0965
1296.00,0.0966
1295.00,0.0967
1294.00,0.0968
1293.00,0.0968
1292.00,0.0970
1291.00,0.0971
1290.00,0.0972
1289.00,0.0973
1288.00,0.0974
1287.00,0.0976
1286.00,0.0977
1285.00,0.0978
1284.00,0.0978
1283.00,0.0979
1282.00,0.0979
1281.00,0.0980
1280.00,0.0981
1279.00,0.0981
1278.00,0.0982
1277.00,0.0983
1276.00,0.0984
1275.00,0.0985
1274.00,0.0985
1273.00,0.0986
1272.00,0.0987
1271.00,0.0989
1270.00,0.0989
1269.00,0.0990
1268.00,0.0991
1267.00,0.0991
1266.00,0.0992
1265.00,0.0992
1264.00,0.0993
1263.00,0.0994
1262.00,0.0994
1261.00,0.0995
1260.00,0.0996
1259.00,0.0997
1258.00,0.0998
1257.00,0.0999
1256.00,0.1000
1255.00,0.1000
1254.00,0.1000
1253.00,0.1001
1252.00,0.1002
1251.00,0.1002
1250.00,0.1003
1249.00,0.1003
1248.00,0.1003
1247.00,0.1003
1246.00,0.1003
1245.00,0.1003
1244.00,0.1004
1243.00,0.1004
1242.00,0.1004
1241.00,0.1005
1240.00,0.1005
1239.00,0.1005
1238.00,0.1006
1237.00,0.1007
1236.00,0.1008
1235.00,0.1008
1234.00,0.1008
1233.00,0.1008
1232.00,0.1008
1231.00,0.1008
1230.00,0.1008
1229.00,0.1007
1228.00,0.1007
1227.00,0.1006
1226.00,0.1005
1225.00,0.1004
1224.00,0.1004
1223.00,0.1004
1222.00,0.1003
1221.00,0.1003
1220.00,0.1002
1219.00,0.1002
1218.00,0.1001
1217.00,0.1001
1216.00,0.1001
1215.00,0.1001
1214.00,0.1001
1213.00,0.1001
1212.00,0.1000
1211.00,0.1000
1210.00,0.1000
1209.00,0.1000
1208.00,0.1000
1207.00,0.1000
1206.00,0.0999
1205.00,0.0999
1204.00,0.0999
1203.00,0.1000
1202.00,0.1000
1201.00,0.1000
1200.00,0.1000
1199.00,0.1001
1198.00,0.1001
1197.00,0.1001
1196.00,0.1002
1195.00,0.1002
1194.00,0.1001
1193.00,0.1001
1192.00,0.1001
1191.00,0.1002
1190.00,0.1002
1189.00,0.1002
1188.00,0.1003
1187.00,0.1004
1186.00,0.1004
1185.00,0.1004
1184.00,0.1005
1183.00,0.1005
1182.00,0.1007
1181.00,0.1009
1180.00,0.1011
1179.00,0.1012
1178.00,0.1013
1177.00,0.1014
1176.00,0.1014
1175.00,0.1015
1174.00,0.1015
1173.00,0.1015
1172.00,0.1016
1171.00,0.1017
1170.00,0.1017
1169.00,0.1018
1168.00,0.1019
1167.00,0.1019
1166.00,0.1020
1165.00,0.1021
1164.00,0.1022
1163.00,0.1023
1162.00,0.1023
1161.00,0.1023
1160.00,0.1023
1159.00,0.1023
1158.00,0.1023
1157.00,0.1023
1156.00,0.1022
1155.00,0.1021
1154.00,0.1020
1153.00,0.1019
1152.00,0.1018
1151.00,0.1017
1150.00,0.1016
1149.00,0.1016
1148.00,0.1015
1147.00,0.1015
1146.00,0.1014
1145.00,0.1013
1144.00,0.1013
1143.00,0.1012
1142.00,0.1011
1141.00,0.1011
1140.00,0.1010
1139.00,0.1009
1138.00,0.1008
1137.00,0.1007
1136.00,0.1006
1135.00,0.1006
1134.00,0.1005
1133.00,0.1004
1132.00,0.1003
1131.00,0.1002
1130.00,0.1001
1129.00,0.1001
1128.00,0.1001
1127.00,0.1001
1126.00,0.1001
1125.00,0.1001
1124.00,0.1001
1123.00,0.1001
1122.00,0.1001
1121.00,0.1001
1120.00,0.1001
1119.00,0.1001
1118.00,0.1001
1117.00,0.1002
1116.00,0.1002
1115.00,0.1003
1114.00,0.1003
1113.00,0.1003
1112.00,0.1003
1111.00,0.1003
1110.00,0.1003
1109.00,0.1004
1108.00,0.1005
1107.00,0.1005
1106.00,0.1006
1105.00,0.1006
1104.00,0.1006
1103.00,0.1006
1102.00,0.1005
1101.00,0.1004
1100.00,0.1004
1099.00,0.1003
1098.00,0.1003
1097.00,0.1002
1096.00,0.1002
1095.00,0.1002
1094.00,0.1002
1093.00,0.1001
1092.00,0.1002
1091.00,0.1002
1090.00,0.1001
1089.00,0.1001
1088.00,0.1001
1087.00,0.1001
1086.00,0.1001
1085.00,0.1001
1084.00,0.1001
1083.00,0.1001
1082.00,0.1001
1081.00,0.1001
1080.00,0.1001
1079.00,0.1001
1078.00,0.1002
1077.00,0.1002
1076.00,0.1003
1075.00,0.1003
1074.00,0.1004
1073.00,0.1005
1072.00,0.1005
1071.00,0.1006
1070.00,0.1008
1069.00,0.1009
1068.00,0.1011
1067.00,0.1012
1066.00,0.1013
1065.00,0.1012
1064.00,0.1012
1063.00,0.1011
1062.00,0.1011
1061.00,0.1011
1060.00,0.1011
1059.00,0.1012
1058.00,0.1011
1057.00,0.1010
1056.00,0.1009
1055.00,0.1008
1054.00,0.1007
1053.00,0.1006
1052.00,0.1006
1051.00,0.1006
1050.00,0.1006
1049.00,0.1006
1048.00,0.1006
1047.00,0.1005
1046.00,0.1004
1045.00,0.1002
1044.00,0.1001
1043.00,0.1000
1042.00,0.0999
1041.00,0.0998
1040.00,0.0997
1039.00,0.0996
1038.00,0.0996
1037.00,0.0994
1036.00,0.0993
1035.00,0.0992
1034.00,0.0991
1033.00,0.0990
1032.00,0.0989
1031.00,0.0987
1030.00,0.0985
1029.00,0.0983
1028.00,0.0980
1027.00,0.0978
1026.00,0.0976
1025.00,0.0973
1024.00,0.0971
1023.00,0.0968
1022.00,0.0965
1021.00,0.0963
1020.00,0.0962
1019.00,0.0960
1018.00,0.0958
1017.00,0.0956
1016.00,0.0953
1015.00,0.0951
1014.00,0.0947
1013.00,0.0945
1012.00,0.0943
1011.00,0.0941
1010.00,0.0938
1009.00,0.0935
1008.00,0.0933
1007.00,0.0931
1006.00,0.0929
1005.00,0.0927
1004.00,0.0925
1003.00,0.0922
1002.00,0.0920
1001.00,0.0917
1000.00,0.0914
999.00,0.0913
998.00,0.0911
997.00,0.0908
996.00,0.0905
995.00,0.0902
994.00,0.0900
993.00,0.0897
992.00,0.0894
991.00,0.0891
990.00,0.0889
989.00,0.0888
988.00,0.0886
987.00,0.0884
986.00,0.0882
985.00,0.0880
984.00,0.0878
983.00,0.0876
982.00,0.0874
981.00,0.0873
980.00,0.0871
979.00,0.0869
978.00,0.0867
977.00,0.0865
976.00,0.0863
975.00,0.0861
974.00,0.0858
973.00,0.0856
972.00,0.0854
971.00,0.0852
970.00,0.0850
969.00,0.0848
968.00,0.0846
967.00,0.0845
966.00,0.0844
965.00,0.0843
964.00,0.0842
963.00,0.0840
962.00,0.0839
961.00,0.0837
960.00,0.0835
959.00,0.0834
958.00,0.0832
957.00,0.0831
956.00,0.0829
955.00,0.0827
954.00,0.0826
953.00,0.0824
952.00,0.0822
951.00,0.0821
950.00,0.0820
949.00,0.0819
948.00,0.0818
947.00,0.0817
946.00,0.0816
945.00,0.0816
944.00,0.0815
943.00,0.0815
942.00,0.0814
941.00,0.0813
940.00,0.0812
939.00,0.0811
938.00,0.0810
937.00,0.0809
936.00,0.0809
935.00,0.0808
934.00,0.0807
933.00,0.0806
932.00,0.0806
931.00,0.0806
930.00,0.0805
929.00,0.0806
928.00,0.0806
927.00,0.0806
926.00,0.0806
925.00,0.0806
924.00,0.0807
923.00,0.0808
922.00,0.0809
921.00,0.0809
920.00,0.0809
919.00,0.0809
918.00,0.0810
917.00,0.0811
916.00,0.0812
915.00,0.0813
914.00,0.0814
913.00,0.0814
912.00,0.0815
911.00,0.0815
910.00,0.0816
909.00,0.0817
908.00,0.0817
907.00,0.0817
906.00,0.0817
905.00,0.0818
904.00,0.0818
903.00,0.0819
902.00,0.0819
901.00,0.0820
900.00,0.0820
899.00,0.0821
898.00,0.0822
897.00,0.0823
896.00,0.0824
895.00,0.0824
894.00,0.0824
893.00,0.0825
892.00,0.0825
891.00,0.0826
890.00,0.0826
889.00,0.0827
888.00,0.0827
887.00,0.0827
886.00,0.0827
885.00,0.0827
884.00,0.0828
883.00,0.0828
882.00,0.0828
881.00,0.0828
880.00,0.0828
879.00,0.0829
878.00,0.0830
877.00,0.0831
876.00,0.0832
875.00,0.0832
874.00,0.0832
873.00,0.0832
872.00,0.0833
871.00,0.0835
870.00,0.0836
869.00,0.0836
868.00,0.0836
867.00,0.0836
866.00,0.0836
865.00,0.0837
864.00,0.0837
863.00,0.0837
862.00,0.0837
861.00,0.0838
860.00,0.0839
859.00,0.0840
858.00,0.0842
857.00,0.0843
856.00,0.0845
855.00,0.0846
854.00,0.0847
853.00,0.0848
852.00,0.0848
851.00,0.0849
850.00,0.0850
849.00,0.0853
848.00,0.0855
847.00,0.0857
846.00,0.0858
845.00,0.0860
844.00,0.0862
843.00,0.0865
842.00,0.0867
841.00,0.0869
840.00,0.0872
839.00,0.0875
838.00,0.0878
837.00,0.0881
836.00,0.0883
835.00,0.0885
834.00,0.0886
833.00,0.0887
832.00,0.0888
831.00,0.0889
830.00,0.0890
829.00,0.0892
828.00,0.0895
827.00,0.0898
826.00,0.0901
825.00,0.0903
824.00,0.0906
823.00,0.0909
822.00,0.0912
821.00,0.0914
820.00,0.0916
819.00,0.0918
818.00,0.0919
817.00,0.0921
816.00,0.0922
815.00,0.0923
814.00,0.0924
813.00,0.0926
812.00,0.0927
811.00,0.0928
810.00,0.0929
809.00,0.0930
808.00,0.0932
807.00,0.0932
806.00,0.0933
805.00,0.0934
804.00,0.0936
803.00,0.0938
802.00,0.0940
801.00,0.0942
800.00,0.0944
799.00,0.0945
798.00,0.0946
797.00,0.0947
796.00,0.0949
795.00,0.0951
794.00,0.0952
793.00,0.0952
792.00,0.0954
791.00,0.0955
790.00,0.0956
789.00,0.0957
788.00,0.0960
787.00,0.0962
786.00,0.0964
785.00,0.0967
784.00,0.0970
783.00,0.0973
782.00,0.0977
781.00,0.0979
780.00,0.0982
779.00,0.0985
778.00,0.0987
777.00,0.0989
776.00,0.0990
775.00,0.0992
774.00,0.0995
773.00,0.0998
772.00,0.1001
771.00,0.1004
770.00,0.1006
769.00,0.1009
768.00,0.1011
767.00,0.1014
766.00,0.1016
765.00,0.1019
764.00,0.1021
763.00,0.1022
762.00,0.1023
761.00,0.1025
760.00,0.1026
759.00,0.1027
758.00,0.1026
757.00,0.1026
756.00,0.1025
755.00,0.1025
754.00,0.1027
753.00,0.1029
752.00,0.1031
751.00,0.1031
750.00,0.1030
749.00,0.1029
748.00,0.1029
747.00,0.1031
746.00,0.1032
745.00,0.1033
744.00,0.1034
743.00,0.1035
742.00,0.1036
741.00,0.1036
740.00,0.1036
739.00,0.1036
738.00,0.1035
737.00,0.1035
736.00,0.1034
735.00,0.1035
734.00,0.1036
733.00,0.1036
732.00,0.1036
731.00,0.1035
730.00,0.1034
729.00,0.1033
728.00,0.1033
727.00,0.1033
726.00,0.1036
725.00,0.1038
724.00,0.1041
723.00,0.1043
722.00,0.1046
721.00,0.1049
720.00,0.1053
719.00,0.1055
718.00,0.1056
717.00,0.1056
716.00,0.1056
715.00,0.1058
714.00,0.1061
713.00,0.1064
712.00,0.1065
711.00,0.1063
710.00,0.1062
709.00,0.1063
708.00,0.1066
707.00,0.1070
706.00,0.1074
705.00,0.1077
704.00,0.1079
703.00,0.1079
702.00,0.1078
701.00,0.1078
700.00,0.1078
699.00,0.1079
698.00,0.1080
697.00,0.1081
696.00,0.1083
695.00,0.1086
694.00,0.1089
693.00,0.1091
692.00,0.1093
691.00,0.1093
690.00,0.1093
689.00,0.1093
688.00,0.1095
687.00,0.1099
686.00,0.1103
685.00,0.1107
684.00,0.1109
683.00,0.1110
682.00,0.1112
681.00,0.1115
680.00,0.1116
679.00,0.1116
678.00,0.1117
677.00,0.1119
676.00,0.1122
675.00,0.1125
674.00,0.1128
673.00,0.1129
672.00,0.1127
671.00,0.1121
670.00,0.1117
669.00,0.1123
668.00,0.1138
667.00,0.1150
666.00,0.1152
665.00,0.1149
664.00,0.1148
663.00,0.1149
662.00,0.1150
661.00,0.1153
660.00,0.1156
659.00,0.1158
658.00,0.1159
657.00,0.1159
656.00,0.1159
655.00,0.1162
654.00,0.1164
653.00,0.1166
652.00,0.1166
651.00,0.1166
650.00,0.1166
