Created as New Dataset,Sample 003 By Administrator Date Monday, March 20 2023
cm-1,A
4000.00,0.1226
3999.00,0.1226
3998.00,0.1226
3997.00,0.1226
3996.00,0.1227
3995.00,0.1226
3994.00,0.1226
3993.00,0.1226
3992.00,0.1226
3991.00,0.1227
3990.00,0.1227
3989.00,0.1227
3988.00,0.1227
3987.00,0.1227
3986.00,0.1228
3985.00,0.1228
3984.00,0.1228
3983.00,0.1228
3982.00,0.1229
3981.00,0.1228
3980.00,0.1228
3979.00,0.1228
3978.00,0.1228
3977.00,0.1228
3976.00,0.1228
3975.00,0.1228
3974.00,0.1227
3973.00,0.1227
3972.00,0.1227
3971.00,0.1227
3970.00,0.1228
3969.00,0.1229
3968.00,0.1229
3967.00,0.1229
3966.00,0.1228
3965.00,0.1228
3964.00,0.1229
3963.00,0.1229
3962.00,0.1229
3961.00,0.1228
3960.00,0.1228
3959.00,0.1228
3958.00,0.1228
3957.00,0.1229
3956.00,0.1228
3955.00,0.1228
3954.00,0.1226
3953.00,0.1225
3952.00,0.1224
3951.00,0.1223
3950.00,0.1224
3949.00,0.1224
3948.00,0.1223
3947.00,0.1221
3946.00,0.1220
3945.00,0.1221
3944.00,0.1224
3943.00,0.1226
3942.00,0.1225
3941.00,0.1224
3940.00,0.1225
3939.00,0.1227
3938.00,0.1229
3937.00,0.1228
3936.00,0.1225
3935.00,0.1223
3934.00,0.1222
3933.00,0.1223
3932.00,0.1223
3931.00,0.1222
3930.00,0.1221
3929.00,0.1219
3928.00,0.1219
3927.00,0.1221
3926.00,0.1223
3925.00,0.1224
3924.00,0.1221
3923.00,0.1218
3922.00,0.1216
3921.00,0.1216
3920.00,0.1217
3919.00,0.1219
3918.00,0.1221
3917.00,0.1223
3916.00,0.1225
3915.00,0.1225
3914.00,0.1228
3913.00,0.1231
3912.00,0.1234
3911.00,0.1233
3910.00,0.1229
3909.00,0.1223
3908.00,0.1215
3907.00,0.1207
3906.00,0.1201
3905.00,0.1196
3904.00,0.1192
3903.00,0.1188
3902.00,0.1188
3901.00,0.1195
3900.00,0.1204
3899.00,0.1211
3898.00,0.1213
3897.00,0.1214
3896.00,0.1215
3895.00,0.1216
3894.00,0.1216
3893.00,0.1218
3892.00,0.1220
3891.00,0.1216
3890.00,0.1207
3889.00,0.1200
3888.00,0.1203
3887.00,0.1211
3886.00,0.1217
3885.00,0.1211
3884.00,0.1201
3883.00,0.1199
3882.00,0.1207
3881.00,0.1217
3880.00,0.1219
3879.00,0.1212
3878.00,0.1206
3877.00,0.1208
3876.00,0.1213
3875.00,0.1213
3874.00,0.1205
3873.00,0.1193
3872.00,0.1190
3871.00,0.1196
3870.00,0.1202
3869.00,0.1198
3868.00,0.1190
3867.00,0.1192
3866.00,0.1202
3865.00,0.1210
3864.00,0.1213
3863.00,0.1212
3862.00,0.1212
3861.00,0.1214
3860.00,0.1213
3859.00,0.1207
3858.00,0.1194
3857.00,0.1176
3856.00,0.1161
3855.00,0.1159
3854.00,0.1173
3853.00,0.1181
3852.00,0.1178
3851.00,0.1184
3850.00,0.1204
3849.00,0.1222
3848.00,0.1229
3847.00,0.1227
3846.00,0.1223
3845.00,0.1218
3844.00,0.1211
3843.00,0.1202
3842.00,0.1191
3841.00,0.1184
3840.00,0.1184
3839.00,0.1187
3838.00,0.1190
3837.00,0.1190
3836.00,0.1191
3835.00,0.1196
3834.00,0.1205
3833.00,0.1214
3832.00,0.1219
3831.00,0.1219
3830.00,0.1218
3829.00,0.1219
3828.00,0.1223
3827.00,0.1224
3826.00,0.1216
3825.00,0.1202
3824.00,0.1191
3823.00,0.1191
3822.00,0.1199
3821.00,0.1200
3820.00,0.1188
3819.00,0.1179
3818.00,0.1188
3817.00,0.1207
3816.00,0.1221
3815.00,0.1222
3814.00,0.1220
3813.00,0.1224
3812.00,0.1230
3811.00,0.1228
3810.00,0.1221
3809.00,0.1217
3808.00,0.1219
3807.00,0.1217
3806.00,0.1205
3805.00,0.1192
3804.00,0.1189
3803.00,0.1199
3802.00,0.1210
3801.00,0.1209
3800.00,0.1200
3799.00,0.1200
3798.00,0.1213
3797.00,0.1227
3796.00,0.1233
3795.00,0.1232
3794.00,0.1232
3793.00,0.1236
3792.00,0.1241
3791.00,0.1243
3790.00,0.1242
3789.00,0.1239
3788.00,0.1237
3787.00,0.1236
3786.00,0.1236
3785.00,0.1235
3784.00,0.1231
3783.00,0.1226
3782.00,0.1223
3781.00,0.1226
3780.00,0.1231
3779.00,0.1233
3778.00,0.1232
3777.00,0.1232
3776.00,0.1235
3775.00,0.1236
3774.00,0.1233
3773.00,0.1227
3772.00,0.1224
3771.00,0.1225
3770.00,0.1224
3769.00,0.1220
3768.00,0.1217
3767.00,0.1221
3766.00,0.1228
3765.00,0.1230
3764.00,0.1225
3763.00,0.1220
3762.00,0.1219
3761.00,0.1220
3760.00,0.1221
3759.00,0.1219
3758.00,0.1214
3757.00,0.1208
3756.00,0.1199
3755.00,0.1190
3754.00,0.1180
3753.00,0.1173
3752.00,0.1174
3751.00,0.1178
3750.00,0.1178
3749.00,0.1170
3748.00,0.1163
3747.00,0.1165
3746.00,0.1178
3745.00,0.1195
3744.00,0.1199
3743.00,0.1189
3742.00,0.1188
3741.00,0.1198
3740.00,0.1202
3739.00,0.1195
3738.00,0.1186
3737.00,0.1182
3736.00,0.1182
3735.00,0.1182
3734.00,0.1184
3733.00,0.1191
3732.00,0.1201
3731.00,0.1208
3730.00,0.1212
3729.00,0.1216
3728.00,0.1221
3727.00,0.1224
3726.00,0.1221
3725.00,0.1217
3724.00,0.1216
3723.00,0.1218
3722.00,0.1221
3721.00,0.1223
3720.00,0.1225
3719.00,0.1227
3718.00,0.1228
3717.00,0.1224
3716.00,0.1216
3715.00,0.1207
3714.00,0.1201
3713.00,0.1200
3712.00,0.1203
3711.00,0.1207
3710.00,0.1209
3709.00,0.1214
3708.00,0.1222
3707.00,0.1228
3706.00,0.1230
3705.00,0.1230
3704.00,0.1231
3703.00,0.1234
3702.00,0.1236
3701.00,0.1236
3700.00,0.1235
3699.00,0.1236
3698.00,0.1241
3697.00,0.1243
3696.00,0.1241
3695.00,0.1233
3694.00,0.1223
3693.00,0.1212
3692.00,0.1203
3691.00,0.1200
3690.00,0.1204
3689.00,0.1211
3688.00,0.1214
3687.00,0.1217
3686.00,0.1224
3685.00,0.1235
3684.00,0.1240
3683.00,0.1239
3682.00,0.1234
3681.00,0.1225
3680.00,0.1213
3679.00,0.1196
3678.00,0.1183
3677.00,0.1184
3676.00,0.1193
3675.00,0.1191
3674.00,0.1178
3673.00,0.1174
3672.00,0.1186
3671.00,0.1204
3670.00,0.1217
3669.00,0.1219
3668.00,0.1218
3667.00,0.1225
3666.00,0.1236
3665.00,0.1244
3664.00,0.1247
3663.00,0.1247
3662.00,0.1245
3661.00,0.1240
3660.00,0.1234
3659.00,0.1229
3658.00,0.1229
3657.00,0.1232
3656.00,0.1230
3655.00,0.1220
3654.00,0.1207
3653.00,0.1196
3652.00,0.1188
3651.00,0.1186
3650.00,0.1190
3649.00,0.1196
3648.00,0.1201
3647.00,0.1207
3646.00,0.1217
3645.00,0.1228
3644.00,0.1240
3643.00,0.1248
3642.00,0.1252
3641.00,0.1252
3640.00,0.1251
3639.00,0.1251
3638.00,0.1250
3637.00,0.1247
3636.00,0.1246
3635.00,0.1244
3634.00,0.1237
3633.00,0.1224
3632.00,0.1211
3631.00,0.1206
3630.00,0.1214
3629.00,0.1226
3628.00,0.1227
3627.00,0.1225
3626.00,0.1234
3625.00,0.1245
3624.00,0.1249
3623.00,0.1245
3622.00,0.1239
3621.00,0.1236
3620.00,0.1237
3619.00,0.1236
3618.00,0.1231
3617.00,0.1227
3616.00,0.1228
3615.00,0.1233
3614.00,0.1237
3613.00,0.1236
3612.00,0.1233
3611.00,0.1231
3610.00,0.1236
3609.00,0.1244
3608.00,0.1250
3607.00,0.1252
3606.00,0.1253
3605.00,0.1254
3604.00,0.1256
3603.00,0.1258
3602.00,0.1259
3601.00,0.1258
3600.00,0.1257
3599.00,0.1254
3598.00,0.1253
3597.00,0.1253
3596.00,0.1256
3595.00,0.1258
3594.00,0.1257
3593.00,0.1254
3592.00,0.1250
3591.00,0.1245
3590.00,0.1243
3589.00,0.1245
3588.00,0.1250
3587.00,0.1252
3586.00,0.1251
3585.00,0.1253
3584.00,0.1260
3583.00,0.1266
3582.00,0.1271
3581.00,0.1273
3580.00,0.1273
3579.00,0.1273
3578.00,0.1274
3577.00,0.1274
3576.00,0.1275
3575.00,0.1276
3574.00,0.1275
3573.00,0.1273
3572.00,0.1267
3571.00,0.1260
3570.00,0.1253
3569.00,0.1251
3568.00,0.1253
3567.00,0.1256
3566.00,0.1257
3565.00,0.1257
3564.00,0.1261
3563.00,0.1268
3562.00,0.1274
3561.00,0.1279
3560.00,0.1281
3559.00,0.1282
3558.00,0.1283
3557.00,0.1283
3556.00,0.1282
3555.00,0.1282
3554.00,0.1282
3553.00,0.1283
3552.00,0.1283
3551.00,0.1280
3550.00,0.1278
3549.00,0.1277
3548.00,0.1278
3547.00,0.1280
3546.00,0.1281
3545.00,0.1282
3544.00,0.1284
3543.00,0.1286
3542.00,0.1289
3541.00,0.1291
3540.00,0.1293
3539.00,0.1294
3538.00,0.1294
3537.00,0.1295
3536.00,0.1296
3535.00,0.1296
3534.00,0.1295
3533.00,0.1295
3532.00,0.1295
3531.00,0.1295
3530.00,0.1294
3529.00,0.1294
3528.00,0.1293
3527.00,0.1292
3526.00,0.1292
3525.00,0.1293
3524.00,0.1296
3523.00,0.1298
3522.00,0.1299
3521.00,0.1300
3520.00,0.1302
3519.00,0.1305
3518.00,0.1306
3517.00,0.1307
3516.00,0.1307
3515.00,0.1307
3514.00,0.1306
3513.00,0.1306
3512.00,0.1306
3511.00,0.1307
3510.00,0.1307
3509.00,0.1308
3508.00,0.1306
3507.00,0.1305
3506.00,0.1305
3505.00,0.1306
3504.00,0.1307
3503.00,0.1309
3502.00,0.1309
3501.00,0.1309
3500.00,0.1310
3499.00,0.1312
3498.00,0.1314
3497.00,0.1316
3496.00,0.1317
3495.00,0.1317
3494.00,0.1318
3493.00,0.1318
3492.00,0.1319
3491.00,0.1319
3490.00,0.1319
3489.00,0.1320
3488.00,0.1320
3487.00,0.1320
3486.00,0.1320
3485.00,0.1320
3484.00,0.1320
3483.00,0.1321
3482.00,0.1322
3481.00,0.1323
3480.00,0.1323
3479.00,0.1324
3478.00,0.1325
3477.00,0.1327
3476.00,0.1328
3475.00,0.1329
3474.00,0.1329
3473.00,0.1329
3472.00,0.1329
3471.00,0.1329
3470.00,0.1330
3469.00,0.1330
3468.00,0.1331
3467.00,0.1332
3466.00,0.1333
3465.00,0.1333
3464.00,0.1334
3463.00,0.1334
3462.00,0.1335
3461.00,0.1335
3460.00,0.1336
3459.00,0.1337
3458.00,0.1338
3457.00,0.1338
3456.00,0.1339
3455.00,0.1340
3454.00,0.1341
3453.00,0.1341
3452.00,0.1341
3451.00,0.1340
3450.00,0.1339
3449.00,0.1339
3448.00,0.1340
3447.00,0.1341
3446.00,0.1341
3445.00,0.1341
3444.00,0.1342
3443.00,0.1344
3442.00,0.1346
3441.00,0.1346
3440.00,0.1346
3439.00,0.1346
3438.00,0.1347
3437.00,0.1348
3436.00,0.1348
3435.00,0.1349
3434.00,0.1350
3433.00,0.1350
3432.00,0.1351
3431.00,0.1352
3430.00,0.1352
3429.00,0.1353
3428.00,0.1354
3427.00,0.1355
3426.00,0.1355
3425.00,0.1355
3424.00,0.1354
3423.00,0.1354
3422.00,0.1355
3421.00,0.1355
3420.00,0.1356
3419.00,0.1357
3418.00,0.1358
3417.00,0.1358
3416.00,0.1359
3415.00,0.1360
3414.00,0.1360
3413.00,0.1360
3412.00,0.1361
3411.00,0.1361
3410.00,0.1362
3409.00,0.1363
3408.00,0.1363
3407.00,0.1364
3406.00,0.1364
3405.00,0.1364
3404.00,0.1364
3403.00,0.1364
3402.00,0.1364
3401.00,0.1364
3400.00,0.1364
3399.00,0.1365
3398.00,0.1366
3397.00,0.1366
3396.00,0.1366
3395.00,0.1366
3394.00,0.1366
3393.00,0.1367
3392.00,0.1368
3391.00,0.1369
3390.00,0.1370
3389.00,0.1371
3388.00,0.1372
3387.00,0.1372
3386.00,0.1373
3385.00,0.1373
3384.00,0.1373
3383.00,0.1374
3382.00,0.1374
3381.00,0.1374
3380.00,0.1375
3379.00,0.1375
3378.00,0.1375
3377.00,0.1376
3376.00,0.1376
3375.00,0.1376
3374.00,0.1376
3373.00,0.1376
3372.00,0.1376
3371.00,0.1375
3370.00,0.1376
3369.00,0.1376
3368.00,0.1377
3367.00,0.1378
3366.00,0.1379
3365.00,0.1379
3364.00,0.1379
3363.00,0.1380
3362.00,0.1380
3361.00,0.1381
3360.00,0.1381
3359.00,0.1382
3358.00,0.1382
3357.00,0.1382
3356.00,0.1383
3355.00,0.1383
3354.00,0.1383
3353.00,0.1383
3352.00,0.1383
3351.00,0.1384
3350.00,0.1384
3349.00,0.1385
3348.00,0.1385
3347.00,0.1386
3346.00,0.1385
3345.00,0.1385
3344.00,0.1386
3343.00,0.1386
3342.00,0.1386
3341.00,0.1386
3340.00,0.1386
3339.00,0.1386
3338.00,0.1386
3337.00,0.1387
3336.00,0.1388
3335.00,0.1388
3334.00,0.1389
3333.00,0.1389
3332.00,0.1389
3331.00,0.1390
3330.00,0.1389
3329.00,0.1389
3328.00,0.1389
3327.00,0.1389
3326.00,0.1389
3325.00,0.1390
3324.00,0.1391
3323.00,0.1391
3322.00,0.1392
3321.00,0.1392
3320.00,0.1392
3319.00,0.1393
3318.00,0.1393
3317.00,0.1393
3316.00,0.1393
3315.00,0.1393
3314.00,0.1392
3313.00,0.1392
3312.00,0.1392
3311.00,0.1391
3310.00,0.1391
3309.00,0.1391
3308.00,0.1391
3307.00,0.1392
3306.00,0.1392
3305.00,0.1393
3304.00,0.1395
3303.00,0.1395
3302.00,0.1396
3301.00,0.1396
3300.00,0.1396
3299.00,0.1395
3298.00,0.1395
3297.00,0.1395
3296.00,0.1395
3295.00,0.1395
3294.00,0.1395
3293.00,0.1396
3292.00,0.1397
3291.00,0.1398
3290.00,0.1398
3289.00,0.1399
3288.00,0.1399
3287.00,0.1400
3286.00,0.1400
3285.00,0.1400
3284.00,0.1400
3283.00,0.1400
3282.00,0.1400
3281.00,0.1400
3280.00,0.1400
3279.00,0.1400
3278.00,0.1399
3277.00,0.1399
3276.00,0.1399
3275.00,0.1399
3274.00,0.1399
3273.00,0.1399
3272.00,0.1399
3271.00,0.1400
3270.00,0.1401
3269.00,0.1402
3268.00,0.1403
3267.00,0.1403
3266.00,0.1404
3265.00,0.1404
3264.00,0.1404
3263.00,0.1404
3262.00,0.1404
3261.00,0.1404
3260.00,0.1404
3259.00,0.1403
3258.00,0.1403
3257.00,0.1403
3256.00,0.1403
3255.00,0.1404
3254.00,0.1405
3253.00,0.1405
3252.00,0.1405
3251.00,0.1405
3250.00,0.1405
3249.00,0.1404
3248.00,0.1403
3247.00,0.1404
3246.00,0.1404
3245.00,0.1405
3244.00,0.1406
3243.00,0.1406
3242.00,0.1406
3241.00,0.1407
3240.00,0.1407
3239.00,0.1407
3238.00,0.1406
3237.00,0.1406
3236.00,0.1405
3235.00,0.1404
3234.00,0.1404
3233.00,0.1405
3232.00,0.1406
3231.00,0.1407
3230.00,0.1407
3229.00,0.1408
3228.00,0.1408
3227.00,0.1409
3226.00,0.1409
3225.00,0.1409
3224.00,0.1409
3223.00,0.1409
3222.00,0.1409
3221.00,0.1409
3220.00,0.1409
3219.00,0.1409
3218.00,0.1409
3217.00,0.1409
3216.00,0.1409
3215.00,0.1410
3214.00,0.1410
3213.00,0.1410
3212.00,0.1411
3211.00,0.1411
3210.00,0.1411
3209.00,0.1411
3208.00,0.1411
3207.00,0.1411
3206.00,0.1412
3205.00,0.1412
3204.00,0.1412
3203.00,0.1412
3202.00,0.1412
3201.00,0.1412
3200.00,0.1412
3199.00,0.1413
3198.00,0.1413
3197.00,0.1413
3196.00,0.1413
3195.00,0.1413
3194.00,0.1413
3193.00,0.1413
3192.00,0.1413
3191.00,0.1413
3190.00,0.1413
3189.00,0.1413
3188.00,0.1413
3187.00,0.1414
3186.00,0.1414
3185.00,0.1414
3184.00,0.1414
3183.00,0.1414
3182.00,0.1414
3181.00,0.1414
3180.00,0.1414
3179.00,0.1414
3178.00,0.1415
3177.00,0.1415
3176.00,0.1415
3175.00,0.1415
3174.00,0.1415
3173.00,0.1415
3172.00,0.1415
3171.00,0.1415
3170.00,0.1415
3169.00,0.1415
3168.00,0.1415
3167.00,0.1415
3166.00,0.1415
3165.00,0.1415
3164.00,0.1415
3163.00,0.1415
3162.00,0.1416
3161.00,0.1416
3160.00,0.1415
3159.00,0.1415
3158.00,0.1415
3157.00,0.1414
3156.00,0.1413
3155.00,0.1412
3154.00,0.1412
3153.00,0.1412
3152.00,0.1413
3151.00,0.1414
3150.00,0.1414
3149.00,0.1415
3148.00,0.1415
3147.00,0.1416
3146.00,0.1416
3145.00,0.1415
3144.00,0.1415
3143.00,0.1414
3142.00,0.1413
3141.00,0.1413
3140.00,0.1412
3139.00,0.1413
3138.00,0.1414
3137.00,0.1415
3136.00,0.1415
3135.00,0.1415
3134.00,0.1415
3133.00,0.1415
3132.00,0.1415
3131.00,0.1414
3130.00,0.1414
3129.00,0.1415
3128.00,0.1415
3127.00,0.1415
3126.00,0.1415
3125.00,0.1414
3124.00,0.1413
3123.00,0.1412
3122.00,0.1411
3121.00,0.1410
3120.00,0.1410
3119.00,0.1409
3118.00,0.1410
3117.00,0.1410
3116.00,0.1411
3115.00,0.1413
3114.00,0.1414
3113.00,0.1414
3112.00,0.1414
3111.00,0.1414
3110.00,0.1413
3109.00,0.1414
3108.00,0.1415
3107.00,0.1415
3106.00,0.1416
3105.00,0.1416
3104.00,0.1416
3103.00,0.1415
3102.00,0.1414
3101.00,0.1414
3100.00,0.1415
3099.00,0.1415
3098.00,0.1416
3097.00,0.1417
3096.00,0.1417
3095.00,0.1417
3094.00,0.1417
3093.00,0.1416
3092.00,0.1416
3091.00,0.1415
3090.00,0.1415
3089.00,0.1415
3088.00,0.1415
3087.00,0.1415
3086.00,0.1414
3085.00,0.1414
3084.00,0.1414
3083.00,0.1413
3082.00,0.1413
3081.00,0.1413
3080.00,0.1413
3079.00,0.1413
3078.00,0.1414
3077.00,0.1416
3076.00,0.1417
3075.00,0.1418
3074.00,0.1419
3073.00,0.1419
3072.00,0.1418
3071.00,0.1417
3070.00,0.1417
3069.00,0.1416
3068.00,0.1416
3067.00,0.1416
3066.00,0.1417
3065.00,0.1418
3064.00,0.1418
3063.00,0.1419
3062.00,0.1419
3061.00,0.1419
3060.00,0.1419
3059.00,0.1418
3058.00,0.1418
3057.00,0.1418
3056.00,0.1418
3055.00,0.1418
3054.00,0.1418
3053.00,0.1418
3052.00,0.1417
3051.00,0.1417
3050.00,0.1418
3049.00,0.1418
3048.00,0.1418
3047.00,0.1418
3046.00,0.1417
3045.00,0.1417
3044.00,0.1416
3043.00,0.1416
3042.00,0.1417
3041.00,0.1418
3040.00,0.1418
3039.00,0.1418
3038.00,0.1418
3037.00,0.1417
3036.00,0.1416
3035.00,0.1415
3034.00,0.1415
3033.00,0.1416
3032.00,0.1417
3031.00,0.1417
3030.00,0.1418
3029.00,0.1419
3028.00,0.1419
3027.00,0.1419
3026.00,0.1419
3025.00,0.1419
3024.00,0.1419
3023.00,0.1419
3022.00,0.1418
3021.00,0.1418
3020.00,0.1417
3019.00,0.1416
3018.00,0.1416
3017.00,0.1416
3016.00,0.1415
3015.00,0.1415
3014.00,0.1415
3013.00,0.1415
3012.00,0.1416
3011.00,0.1417
3010.00,0.1418
3009.00,0.1418
3008.00,0.1419
3007.00,0.1419
3006.00,0.1419
3005.00,0.1419
3004.00,0.1419
3003.00,0.1419
3002.00,0.1419
3001.00,0.1419
3000.00,0.1419
2999.00,0.1418
2998.00,0.1418
2997.00,0.1418
2996.00,0.1418
2995.00,0.1418
2994.00,0.1418
2993.00,0.1418
2992.00,0.1418
2991.00,0.1419
2990.00,0.1420
2989.00,0.1420
2988.00,0.1421
2987.00,0.1421
2986.00,0.1421
2985.00,0.1421
2984.00,0.1421
2983.00,0.1421
2982.00,0.1421
2981.00,0.1421
2980.00,0.1421
2979.00,0.1422
2978.00,0.1422
2977.00,0.1422
2976.00,0.1422
2975.00,0.1422
2974.00,0.1422
2973.00,0.1422
2972.00,0.1423
2971.00,0.1423
2970.00,0.1424
2969.00,0.1424
2968.00,0.1424
2967.00,0.1424
2966.00,0.1424
2965.00,0.1424
2964.00,0.1424
2963.00,0.1424
2962.00,0.1424
2961.00,0.1425
2960.00,0.1425
2959.00,0.1425
2958.00,0.1425
2957.00,0.1425
2956.00,0.1425
2955.00,0.1425
2954.00,0.1424
2953.00,0.1424
2952.00,0.1425
2951.00,0.1425
2950.00,0.1425
2949.00,0.1424
2948.00,0.1423
2947.00,0.1423
2946.00,0.1423
2945.00,0.1423
2944.00,0.1424
2943.00,0.1425
2942.00,0.1426
2941.00,0.1427
2940.00,0.1427
2939.00,0.1427
2938.00,0.1427
2937.00,0.1427
2936.00,0.1427
2935.00,0.1427
2934.00,0.1427
2933.00,0.1426
2932.00,0.1426
2931.00,0.1426
2930.00,0.1426
2929.00,0.1427
2928.00,0.1429
2927.00,0.1430
2926.00,0.1431
2925.00,0.1431
2924.00,0.1432
2923.00,0.1432
2922.00,0.1433
2921.00,0.1433
2920.00,0.1433
2919.00,0.1433
2918.00,0.1433
2917.00,0.1433
2916.00,0.1433
2915.00,0.1433
2914.00,0.1433
2913.00,0.1433
2912.00,0.1434
2911.00,0.1434
2910.00,0.1434
2909.00,0.1435
2908.00,0.1435
2907.00,0.1435
2906.00,0.1435
2905.00,0.1435
2904.00,0.1435
2903.00,0.1435
2902.00,0.1435
2901.00,0.1436
2900.00,0.1435
2899.00,0.1435
2898.00,0.1435
2897.00,0.1435
2896.00,0.1435
2895.00,0.1436
2894.00,0.1436
2893.00,0.1437
2892.00,0.1437
2891.00,0.1437
2890.00,0.1437
2889.00,0.1437
2888.00,0.1437
2887.00,0.1438
2886.00,0.1438
2885.00,0.1438
2884.00,0.1438
2883.00,0.1438
2882.00,0.1437
2881.00,0.1437
2880.00,0.1437
2879.00,0.1437
2878.00,0.1437
2877.00,0.1436
2876.00,0.1436
2875.00,0.1435
2874.00,0.1435
2873.00,0.1435
2872.00,0.1436
2871.00,0.1437
2870.00,0.1437
2869.00,0.1437
2868.00,0.1437
2867.00,0.1437
2866.00,0.1437
2865.00,0.1437
2864.00,0.1437
2863.00,0.1437
2862.00,0.1437
2861.00,0.1437
2860.00,0.1437
2859.00,0.1438
2858.00,0.1439
2857.00,0.1439
2856.00,0.1440
2855.00,0.1440
2854.00,0.1441
2853.00,0.1441
2852.00,0.1441
2851.00,0.1441
2850.00,0.1441
2849.00,0.1441
2848.00,0.1441
2847.00,0.1442
2846.00,0.1442
2845.00,0.1442
2844.00,0.1442
2843.00,0.1442
2842.00,0.1441
2841.00,0.1441
2840.00,0.1440
2839.00,0.1440
2838.00,0.1440
2837.00,0.1441
2836.00,0.1441
2835.00,0.1441
2834.00,0.1441
2833.00,0.1441
2832.00,0.1442
2831.00,0.1442
2830.00,0.1442
2829.00,0.1442
2828.00,0.1442
2827.00,0.1441
2826.00,0.1441
2825.00,0.1441
2824.00,0.1441
2823.00,0.1442
2822.00,0.1442
2821.00,0.1442
2820.00,0.1442
2819.00,0.1441
2818.00,0.1441
2817.00,0.1441
2816.00,0.1442
2815.00,0.1442
2814.00,0.1442
2813.00,0.1441
2812.00,0.1441
2811.00,0.1441
2810.00,0.1441
2809.00,0.1442
2808.00,0.1442
2807.00,0.1442
2806.00,0.1442
2805.00,0.1442
2804.00,0.1442
2803.00,0.1442
2802.00,0.1442
2801.00,0.1442
2800.00,0.1441
2799.00,0.1441
2798.00,0.1442
2797.00,0.1442
2796.00,0.1442
2795.00,0.1442
2794.00,0.1442
2793.00,0.1442
2792.00,0.1442
2791.00,0.1442
2790.00,0.1442
2789.00,0.1442
2788.00,0.1443
2787.00,0.1443
2786.00,0.1444
2785.00,0.1444
2784.00,0.1444
2783.00,0.1444
2782.00,0.1444
2781.00,0.1444
2780.00,0.1444
2779.00,0.1444
2778.00,0.1444
2777.00,0.1443
2776.00,0.1443
2775.00,0.1443
2774.00,0.1444
2773.00,0.1444
2772.00,0.1445
2771.00,0.1445
2770.00,0.1445
2769.00,0.1445
2768.00,0.1445
2767.00,0.1445
2766.00,0.1445
2765.00,0.1446
2764.00,0.1446
2763.00,0.1446
2762.00,0.1445
2761.00,0.1445
2760.00,0.1445
2759.00,0.1445
2758.00,0.1445
2757.00,0.1446
2756.00,0.1446
2755.00,0.1446
2754.00,0.1446
2753.00,0.1446
2752.00,0.1446
2751.00,0.1445
2750.00,0.1445
2749.00,0.1445
2748.00,0.1446
2747.00,0.1446
2746.00,0.1446
2745.00,0.1447
2744.00,0.1447
2743.00,0.1447
2742.00,0.1447
2741.00,0.1447
2740.00,0.1447
2739.00,0.1447
2738.00,0.1447
2737.00,0.1447
2736.00,0.1448
2735.00,0.1448
2734.00,0.1448
2733.00,0.1448
2732.00,0.1448
2731.00,0.1448
2730.00,0.1448
2729.00,0.1448
2728.00,0.1448
2727.00,0.1448
2726.00,0.1448
2725.00,0.1448
2724.00,0.1448
2723.00,0.1448
2722.00,0.1449
2721.00,0.1449
2720.00,0.1449
2719.00,0.1449
2718.00,0.1449
2717.00,0.1449
2716.00,0.1449
2715.00,0.1449
2714.00,0.1449
2713.00,0.1449
2712.00,0.1449
2711.00,0.1449
2710.00,0.1450
2709.00,0.1450
2708.00,0.1450
2707.00,0.1450
2706.00,0.1450
2705.00,0.1450
2704.00,0.1450
2703.00,0.1450
2702.00,0.1450
2701.00,0.1450
2700.00,0.1450
2699.00,0.1450
2698.00,0.1451
2697.00,0.1451
2696.00,0.1451
2695.00,0.1451
2694.00,0.1451
2693.00,0.1451
2692.00,0.1451
2691.00,0.1451
2690.00,0.1451
2689.00,0.1451
2688.00,0.1451
2687.00,0.1451
2686.00,0.1451
2685.00,0.1451
2684.00,0.1452
2683.00,0.1451
2682.00,0.1451
2681.00,0.1451
2680.00,0.1451
2679.00,0.1451
2678.00,0.1451
2677.00,0.1452
2676.00,0.1452
2675.00,0.1452
2674.00,0.1453
2673.00,0.1453
2672.00,0.1453
2671.00,0.1453
2670.00,0.1453
2669.00,0.1453
2668.00,0.1453
2667.00,0.1453
2666.00,0.1453
2665.00,0.1454
2664.00,0.1454
2663.00,0.1454
2662.00,0.1454
2661.00,0.1455
2660.00,0.1455
2659.00,0.1455
2658.00,0.1455
2657.00,0.1455
2656.00,0.1455
2655.00,0.1455
2654.00,0.1455
2653.00,0.1455
2652.00,0.1455
2651.00,0.1455
2650.00,0.1455
2649.00,0.1454
2648.00,0.1454
2647.00,0.1454
2646.00,0.1454
2645.00,0.1454
2644.00,0.1454
2643.00,0.1454
2642.00,0.1454
2641.00,0.1454
2640.00,0.1454
2639.00,0.1453
2638.00,0.1453
2637.00,0.1453
2636.00,0.1453
2635.00,0.1453
2634.00,0.1453
2633.00,0.1453
2632.00,0.1453
2631.00,0.1453
2630.00,0.1453
2629.00,0.1453
2628.00,0.1453
2627.00,0.1453
2626.00,0.1453
2625.00,0.1453
2624.00,0.1453
2623.00,0.1454
2622.00,0.1454
2621.00,0.1454
2620.00,0.1454
2619.00,0.1453
2618.00,0.1453
2617.00,0.1453
2616.00,0.1454
2615.00,0.1454
2614.00,0.1454
2613.00,0.1454
2612.00,0.1454
2611.00,0.1454
2610.00,0.1454
2609.00,0.1454
2608.00,0.1454
2607.00,0.1454
2606.00,0.1454
2605.00,0.1454
2604.00,0.1454
2603.00,0.1454
2602.00,0.1454
2601.00,0.1454
2600.00,0.1455
2599.00,0.1455
2598.00,0.1455
2597.00,0.1455
2596.00,0.1455
2595.00,0.1455
2594.00,0.1455
2593.00,0.1455
2592.00,0.1455
2591.00,0.1455
2590.00,0.1455
2589.00,0.1455
2588.00,0.1455
2587.00,0.1455
2586.00,0.1456
2585.00,0.1456
2584.00,0.1456
2583.00,0.1456
2582.00,0.1456
2581.00,0.1456
2580.00,0.1455
2579.00,0.1455
2578.00,0.1455
2577.00,0.1455
2576.00,0.1455
2575.00,0.1455
2574.00,0.1455
2573.00,0.1456
2572.00,0.1456
2571.00,0.1456
2570.00,0.1456
2569.00,0.1457
2568.00,0.1457
2567.00,0.1457
2566.00,0.1457
2565.00,0.1458
2564.00,0.1458
2563.00,0.1458
2562.00,0.1458
2561.00,0.1458
2560.00,0.1458
2559.00,0.1459
2558.00,0.1459
2557.00,0.1459
2556.00,0.1459
2555.00,0.1459
2554.00,0.1459
2553.00,0.1459
2552.00,0.1459
2551.00,0.1459
2550.00,0.1459
2549.00,0.1459
2548.00,0.1459
2547.00,0.1458
2546.00,0.1458
2545.00,0.1459
2544.00,0.1459
2543.00,0.1459
2542.00,0.1459
2541.00,0.1459
2540.00,0.1459
2539.00,0.1459
2538.00,0.1459
2537.00,0.1460
2536.00,0.1460
2535.00,0.1460
2534.00,0.1460
2533.00,0.1460
2532.00,0.1460
2531.00,0.1460
2530.00,0.1460
2529.00,0.1460
2528.00,0.1460
2527.00,0.1460
2526.00,0.1461
2525.00,0.1461
2524.00,0.1461
2523.00,0.1461
2522.00,0.1461
2521.00,0.1461
2520.00,0.1461
2519.00,0.1461
2518.00,0.1461
2517.00,0.1462
2516.00,0.1462
2515.00,0.1462
2514.00,0.1462
2513.00,0.1462
2512.00,0.1461
2511.00,0.1461
2510.00,0.1461
2509.00,0.1462
2508.00,0.1462
2507.00,0.1462
2506.00,0.1462
2505.00,0.1462
2504.00,0.1462
2503.00,0.1462
2502.00,0.1463
2501.00,0.1463
2500.00,0.1463
2499.00,0.1463
2498.00,0.1462
2497.00,0.1462
2496.00,0.1462
2495.00,0.1462
2494.00,0.1462
2493.00,0.1462
2492.00,0.1462
2491.00,0.1462
2490.00,0.1462
2489.00,0.1463
2488.00,0.1463
2487.00,0.1463
2486.00,0.1463
2485.00,0.1463
2484.00,0.1463
2483.00,0.1463
2482.00,0.1463
2481.00,0.1463
2480.00,0.1463
2479.00,0.1463
2478.00,0.1463
2477.00,0.1463
2476.00,0.1463
2475.00,0.1463
2474.00,0.1463
2473.00,0.1463
2472.00,0.1464
2471.00,0.1464
2470.00,0.1465
2469.00,0.1465
2468.00,0.1465
2467.00,0.1464
2466.00,0.1464
2465.00,0.1464
2464.00,0.1464
2463.00,0.1465
2462.00,0.1465
2461.00,0.1465
2460.00,0.1465
2459.00,0.1465
2458.00,0.1466
2457.00,0.1466
2456.00,0.1466
2455.00,0.1466
2454.00,0.1466
2453.00,0.1466
2452.00,0.1466
2451.00,0.1466
2450.00,0.1466
2449.00,0.1466
2448.00,0.1466
2447.00,0.1466
2446.00,0.1466
2445.00,0.1466
2444.00,0.1466
2443.00,0.1466
2442.00,0.1467
2441.00,0.1467
2440.00,0.1466
2439.00,0.1466
2438.00,0.1466
2437.00,0.1466
2436.00,0.1466
2435.00,0.1466
2434.00,0.1466
2433.00,0.1467
2432.00,0.1467
2431.00,0.1467
2430.00,0.1467
2429.00,0.1467
2428.00,0.1468
2427.00,0.1468
2426.00,0.1468
2425.00,0.1468
2424.00,0.1468
2423.00,0.1468
2422.00,0.1468
2421.00,0.1468
2420.00,0.1468
2419.00,0.1468
2418.00,0.1468
2417.00,0.1468
2416.00,0.1468
2415.00,0.1468
2414.00,0.1468
2413.00,0.1468
2412.00,0.1468
2411.00,0.1468
2410.00,0.1468
2409.00,0.1468
2408.00,0.1468
2407.00,0.1468
2406.00,0.1469
2405.00,0.1469
2404.00,0.1469
2403.00,0.1469
2402.00,0.1469
2401.00,0.1469
2400.00,0.1469
2399.00,0.1469
2398.00,0.1470
2397.00,0.1470
2396.00,0.1470
2395.00,0.1470
2394.00,0.1470
2393.00,0.1470
2392.00,0.1470
2391.00,0.1470
2390.00,0.1470
2389.00,0.1470
2388.00,0.1470
2387.00,0.1469
2386.00,0.1469
2385.00,0.1469
2384.00,0.1468
2383.00,0.1467
2382.00,0.1466
2381.00,0.1465
2380.00,0.1464
2379.00,0.1463
2378.00,0.1462
2377.00,0.1462
2376.00,0.1461
2375.00,0.1461
2374.00,0.1460
2373.00,0.1460
2372.00,0.1459
2371.00,0.1457
2370.00,0.1456
2369.00,0.1456
2368.00,0.1455
2367.00,0.1455
2366.00,0.1455
2365.00,0.1455
2364.00,0.1456
2363.00,0.1457
2362.00,0.1458
2361.00,0.1459
2360.00,0.1461
2359.00,0.1463
2358.00,0.1465
2357.00,0.1468
2356.00,0.1471
2355.00,0.1475
2354.00,0.1480
2353.00,0.1485
2352.00,0.1487
2351.00,0.1485
2350.00,0.1478
2349.00,0.1470
2348.00,0.1465
2347.00,0.1465
2346.00,0.1469
2345.00,0.1473
2344.00,0.1473
2343.00,0.1471
2342.00,0.1469
2341.00,0.1468
2340.00,0.1468
2339.00,0.1467
2338.00,0.1468
2337.00,0.1469
2336.00,0.1470
2335.00,0.1470
2334.00,0.1470
2333.00,0.1470
2332.00,0.1471
2331.00,0.1473
2330.00,0.1476
2329.00,0.1478
2328.00,0.1479
2327.00,0.1480
2326.00,0.1480
2325.00,0.1480
2324.00,0.1479
2323.00,0.1480
2322.00,0.1481
2321.00,0.1482
2320.00,0.1483
2319.00,0.1484
2318.00,0.1484
2317.00,0.1483
2316.00,0.1483
2315.00,0.1482
2314.00,0.1482
2313.00,0.1483
2312.00,0.1483
2311.00,0.1483
2310.00,0.1483
2309.00,0.1482
2308.00,0.1482
2307.00,0.1481
2306.00,0.1481
2305.00,0.1481
2304.00,0.1481
2303.00,0.1481
2302.00,0.1481
2301.00,0.1480
2300.00,0.1480
2299.00,0.1479
2298.00,0.1479
2297.00,0.1479
2296.00,0.1479
2295.00,0.1480
2294.00,0.1480
2293.00,0.1481
2292.00,0.1481
2291.00,0.1481
2290.00,0.1481
2289.00,0.1481
2288.00,0.1481
2287.00,0.1481
2286.00,0.1481
2285.00,0.1481
2284.00,0.1480
2283.00,0.1480
2282.00,0.1480
2281.00,0.1480
2280.00,0.1480
2279.00,0.1480
2278.00,0.1480
2277.00,0.1480
2276.00,0.1480
2275.00,0.1480
2274.00,0.1480
2273.00,0.1480
2272.00,0.1480
2271.00,0.1481
2270.00,0.1481
2269.00,0.1480
2268.00,0.1479
2267.00,0.1478
2266.00,0.1478
2265.00,0.1479
2264.00,0.1479
2263.00,0.1479
2262.00,0.1479
2261.00,0.1479
2260.00,0.1479
2259.00,0.1479
2258.00,0.1478
2257.00,0.1478
2256.00,0.1477
2255.00,0.1477
2254.00,0.1477
2253.00,0.1478
2252.00,0.1479
2251.00,0.1480
2250.00,0.1480
2249.00,0.1480
2248.00,0.1480
2247.00,0.1479
2246.00,0.1479
2245.00,0.1479
2244.00,0.1480
2243.00,0.1480
2242.00,0.1480
2241.00,0.1480
2240.00,0.1479
2239.00,0.1479
2238.00,0.1479
2237.00,0.1479
2236.00,0.1479
2235.00,0.1479
2234.00,0.1479
2233.00,0.1480
2232.00,0.1480
2231.00,0.1480
2230.00,0.1480
2229.00,0.1480
2228.00,0.1480
2227.00,0.1480
2226.00,0.1481
2225.00,0.1481
2224.00,0.1482
2223.00,0.1481
2222.00,0.1481
2221.00,0.1480
2220.00,0.1480
2219.00,0.1479
2218.00,0.1478
2217.00,0.1478
2216.00,0.1477
2215.00,0.1478
2214.00,0.1479
2213.00,0.1480
2212.00,0.1481
2211.00,0.1481
2210.00,0.1481
2209.00,0.1481
2208.00,0.1481
2207.00,0.1481
2206.00,0.1481
2205.00,0.1481
2204.00,0.1482
2203.00,0.1482
2202.00,0.1482
2201.00,0.1481
2200.00,0.1480
2199.00,0.1479
2198.00,0.1480
2197.00,0.1481
2196.00,0.1482
2195.00,0.1481
2194.00,0.1481
2193.00,0.1481
2192.00,0.1480
2191.00,0.1480
2190.00,0.1479
2189.00,0.1479
2188.00,0.1479
2187.00,0.1479
2186.00,0.1479
2185.00,0.1479
2184.00,0.1477
2183.00,0.1475
2182.00,0.1475
2181.00,0.1476
2180.00,0.1477
2179.00,0.1478
2178.00,0.1478
2177.00,0.1477
2176.00,0.1476
2175.00,0.1477
2174.00,0.1478
2173.00,0.1480
2172.00,0.1481
2171.00,0.1482
2170.00,0.1482
2169.00,0.1481
2168.00,0.1480
2167.00,0.1478
2166.00,0.1477
2165.00,0.1479
2164.00,0.1480
2163.00,0.1480
2162.00,0.1477
2161.00,0.1473
2160.00,0.1468
2159.00,0.1464
2158.00,0.1463
2157.00,0.1465
2156.00,0.1466
2155.00,0.1467
2154.00,0.1467
2153.00,0.1468
2152.00,0.1469
2151.00,0.1470
2150.00,0.1472
2149.00,0.1473
2148.00,0.1473
2147.00,0.1472
2146.00,0.1472
2145.00,0.1472
2144.00,0.1472
2143.00,0.1473
2142.00,0.1473
2141.00,0.1474
2140.00,0.1474
2139.00,0.1473
2138.00,0.1473
2137.00,0.1472
2136.00,0.1471
2135.00,0.1470
2134.00,0.1471
2133.00,0.1472
2132.00,0.1473
2131.00,0.1475
2130.00,0.1476
2129.00,0.1477
2128.00,0.1478
2127.00,0.1479
2126.00,0.1480
2125.00,0.1480
2124.00,0.1479
2123.00,0.1479
2122.00,0.1479
2121.00,0.1479
2120.00,0.1479
2119.00,0.1480
2118.00,0.1481
2117.00,0.1482
2116.00,0.1482
2115.00,0.1483
2114.00,0.1483
2113.00,0.1483
2112.00,0.1483
2111.00,0.1483
2110.00,0.1483
2109.00,0.1483
2108.00,0.1482
2107.00,0.1481
2106.00,0.1481
2105.00,0.1481
2104.00,0.1482
2103.00,0.1483
2102.00,0.1484
2101.00,0.1485
2100.00,0.1484
2099.00,0.1484
2098.00,0.1483
2097.00,0.1482
2096.00,0.1481
2095.00,0.1481
2094.00,0.1481
2093.00,0.1481
2092.00,0.1481
2091.00,0.1482
2090.00,0.1482
2089.00,0.1482
2088.00,0.1482
2087.00,0.1481
2086.00,0.1481
2085.00,0.1481
2084.00,0.1480
2083.00,0.1480
2082.00,0.1480
2081.00,0.1480
2080.00,0.1481
2079.00,0.1481
2078.00,0.1481
2077.00,0.1480
2076.00,0.1480
2075.00,0.1480
2074.00,0.1480
2073.00,0.1480
2072.00,0.1480
2071.00,0.1479
2070.00,0.1479
2069.00,0.1478
2068.00,0.1477
2067.00,0.1477
2066.00,0.1477
2065.00,0.1477
2064.00,0.1478
2063.00,0.1477
2062.00,0.1477
2061.00,0.1478
2060.00,0.1478
2059.00,0.1478
2058.00,0.1478
2057.00,0.1477
2056.00,0.1476
2055.00,0.1475
2054.00,0.1475
2053.00,0.1477
2052.00,0.1477
2051.00,0.1476
2050.00,0.1474
2049.00,0.1473
2048.00,0.1472
2047.00,0.1471
2046.00,0.1470
2045.00,0.1471
2044.00,0.1471
2043.00,0.1472
2042.00,0.1473
2041.00,0.1474
2040.00,0.1473
2039.00,0.1471
2038.00,0.1469
2037.00,0.1467
2036.00,0.1464
2035.00,0.1462
2034.00,0.1462
2033.00,0.1464
2032.00,0.1466
2031.00,0.1468
2030.00,0.1470
2029.00,0.1472
2028.00,0.1471
2027.00,0.1469
2026.00,0.1468
2025.00,0.1467
2024.00,0.1467
2023.00,0.1467
2022.00,0.1467
2021.00,0.1469
2020.00,0.1469
2019.00,0.1469
2018.00,0.1469
2017.00,0.1469
2016.00,0.1468
2015.00,0.1467
2014.00,0.1466
2013.00,0.1466
2012.00,0.1465
2011.00,0.1464
2010.00,0.1464
2009.00,0.1465
2008.00,0.1466
2007.00,0.1467
2006.00,0.1468
2005.00,0.1470
2004.00,0.1470
2003.00,0.1470
2002.00,0.1469
2001.00,0.1470
2000.00,0.1471
1999.00,0.1471
1998.00,0.1472
1997.00,0.1473
1996.00,0.1473
1995.00,0.1473
1994.00,0.1472
1993.00,0.1472
1992.00,0.1472
1991.00,0.1472
1990.00,0.1473
1989.00,0.1474
1988.00,0.1474
1987.00,0.1473
1986.00,0.1472
1985.00,0.1474
1984.00,0.1475
1983.00,0.1475
1982.00,0.1475
1981.00,0.1474
1980.00,0.1471
1979.00,0.1468
1978.00,0.1465
1977.00,0.1465
1976.00,0.1465
1975.00,0.1465
1974.00,0.1466
1973.00,0.1467
1972.00,0.1468
1971.00,0.1466
1970.00,0.1464
1969.00,0.1463
1968.00,0.1462
1967.00,0.1462
1966.00,0.1464
1965.00,0.1465
1964.00,0.1465
1963.00,0.1465
1962.00,0.1464
1961.00,0.1465
1960.00,0.1466
1959.00,0.1466
1958.00,0.1467
1957.00,0.1468
1956.00,0.1468
1955.00,0.1467
1954.00,0.1467
1953.00,0.1468
1952.00,0.1468
1951.00,0.1468
1950.00,0.1469
1949.00,0.1470
1948.00,0.1471
1947.00,0.1471
1946.00,0.1471
1945.00,0.1471
1944.00,0.1471
1943.00,0.1470
1942.00,0.1469
1941.00,0.1470
1940.00,0.1470
1939.00,0.1471
1938.00,0.1472
1937.00,0.1472
1936.00,0.1472
1935.00,0.1472
1934.00,0.1472
1933.00,0.1472
1932.00,0.1473
1931.00,0.1473
1930.00,0.1473
1929.00,0.1474
1928.00,0.1473
1927.00,0.1472
1926.00,0.1471
1925.00,0.1472
1924.00,0.1472
1923.00,0.1471
1922.00,0.1471
1921.00,0.1473
1920.00,0.1474
1919.00,0.1474
1918.00,0.1474
1917.00,0.1473
1916.00,0.1473
1915.00,0.1473
1914.00,0.1473
1913.00,0.1473
1912.00,0.1473
1911.00,0.1472
1910.00,0.1472
1909.00,0.1472
1908.00,0.1472
1907.00,0.1472
1906.00,0.1473
1905.00,0.1473
1904.00,0.1473
1903.00,0.1472
1902.00,0.1472
1901.00,0.1473
1900.00,0.1472
1899.00,0.1472
1898.00,0.1472
1897.00,0.1472
1896.00,0.1472
1895.00,0.1471
1894.00,0.1471
1893.00,0.1471
1892.00,0.1471
1891.00,0.1471
1890.00,0.1470
1889.00,0.1470
1888.00,0.1469
1887.00,0.1469
1886.00,0.1469
1885.00,0.1470
1884.00,0.1470
1883.00,0.1469
1882.00,0.1470
1881.00,0.1470
1880.00,0.1470
1879.00,0.1469
1878.00,0.1469
1877.00,0.1469
1876.00,0.1469
1875.00,0.1468
1874.00,0.1467
1873.00,0.1467
1872.00,0.1467
1871.00,0.1466
1870.00,0.1465
1869.00,0.1464
1868.00,0.1464
1867.00,0.1463
1866.00,0.1464
1865.00,0.1466
1864.00,0.1466
1863.00,0.1465
1862.00,0.1465
1861.00,0.1465
1860.00,0.1465
1859.00,0.1464
1858.00,0.1464
1857.00,0.1464
1856.00,0.1463
1855.00,0.1463
1854.00,0.1462
1853.00,0.1462
1852.00,0.1461
1851.00,0.1460
1850.00,0.1459
1849.00,0.1458
1848.00,0.1458
1847.00,0.1459
1846.00,0.1461
1845.00,0.1462
1844.00,0.1461
1843.00,0.1458
1842.00,0.1458
1841.00,0.1459
1840.00,0.1460
1839.00,0.1458
1838.00,0.1457
1837.00,0.1457
1836.00,0.1457
1835.00,0.1456
1834.00,0.1455
1833.00,0.1455
1832.00,0.1454
1831.00,0.1454
1830.00,0.1453
1829.00,0.1452
1828.00,0.1453
1827.00,0.1454
1826.00,0.1454
1825.00,0.1453
1824.00,0.1452
1823.00,0.1451
1822.00,0.1451
1821.00,0.1452
1820.00,0.1452
1819.00,0.1451
1818.00,0.1450
1817.00,0.1450
1816.00,0.1450
1815.00,0.1449
1814.00,0.1448
1813.00,0.1448
1812.00,0.1448
1811.00,0.1447
1810.00,0.1446
1809.00,0.1447
1808.00,0.1447
1807.00,0.1446
1806.00,0.1445
1805.00,0.1445
1804.00,0.1444
1803.00,0.1443
1802.00,0.1442
1801.00,0.1443
1800.00,0.1443
1799.00,0.1442
1798.00,0.1441
1797.00,0.1441
1796.00,0.1440
1795.00,0.1440
1794.00,0.1440
1793.00,0.1440
1792.00,0.1439
1791.00,0.1437
1790.00,0.1437
1789.00,0.1438
1788.00,0.1439
1787.00,0.1439
1786.00,0.1438
1785.00,0.1437
1784.00,0.1436
1783.00,0.1435
1782.00,0.1435
1781.00,0.1435
1780.00,0.1434
1779.00,0.1434
1778.00,0.1434
1777.00,0.1435
1776.00,0.1435
1775.00,0.1436
1774.00,0.1436
1773.00,0.1435
1772.00,0.1434
1771.00,0.1434
1770.00,0.1437
1769.00,0.1439
1768.00,0.1439
1767.00,0.1437
1766.00,0.1436
1765.00,0.1438
1764.00,0.1439
1763.00,0.1440
1762.00,0.1438
1761.00,0.1436
1760.00,0.1437
1759.00,0.1439
1758.00,0.1440
1757.00,0.1439
1756.00,0.1438
1755.00,0.1439
1754.00,0.1440
1753.00,0.1441
1752.00,0.1440
1751.00,0.1439
1750.00,0.1439
1749.00,0.1441
1748.00,0.1443
1747.00,0.1445
1746.00,0.1446
1745.00,0.1446
1744.00,0.1447
1743.00,0.1449
1742.00,0.1451
1741.00,0.1454
1740.00,0.1455
1739.00,0.1455
1738.00,0.1456
1737.00,0.1461
1736.00,0.1465
1735.00,0.1465
1734.00,0.1465
1733.00,0.1462
1732.00,0.1464
1731.00,0.1469
1730.00,0.1474
1729.00,0.1476
1728.00,0.1478
1727.00,0.1480
1726.00,0.1482
1725.00,0.1483
1724.00,0.1485
1723.00,0.1485
1722.00,0.1485
1721.00,0.1487
1720.00,0.1486
1719.00,0.1484
1718.00,0.1483
1717.00,0.1484
1716.00,0.1485
1715.00,0.1486
1714.00,0.1488
1713.00,0.1490
1712.00,0.1491
1711.00,0.1490
1710.00,0.1489
1709.00,0.1490
1708.00,0.1490
1707.00,0.1491
1706.00,0.1491
1705.00,0.1491
1704.00,0.1494
1703.00,0.1498
1702.00,0.1500
1701.00,0.1499
1700.00,0.1495
1699.00,0.1491
1698.00,0.1497
1697.00,0.1504
1696.00,0.1504
1695.00,0.1497
1694.00,0.1493
1693.00,0.1498
1692.00,0.1502
1691.00,0.1502
1690.00,0.1500
1689.00,0.1500
1688.00,0.1503
1687.00,0.1505
1686.00,0.1503
1685.00,0.1502
1684.00,0.1502
1683.00,0.1500
1682.00,0.1504
1681.00,0.1508
1680.00,0.1510
1679.00,0.1511
1678.00,0.1514
1677.00,0.1516
1676.00,0.1516
1675.00,0.1516
1674.00,0.1514
1673.00,0.1515
1672.00,0.1518
1671.00,0.1520
1670.00,0.1523
1669.00,0.1524
1668.00,0.1524
1667.00,0.1526
1666.00,0.1528
1665.00,0.1530
1664.00,0.1531
1663.00,0.1533
1662.00,0.1535
1661.00,0.1537
1660.00,0.1539
1659.00,0.1541
1658.00,0.1542
1657.00,0.1542
1656.00,0.1544
1655.00,0.1544
1654.00,0.1549
1653.00,0.1556
1652.00,0.1547
1651.00,0.1545
1650.00,0.1553
1649.00,0.1559
1648.00,0.1564
1647.00,0.1571
1646.00,0.1575
1645.00,0.1575
1644.00,0.1576
1643.00,0.1579
1642.00,0.1582
1641.00,0.1583
1640.00,0.1583
1639.00,0.1584
1638.00,0.1587
1637.00,0.1592
1636.00,0.1600
1635.00,0.1605
1634.00,0.1605
1633.00,0.1608
1632.00,0.1612
1631.00,0.1614
1630.00,0.1617
1629.00,0.1620
1628.00,0.1623
1627.00,0.1627
1626.00,0.1632
1625.00,0.1636
1624.00,0.1641
1623.00,0.1647
1622.00,0.1651
1621.00,0.1654
1620.00,0.1657
1619.00,0.1660
1618.00,0.1663
1617.00,0.1667
1616.00,0.1670
1615.00,0.1672
1614.00,0.1677
1613.00,0.1681
1612.00,0.1684
1611.00,0.1687
1610.00,0.1691
1609.00,0.1697
1608.00,0.1702
1607.00,0.1707
1606.00,0.1714
1605.00,0.1720
1604.00,0.1727
1603.00,0.1735
1602.00,0.1745
1601.00,0.1752
1600.00,0.1758
1599.00,0.1762
1598.00,0.1765
1597.00,0.1769
1596.00,0.1774
1595.00,0.1779
1594.00,0.1782
1593.00,0.1782
1592.00,0.1779
1591.00,0.1776
1590.00,0.1774
1589.00,0.1773
1588.00,0.1772
1587.00,0.1772
1586.00,0.1774
1585.00,0.1775
1584.00,0.1776
1583.00,0.1779
1582.00,0.1781
1581.00,0.1782
1580.00,0.1783
1579.00,0.1785
1578.00,0.1787
1577.00,0.1791
1576.00,0.1797
1575.00,0.1800
1574.00,0.1802
1573.00,0.1804
1572.00,0.1804
1571.00,0.1805
1570.00,0.1810
1569.00,0.1816
1568.00,0.1820
1567.00,0.1824
1566.00,0.1828
1565.00,0.1831
1564.00,0.1836
1563.00,0.1842
1562.00,0.1843
1561.00,0.1836
1560.00,0.1834
1559.00,0.1858
1558.00,0.1872
1557.00,0.1871
1556.00,0.1873
1555.00,0.1875
1554.00,0.1876
1553.00,0.1876
1552.00,0.1880
1551.00,0.1885
1550.00,0.1889
1549.00,0.1890
1548.00,0.1887
1547.00,0.1882
1546.00,0.1873
1545.00,0.1862
1544.00,0.1854
1543.00,0.1847
1542.00,0.1841
1541.00,0.1841
1540.00,0.1845
1539.00,0.1840
1538.00,0.1831
1537.00,0.1828
1536.00,0.1826
1535.00,0.1823
1534.00,0.1821
1533.00,0.1822
1532.00,0.1822
1531.00,0.1820
1530.00,0.1817
1529.00,0.1814
1528.00,0.1812
1527.00,0.1810
1526.00,0.1808
1525.00,0.1805
1524.00,0.1803
1523.00,0.1801
1522.00,0.1801
1521.00,0.1802
1520.00,0.1800
1519.00,0.1797
1518.00,0.1795
1517.00,0.1795
1516.00,0.1795
1515.00,0.1794
1514.00,0.1792
1513.00,0.1789
1512.00,0.1785
1511.00,0.1780
1510.00,0.1774
1509.00,0.1769
1508.00,0.1770
1507.00,0.1781
1506.00,0.1787
1505.00,0.1781
1504.00,0.1778
1503.00,0.1775
1502.00,0.1772
1501.00,0.1767
1500.00,0.1764
1499.00,0.1763
1498.00,0.1763
1497.00,0.1766
1496.00,0.1768
1495.00,0.1768
1494.00,0.1766
1493.00,0.1765
1492.00,0.1763
1491.00,0.1762
1490.00,0.1763
1489.00,0.1767
1488.00,0.1769
1487.00,0.1768
1486.00,0.1766
1485.00,0.1764
1484.00,0.1762
1483.00,0.1760
1482.00,0.1759
1481.00,0.1758
1480.00,0.1758
1479.00,0.1757
1478.00,0.1755
1477.00,0.1754
1476.00,0.1754
1475.00,0.1754
1474.00,0.1756
1473.00,0.1760
1472.00,0.1765
1471.00,0.1765
1470.00,0.1764
1469.00,0.1763
1468.00,0.1761
1467.00,0.1760
1466.00,0.1760
1465.00,0.1763
1464.00,0.1766
1463.00,0.1766
1462.00,0.1764
1461.00,0.1761
1460.00,0.1758
1459.00,0.1757
1458.00,0.1762
1457.00,0.1772
1456.00,0.1775
1455.00,0.1774
1454.00,0.1773
1453.00,0.1773
1452.00,0.1774
1451.00,0.1774
1450.00,0.1775
1449.00,0.1776
1448.00,0.1779
1447.00,0.1781
1446.00,0.1780
1445.00,0.1780
1444.00,0.1780
1443.00,0.1780
1442.00,0.1779
1441.00,0.1778
1440.00,0.1778
1439.00,0.1779
1438.00,0.1779
1437.00,0.1781
1436.00,0.1785
1435.00,0.1785
1434.00,0.1784
1433.00,0.1783
1432.00,0.1782
1431.00,0.1783
1430.00,0.1785
1429.00,0.1786
1428.00,0.1788
1427.00,0.1788
1426.00,0.1787
1425.00,0.1786
1424.00,0.1789
1423.00,0.1792
1422.00,0.1794
1421.00,0.1793
1420.00,0.1794
1419.00,0.1797
1418.00,0.1801
1417.00,0.1803
1416.00,0.1805
1415.00,0.1806
1414.00,0.1806
1413.00,0.1806
1412.00,0.1808
1411.00,0.1810
1410.00,0.1810
1409.00,0.1811
1408.00,0.1812
1407.00,0.1814
1406.00,0.1817
1405.00,0.1821
1404.00,0.1826
1403.00,0.1830
1402.00,0.1832
1401.00,0.1831
1400.00,0.1832
1399.00,0.1834
1398.00,0.1835
1397.00,0.1836
1396.00,0.1837
1395.00,0.1840
1394.00,0.1841
1393.00,0.1841
1392.00,0.1841
1391.00,0.1842
1390.00,0.1842
1389.00,0.1843
1388.00,0.1845
1387.00,0.1849
1386.00,0.1852
1385.00,0.1854
1384.00,0.1855
1383.00,0.1855
1382.00,0.1855
1381.00,0.1855
1380.00,0.1854
1379.00,0.1854
1378.00,0.1854
1377.00,0.1853
1376.00,0.1853
1375.00,0.1854
1374.00,0.1856
1373.00,0.1858
1372.00,0.1858
1371.00,0.1858
1370.00,0.1858
1369.00,0.1858
1368.00,0.1859
1367.00,0.1859
1366.00,0.1859
1365.00,0.1858
1364.00,0.1858
1363.00,0.1860
1362.00,0.1863
1361.00,0.1865
1360.00,0.1866
1359.00,0.1866
1358.00,0.1866
1357.00,0.1866
1356.00,0.1867
1355.00,0.1868
1354.00,0.1869
1353.00,0.1870
1352.00,0.1871
1351.00,0.1871
1350.00,0.1872
1349.00,0.1873
1348.00,0.1874
1347.00,0.1875
1346.00,0.1875
1345.00,0.1876
1344.00,0.1876
1343.00,0.1876
1342.00,0.1876
1341.00,0.1876
1340.00,0.1878
1339.00,0.1881
1338.00,0.1883
1337.00,0.1885
1336.00,0.1886
1335.00,0.1886
1334.00,0.1886
1333.00,0.1887
1332.00,0.1887
1331.00,0.1889
1330.00,0.1890
1329.00,0.1891
1328.00,0.1892
1327.00,0.1894
1326.00,0.1895
1325.00,0.1896
1324.00,0.1898
1323.00,0.1899
1322.00,0.1900
1321.00,0.1901
1320.00,0.1903
1319.00,0.1906
1318.00,0.1908
1317.00,0.1910
1316.00,0.1912
1315.00,0.1913
1314.00,0.1914
1313.00,0.1915
1312.00,0.1917
1311.00,0.1919
1310.00,0.1920
1309.00,0.1921
1308.00,0.1922
1307.00,0.1923
1306.00,0.1925
1305.00,0.1926
1304.00,0.1927
1303.00,0.1929
1302.00,0.1930
1301.00,0.1932
1300.00,0.1933
1299.00,0.1935
1298.00,0.1937
1297.00,0.1938
1296.00,0.1940
1295.00,0.1943
1294.00,0.1945
1293.00,0.1947
1292.00,0.1949
1291.00,0.1951
1290.00,0.1953
1289.00,0.1955
1288.00,0.1957
1287.00,0.1960
1286.00,0.1962
1285.00,0.1964
1284.00,0.1966
1283.00,0.1968
1282.00,0.1970
1281.00,0.1972
1280.00,0.1974
1279.00,0.1976
1278.00,0.1977
1277.00,0.1979
1276.00,0.1981
1275.00,0.1982
1274.00,0.1984
1273.00,0.1986
1272.00,0.1988
1271.00,0.1990
1270.00,0.1992
1269.00,0.1995
1268.00,0.1997
1267.00,0.2000
1266.00,0.2002
1265.00,0.2005
1264.00,0.2008
1263.00,0.2011
1262.00,0.2013
1261.00,0.2016
1260.00,0.2019
1259.00,0.2022
1258.00,0.2025
1257.00,0.2028
1256.00,0.2030
1255.00,0.2033
1254.00,0.2035
1253.00,0.2038
1252.00,0.2041
1251.00,0.2044
1250.00,0.2047
1249.00,0.2050
1248.00,0.2053
1247.00,0.2056
1246.00,0.2059
1245.00,0.2062
1244.00,0.2065
1243.00,0.2069
1242.00,0.2072
1241.00,0.2075
1240.00,0.2077
1239.00,0.2080
1238.00,0.2083
1237.00,0.2086
1236.00,0.2090
1235.00,0.2093
1234.00,0.2096
1233.00,0.2100
1232.00,0.2103
1231.00,0.2106
1230.00,0.2109
1229.00,0.2111
1228.00,0.2114
1227.00,0.2116
1226.00,0.2119
1225.00,0.2121
1224.00,0.2124
1223.00,0.2126
1222.00,0.2129
1221.00,0.2131
1220.00,0.2133
1219.00,0.2136
1218.00,0.2138
1217.00,0.2141
1216.00,0.2143
1215.00,0.2146
1214.00,0.2149
1213.00,0.2151
1212.00,0.2154
1211.00,0.2157
1210.00,0.2159
1209.00,0.2161
1208.00,0.2164
1207.00,0.2166
1206.00,0.2169
1205.00,0.2171
1204.00,0.2174
1203.00,0.2177
1202.00,0.2179
1201.00,0.2181
1200.00,0.2183
1199.00,0.2186
1198.00,0.2189
1197.00,0.2191
1196.00,0.2194
1195.00,0.2197
1194.00,0.2199
1193.00,0.2201
1192.00,0.2204
1191.00,0.2206
1190.00,0.2209
1189.00,0.2211
1188.00,0.2214
1187.00,0.2217
1186.00,0.2219
1185.00,0.2221
1184.00,0.2223
1183.00,0.2225
1182.00,0.2228
1181.00,0.2231
1180.00,0.2235
1179.00,0.2239
1178.00,0.2242
1177.00,0.2244
1176.00,0.2246
1175.00,0.2248
1174.00,0.2250
1173.00,0.2253
1172.00,0.2255
1171.00,0.2258
1170.00,0.2260
1169.00,0.2263
1168.00,0.2265
1167.00,0.2268
1166.00,0.2271
1165.00,0.2273
1164.00,0.2276
1163.00,0.2279
1162.00,0.2281
1161.00,0.2284
1160.00,0.2286
1159.00,0.2288
1158.00,0.2290
1157.00,0.2292
1156.00,0.2294
1155.00,0.2296
1154.00,0.2298
1153.00,0.2300
1152.00,0.2303
1151.00,0.2306
1150.00,0.2309
1149.00,0.2311
1148.00,0.2314
1147.00,0.2316
1146.00,0.2318
1145.00,0.2321
1144.00,0.2323
1143.00,0.2326
1142.00,0.2329
1141.00,0.2331
1140.00,0.2334
1139.00,0.2337
1138.00,0.2340
1137.00,0.2343
1136.00,0.2346
1135.00,0.2349
1134.00,0.2352
1133.00,0.2355
1132.00,0.2358
1131.00,0.2361
1130.00,0.2365
1129.00,0.2368
1128.00,0.2372
1127.00,0.2375
1126.00,0.2378
1125.00,0.2382
1124.00,0.2386
1123.00,0.2390
1122.00,0.2394
1121.00,0.2399
1120.00,0.2404
1119.00,0.2409
1118.00,0.2413
1117.00,0.2418
1116.00,0.2423
1115.00,0.2428
1114.00,0.2432
1113.00,0.2436
1112.00,0.2441
1111.00,0.2446
1110.00,0.2451
1109.00,0.2456
1108.00,0.2461
1107.00,0.2467
1106.00,0.2472
1105.00,0.2477
1104.00,0.2482
1103.00,0.2486
1102.00,0.2490
1101.00,0.2494
1100.00,0.2498
1099.00,0.2502
1098.00,0.2506
1097.00,0.2509
1096.00,0.2512
1095.00,0.2515
1094.00,0.2517
1093.00,0.2520
1092.00,0.2523
1091.00,0.2526
1090.00,0.2528
1089.00,0.2530
1088.00,0.2533
1087.00,0.2535
1086.00,0.2537
1085.00,0.2539
1084.00,0.2542
1083.00,0.2544
1082.00,0.2545
1081.00,0.2547
1080.00,0.2549
1079.00,0.2551
1078.00,0.2553
1077.00,0.2556
1076.00,0.2558
1075.00,0.2560
1074.00,0.2562
1073.00,0.2565
1072.00,0.2568
1071.00,0.2572
1070.00,0.2578
1069.00,0.2584
1068.00,0.2591
1067.00,0.2595
1066.00,0.2597
1065.00,0.2597
1064.00,0.2595
1063.00,0.2594
1062.00,0.2593
1061.00,0.2593
1060.00,0.2594
1059.00,0.2595
1058.00,0.2596
1057.00,0.2597
1056.00,0.2598
1055.00,0.2599
1054.00,0.2600
1053.00,0.2602
1052.00,0.2605
1051.00,0.2608
1050.00,0.2611
1049.00,0.2615
1048.00,0.2619
1047.00,0.2622
1046.00,0.2624
1045.00,0.2625
1044.00,0.2627
1043.00,0.2629
1042.00,0.2630
1041.00,0.2632
1040.00,0.2634
1039.00,0.2635
1038.00,0.2637
1037.00,0.2638
1036.00,0.2641
1035.00,0.2643
1034.00,0.2644
1033.00,0.2645
1032.00,0.2645
1031.00,0.2645
1030.00,0.2643
1029.00,0.2641
1028.00,0.2639
1027.00,0.2636
1026.00,0.2633
1025.00,0.2631
1024.00,0.2629
1023.00,0.2627
1022.00,0.2625
1021.00,0.2623
1020.00,0.2621
1019.00,0.2618
1018.00,0.2615
1017.00,0.2611
1016.00,0.2608
1015.00,0.2606
1014.00,0.2604
1013.00,0.2603
1012.00,0.2601
1011.00,0.2600
1010.00,0.2598
1009.00,0.2595
1008.00,0.2594
1007.00,0.2592
1006.00,0.2589
1005.00,0.2587
1004.00,0.2585
1003.00,0.2583
1002.00,0.2579
1001.00,0.2575
1000.00,0.2571
999.00,0.2567
998.00,0.2562
997.00,0.2558
996.00,0.2553
995.00,0.2549
994.00,0.2544
993.00,0.2540
992.00,0.2535
991.00,0.2530
990.00,0.2525
989.00,0.2521
988.00,0.2517
987.00,0.2513
986.00,0.2509
985.00,0.2506
984.00,0.2503
983.00,0.2500
982.00,0.2496
981.00,0.2493
980.00,0.2491
979.00,0.2487
978.00,0.2483
977.00,0.2479
976.00,0.2476
975.00,0.2473
974.00,0.2470
973.00,0.2467
972.00,0.2464
971.00,0.2461
970.00,0.2458
969.00,0.2455
968.00,0.2453
967.00,0.2450
966.00,0.2447
965.00,0.2445
964.00,0.2442
963.00,0.2440
962.00,0.2437
961.00,0.2435
960.00,0.2433
959.00,0.2431
958.00,0.2429
957.00,0.2426
956.00,0.2424
955.00,0.2422
954.00,0.2420
953.00,0.2419
952.00,0.2417
951.00,0.2415
950.00,0.2413
949.00,0.2412
948.00,0.2411
947.00,0.2410
946.00,0.2409
945.00,0.2407
944.00,0.2406
943.00,0.2405
942.00,0.2404
941.00,0.2403
940.00,0.2403
939.00,0.2402
938.00,0.2401
937.00,0.2400
936.00,0.2399
935.00,0.2398
934.00,0.2397
933.00,0.2395
932.00,0.2394
931.00,0.2394
930.00,0.2393
929.00,0.2393
928.00,0.2393
927.00,0.2392
926.00,0.2392
925.00,0.2392
924.00,0.2392
923.00,0.2392
922.00,0.2393
921.00,0.2393
920.00,0.2394
919.00,0.2395
918.00,0.2396
917.00,0.2398
916.00,0.2399
915.00,0.2401
914.00,0.2402
913.00,0.2403
912.00,0.2404
911.00,0.2405
910.00,0.2405
909.00,0.2404
908.00,0.2404
907.00,0.2403
906.00,0.2403
905.00,0.2403
904.00,0.2404
903.00,0.2404
902.00,0.2404
901.00,0.2403
900.00,0.2404
899.00,0.2404
898.00,0.2404
897.00,0.2404
896.00,0.2404
895.00,0.2404
894.00,0.2404
893.00,0.2404
892.00,0.2404
891.00,0.2405
890.00,0.2405
889.00,0.2404
888.00,0.2405
887.00,0.2405
886.00,0.2406
885.00,0.2407
884.00,0.2408
883.00,0.2409
882.00,0.2409
881.00,0.2409
880.00,0.2409
879.00,0.2409
878.00,0.2409
877.00,0.2408
876.00,0.2407
875.00,0.2406
874.00,0.2405
873.00,0.2404
872.00,0.2403
871.00,0.2403
870.00,0.2401
869.00,0.2400
868.00,0.2398
867.00,0.2396
866.00,0.2394
865.00,0.2393
864.00,0.2391
863.00,0.2389
862.00,0.2387
861.00,0.2385
860.00,0.2384
859.00,0.2383
858.00,0.2381
857.00,0.2380
856.00,0.2379
855.00,0.2379
854.00,0.2379
853.00,0.2379
852.00,0.2380
851.00,0.2381
850.00,0.2383
849.00,0.2385
848.00,0.2387
847.00,0.2388
846.00,0.2390
845.00,0.2392
844.00,0.2394
843.00,0.2396
842.00,0.2398
841.00,0.2400
840.00,0.2403
839.00,0.2406
838.00,0.2409
837.00,0.2412
836.00,0.2416
835.00,0.2421
834.00,0.2426
833.00,0.2429
832.00,0.2431
831.00,0.2431
830.00,0.2430
829.00,0.2429
828.00,0.2429
827.00,0.2431
826.00,0.2434
825.00,0.2437
824.00,0.2442
823.00,0.2446
822.00,0.2450
821.00,0.2452
820.00,0.2454
819.00,0.2454
818.00,0.2455
817.00,0.2456
816.00,0.2458
815.00,0.2460
814.00,0.2461
813.00,0.2463
812.00,0.2465
811.00,0.2467
810.00,0.2469
809.00,0.2471
808.00,0.2473
807.00,0.2476
806.00,0.2480
805.00,0.2484
804.00,0.2488
803.00,0.2492
802.00,0.2495
801.00,0.2498
800.00,0.2501
799.00,0.2504
798.00,0.2506
797.00,0.2507
796.00,0.2508
795.00,0.2509
794.00,0.2509
793.00,0.2510
792.00,0.2510
791.00,0.2510
790.00,0.2511
789.00,0.2511
788.00,0.2512
787.00,0.2512
786.00,0.2511
785.00,0.2511
784.00,0.2512
783.00,0.2513
782.00,0.2513
781.00,0.2514
780.00,0.2515
779.00,0.2516
778.00,0.2516
777.00,0.2516
776.00,0.2516
775.00,0.2517
774.00,0.2517
773.00,0.2518
772.00,0.2519
771.00,0.2519
770.00,0.2520
769.00,0.2520
768.00,0.2521
767.00,0.2521
766.00,0.2522
765.00,0.2523
764.00,0.2524
763.00,0.2526
762.00,0.2527
761.00,0.2529
760.00,0.2531
759.00,0.2532
758.00,0.2534
757.00,0.2535
756.00,0.2537
755.00,0.2539
754.00,0.2540
753.00,0.2541
752.00,0.2542
751.00,0.2543
750.00,0.2543
749.00,0.2543
748.00,0.2545
747.00,0.2546
746.00,0.2546
745.00,0.2546
744.00,0.2546
743.00,0.2547
742.00,0.2547
741.00,0.2548
740.00,0.2548
739.00,0.2548
738.00,0.2548
737.00,0.2548
736.00,0.2549
735.00,0.2551
734.00,0.2552
733.00,0.2552
732.00,0.2553
731.00,0.2554
730.00,0.2555
729.00,0.2556
728.00,0.2557
727.00,0.2559
726.00,0.2562
725.00,0.2565
724.00,0.2570
723.00,0.2575
722.00,0.2582
721.00,0.2592
720.00,0.2604
719.00,0.2615
718.00,0.2623
717.00,0.2628
716.00,0.2631
715.00,0.2632
714.00,0.2630
713.00,0.2626
712.00,0.2619
711.00,0.2612
710.00,0.2607
709.00,0.2606
708.00,0.2608
707.00,0.2612
706.00,0.2618
705.00,0.2623
704.00,0.2626
703.00,0.2626
702.00,0.2624
701.00,0.2621
700.00,0.2620
699.00,0.2620
698.00,0.2621
697.00,0.2624
696.00,0.2628
695.00,0.2632
694.00,0.2635
693.00,0.2637
692.00,0.2639
691.00,0.2639
690.00,0.2639
689.00,0.2641
688.00,0.2644
687.00,0.2648
686.00,0.2650
685.00,0.2651
684.00,0.2652
683.00,0.2652
682.00,0.2653
681.00,0.2656
680.00,0.2659
679.00,0.2662
678.00,0.2666
677.00,0.2669
676.00,0.2670
675.00,0.2669
674.00,0.2667
673.00,0.2665
672.00,0.2663
671.00,0.2656
670.00,0.2650
669.00,0.2653
668.00,0.2670
667.00,0.2686
666.00,0.2687
665.00,0.2680
664.00,0.2676
663.00,0.2676
662.00,0.2677
661.00,0.2678
660.00,0.2680
659.00,0.2681
658.00,0.2682
657.00,0.2683
656.00,0.2685
655.00,0.2688
654.00,0.2689
653.00,0.2690
652.00,0.2690
651.00,0.2691
650.00,0.2692
