Created as New Dataset,Sample 007 By Administrator Date Monday, March 20 2023
cm-1,A
4000.00,0.0303
3999.00,0.0303
3998.00,0.0303
3997.00,0.0303
3996.00,0.0303
3995.00,0.0303
3994.00,0.0303
3993.00,0.0303
3992.00,0.0303
3991.00,0.0303
3990.00,0.0303
3989.00,0.0303
3988.00,0.0303
3987.00,0.0303
3986.00,0.0303
3985.00,0.0303
3984.00,0.0302
3983.00,0.0302
3982.00,0.0302
3981.00,0.0302
3980.00,0.0302
3979.00,0.0302
3978.00,0.0302
3977.00,0.0302
3976.00,0.0302
3975.00,0.0302
3974.00,0.0302
3973.00,0.0302
3972.00,0.0302
3971.00,0.0302
3970.00,0.0302
3969.00,0.0302
3968.00,0.0301
3967.00,0.0301
3966.00,0.0301
3965.00,0.0301
3964.00,0.0301
3963.00,0.0301
3962.00,0.0301
3961.00,0.0301
3960.00,0.0301
3959.00,0.0301
3958.00,0.0301
3957.00,0.0301
3956.00,0.0301
3955.00,0.0301
3954.00,0.0301
3953.00,0.0301
3952.00,0.0301
3951.00,0.0301
3950.00,0.0301
3949.00,0.0301
3948.00,0.0301
3947.00,0.0301
3946.00,0.0301
3945.00,0.0301
3944.00,0.0300
3943.00,0.0300
3942.00,0.0300
3941.00,0.0300
3940.00,0.0300
3939.00,0.0300
3938.00,0.0300
3937.00,0.0300
3936.00,0.0300
3935.00,0.0300
3934.00,0.0300
3933.00,0.0300
3932.00,0.0300
3931.00,0.0300
3930.00,0.0299
3929.00,0.0299
3928.00,0.0299
3927.00,0.0299
3926.00,0.0299
3925.00,0.0299
3924.00,0.0299
3923.00,0.0299
3922.00,0.0299
3921.00,0.0300
3920.00,0.0300
3919.00,0.0300
3918.00,0.0300
3917.00,0.0300
3916.00,0.0299
3915.00,0.0299
3914.00,0.0299
3913.00,0.0299
3912.00,0.0298
3911.00,0.0298
3910.00,0.0298
3909.00,0.0298
3908.00,0.0298
3907.00,0.0298
3906.00,0.0298
3905.00,0.0298
3904.00,0.0299
3903.00,0.0299
3902.00,0.0300
3901.00,0.0300
3900.00,0.0299
3899.00,0.0299
3898.00,0.0299
3897.00,0.0298
3896.00,0.0298
3895.00,0.0298
3894.00,0.0298
3893.00,0.0298
3892.00,0.0297
3891.00,0.0297
3890.00,0.0297
3889.00,0.0297
3888.00,0.0297
3887.00,0.0298
3886.00,0.0298
3885.00,0.0298
3884.00,0.0297
3883.00,0.0297
3882.00,0.0297
3881.00,0.0296
3880.00,0.0296
3879.00,0.0296
3878.00,0.0296
3877.00,0.0296
3876.00,0.0296
3875.00,0.0296
3874.00,0.0296
3873.00,0.0296
3872.00,0.0296
3871.00,0.0297
3870.00,0.0297
3869.00,0.0297
3868.00,0.0297
3867.00,0.0298
3866.00,0.0298
3865.00,0.0297
3864.00,0.0297
3863.00,0.0296
3862.00,0.0296
3861.00,0.0296
3860.00,0.0296
3859.00,0.0296
3858.00,0.0295
3857.00,0.0294
3856.00,0.0294
3855.00,0.0294
3854.00,0.0295
3853.00,0.0295
3852.00,0.0294
3851.00,0.0294
3850.00,0.0295
3849.00,0.0295
3848.00,0.0295
3847.00,0.0295
3846.00,0.0295
3845.00,0.0294
3844.00,0.0294
3843.00,0.0294
3842.00,0.0294
3841.00,0.0294
3840.00,0.0294
3839.00,0.0294
3838.00,0.0294
3837.00,0.0294
3836.00,0.0294
3835.00,0.0294
3834.00,0.0293
3833.00,0.0293
3832.00,0.0293
3831.00,0.0293
3830.00,0.0292
3829.00,0.0292
3828.00,0.0292
3827.00,0.0292
3826.00,0.0292
3825.00,0.0292
3824.00,0.0292
3823.00,0.0293
3822.00,0.0293
3821.00,0.0293
3820.00,0.0293
3819.00,0.0293
3818.00,0.0293
3817.00,0.0293
3816.00,0.0292
3815.00,0.0291
3814.00,0.0291
3813.00,0.0291
3812.00,0.0290
3811.00,0.0290
3810.00,0.0290
3809.00,0.0290
3808.00,0.0290
3807.00,0.0290
3806.00,0.0289
3805.00,0.0289
3804.00,0.0289
3803.00,0.0289
3802.00,0.0289
3801.00,0.0289
3800.00,0.0289
3799.00,0.0289
3798.00,0.0289
3797.00,0.0289
3796.00,0.0289
3795.00,0.0289
3794.00,0.0288
3793.00,0.0288
3792.00,0.0288
3791.00,0.0287
3790.00,0.0287
3789.00,0.0287
3788.00,0.0286
3787.00,0.0286
3786.00,0.0286
3785.00,0.0286
3784.00,0.0285
3783.00,0.0285
3782.00,0.0285
3781.00,0.0285
3780.00,0.0285
3779.00,0.0285
3778.00,0.0285
3777.00,0.0285
3776.00,0.0285
3775.00,0.0285
3774.00,0.0285
3773.00,0.0284
3772.00,0.0284
3771.00,0.0285
3770.00,0.0285
3769.00,0.0285
3768.00,0.0285
3767.00,0.0285
3766.00,0.0285
3765.00,0.0285
3764.00,0.0284
3763.00,0.0284
3762.00,0.0284
3761.00,0.0284
3760.00,0.0284
3759.00,0.0283
3758.00,0.0283
3757.00,0.0283
3756.00,0.0284
3755.00,0.0284
3754.00,0.0284
3753.00,0.0284
3752.00,0.0285
3751.00,0.0286
3750.00,0.0287
3749.00,0.0287
3748.00,0.0286
3747.00,0.0285
3746.00,0.0285
3745.00,0.0284
3744.00,0.0283
3743.00,0.0282
3742.00,0.0282
3741.00,0.0282
3740.00,0.0283
3739.00,0.0283
3738.00,0.0283
3737.00,0.0283
3736.00,0.0282
3735.00,0.0281
3734.00,0.0281
3733.00,0.0280
3732.00,0.0280
3731.00,0.0280
3730.00,0.0279
3729.00,0.0279
3728.00,0.0278
3727.00,0.0278
3726.00,0.0278
3725.00,0.0277
3724.00,0.0277
3723.00,0.0276
3722.00,0.0276
3721.00,0.0275
3720.00,0.0275
3719.00,0.0274
3718.00,0.0274
3717.00,0.0274
3716.00,0.0275
3715.00,0.0275
3714.00,0.0275
3713.00,0.0275
3712.00,0.0275
3711.00,0.0275
3710.00,0.0274
3709.00,0.0274
3708.00,0.0274
3707.00,0.0274
3706.00,0.0273
3705.00,0.0273
3704.00,0.0272
3703.00,0.0272
3702.00,0.0271
3701.00,0.0271
3700.00,0.0271
3699.00,0.0271
3698.00,0.0271
3697.00,0.0271
3696.00,0.0271
3695.00,0.0271
3694.00,0.0271
3693.00,0.0271
3692.00,0.0271
3691.00,0.0270
3690.00,0.0270
3689.00,0.0270
3688.00,0.0270
3687.00,0.0270
3686.00,0.0270
3685.00,0.0270
3684.00,0.0270
3683.00,0.0270
3682.00,0.0270
3681.00,0.0270
3680.00,0.0271
3679.00,0.0271
3678.00,0.0271
3677.00,0.0272
3676.00,0.0272
3675.00,0.0272
3674.00,0.0272
3673.00,0.0274
3672.00,0.0275
3671.00,0.0275
3670.00,0.0275
3669.00,0.0275
3668.00,0.0275
3667.00,0.0276
3666.00,0.0276
3665.00,0.0277
3664.00,0.0278
3663.00,0.0278
3662.00,0.0279
3661.00,0.0279
3660.00,0.0280
3659.00,0.0282
3658.00,0.0283
3657.00,0.0284
3656.00,0.0285
3655.00,0.0286
3654.00,0.0287
3653.00,0.0288
3652.00,0.0290
3651.00,0.0292
3650.00,0.0294
3649.00,0.0295
3648.00,0.0295
3647.00,0.0296
3646.00,0.0297
3645.00,0.0298
3644.00,0.0299
3643.00,0.0299
3642.00,0.0300
3641.00,0.0301
3640.00,0.0301
3639.00,0.0302
3638.00,0.0303
3637.00,0.0304
3636.00,0.0305
3635.00,0.0306
3634.00,0.0307
3633.00,0.0308
3632.00,0.0309
3631.00,0.0311
3630.00,0.0313
3629.00,0.0315
3628.00,0.0316
3627.00,0.0317
3626.00,0.0318
3625.00,0.0318
3624.00,0.0319
3623.00,0.0319
3622.00,0.0320
3621.00,0.0321
3620.00,0.0322
3619.00,0.0323
3618.00,0.0324
3617.00,0.0325
3616.00,0.0326
3615.00,0.0328
3614.00,0.0329
3613.00,0.0330
3612.00,0.0331
3611.00,0.0333
3610.00,0.0334
3609.00,0.0335
3608.00,0.0335
3607.00,0.0335
3606.00,0.0336
3605.00,0.0336
3604.00,0.0337
3603.00,0.0337
3602.00,0.0338
3601.00,0.0339
3600.00,0.0340
3599.00,0.0340
3598.00,0.0341
3597.00,0.0342
3596.00,0.0343
3595.00,0.0344
3594.00,0.0345
3593.00,0.0345
3592.00,0.0346
3591.00,0.0347
3590.00,0.0348
3589.00,0.0349
3588.00,0.0350
3587.00,0.0351
3586.00,0.0352
3585.00,0.0352
3584.00,0.0353
3583.00,0.0354
3582.00,0.0354
3581.00,0.0354
3580.00,0.0355
3579.00,0.0356
3578.00,0.0357
3577.00,0.0358
3576.00,0.0358
3575.00,0.0359
3574.00,0.0360
3573.00,0.0361
3572.00,0.0361
3571.00,0.0362
3570.00,0.0362
3569.00,0.0363
3568.00,0.0365
3567.00,0.0366
3566.00,0.0368
3565.00,0.0369
3564.00,0.0370
3563.00,0.0370
3562.00,0.0371
3561.00,0.0372
3560.00,0.0372
3559.00,0.0373
3558.00,0.0374
3557.00,0.0374
3556.00,0.0375
3555.00,0.0376
3554.00,0.0377
3553.00,0.0378
3552.00,0.0379
3551.00,0.0380
3550.00,0.0381
3549.00,0.0382
3548.00,0.0383
3547.00,0.0384
3546.00,0.0385
3545.00,0.0386
3544.00,0.0386
3543.00,0.0387
3542.00,0.0388
3541.00,0.0388
3540.00,0.0389
3539.00,0.0389
3538.00,0.0390
3537.00,0.0391
3536.00,0.0391
3535.00,0.0392
3534.00,0.0393
3533.00,0.0394
3532.00,0.0395
3531.00,0.0395
3530.00,0.0396
3529.00,0.0397
3528.00,0.0398
3527.00,0.0399
3526.00,0.0400
3525.00,0.0402
3524.00,0.0402
3523.00,0.0403
3522.00,0.0404
3521.00,0.0404
3520.00,0.0405
3519.00,0.0405
3518.00,0.0406
3517.00,0.0407
3516.00,0.0407
3515.00,0.0408
3514.00,0.0409
3513.00,0.0409
3512.00,0.0410
3511.00,0.0411
3510.00,0.0412
3509.00,0.0413
3508.00,0.0414
3507.00,0.0414
3506.00,0.0415
3505.00,0.0416
3504.00,0.0417
3503.00,0.0418
3502.00,0.0419
3501.00,0.0420
3500.00,0.0420
3499.00,0.0421
3498.00,0.0421
3497.00,0.0422
3496.00,0.0423
3495.00,0.0424
3494.00,0.0425
3493.00,0.0425
3492.00,0.0426
3491.00,0.0427
3490.00,0.0427
3489.00,0.0428
3488.00,0.0429
3487.00,0.0430
3486.00,0.0430
3485.00,0.0431
3484.00,0.0432
3483.00,0.0432
3482.00,0.0433
3481.00,0.0434
3480.00,0.0435
3479.00,0.0436
3478.00,0.0436
3477.00,0.0437
3476.00,0.0438
3475.00,0.0439
3474.00,0.0440
3473.00,0.0440
3472.00,0.0441
3471.00,0.0441
3470.00,0.0442
3469.00,0.0443
3468.00,0.0444
3467.00,0.0444
3466.00,0.0445
3465.00,0.0446
3464.00,0.0447
3463.00,0.0448
3462.00,0.0448
3461.00,0.0449
3460.00,0.0450
3459.00,0.0450
3458.00,0.0451
3457.00,0.0452
3456.00,0.0452
3455.00,0.0453
3454.00,0.0454
3453.00,0.0454
3452.00,0.0455
3451.00,0.0456
3450.00,0.0456
3449.00,0.0457
3448.00,0.0458
3447.00,0.0459
3446.00,0.0460
3445.00,0.0460
3444.00,0.0461
3443.00,0.0462
3442.00,0.0463
3441.00,0.0463
3440.00,0.0464
3439.00,0.0464
3438.00,0.0464
3437.00,0.0465
3436.00,0.0466
3435.00,0.0466
3434.00,0.0467
3433.00,0.0468
3432.00,0.0468
3431.00,0.0469
3430.00,0.0470
3429.00,0.0471
3428.00,0.0471
3427.00,0.0472
3426.00,0.0473
3425.00,0.0473
3424.00,0.0474
3423.00,0.0474
3422.00,0.0475
3421.00,0.0476
3420.00,0.0476
3419.00,0.0477
3418.00,0.0477
3417.00,0.0478
3416.00,0.0478
3415.00,0.0479
3414.00,0.0479
3413.00,0.0480
3412.00,0.0481
3411.00,0.0481
3410.00,0.0481
3409.00,0.0482
3408.00,0.0482
3407.00,0.0483
3406.00,0.0483
3405.00,0.0484
3404.00,0.0484
3403.00,0.0484
3402.00,0.0485
3401.00,0.0485
3400.00,0.0486
3399.00,0.0486
3398.00,0.0487
3397.00,0.0488
3396.00,0.0488
3395.00,0.0488
3394.00,0.0489
3393.00,0.0489
3392.00,0.0490
3391.00,0.0491
3390.00,0.0491
3389.00,0.0492
3388.00,0.0492
3387.00,0.0493
3386.00,0.0493
3385.00,0.0494
3384.00,0.0494
3383.00,0.0494
3382.00,0.0495
3381.00,0.0495
3380.00,0.0495
3379.00,0.0496
3378.00,0.0496
3377.00,0.0496
3376.00,0.0497
3375.00,0.0497
3374.00,0.0497
3373.00,0.0497
3372.00,0.0497
3371.00,0.0498
3370.00,0.0498
3369.00,0.0498
3368.00,0.0499
3367.00,0.0499
3366.00,0.0500
3365.00,0.0501
3364.00,0.0501
3363.00,0.0501
3362.00,0.0502
3361.00,0.0502
3360.00,0.0502
3359.00,0.0502
3358.00,0.0503
3357.00,0.0503
3356.00,0.0503
3355.00,0.0503
3354.00,0.0504
3353.00,0.0504
3352.00,0.0504
3351.00,0.0504
3350.00,0.0504
3349.00,0.0504
3348.00,0.0505
3347.00,0.0505
3346.00,0.0505
3345.00,0.0505
3344.00,0.0505
3343.00,0.0505
3342.00,0.0505
3341.00,0.0506
3340.00,0.0506
3339.00,0.0506
3338.00,0.0506
3337.00,0.0507
3336.00,0.0507
3335.00,0.0507
3334.00,0.0507
3333.00,0.0507
3332.00,0.0507
3331.00,0.0507
3330.00,0.0507
3329.00,0.0507
3328.00,0.0507
3327.00,0.0507
3326.00,0.0507
3325.00,0.0507
3324.00,0.0507
3323.00,0.0508
3322.00,0.0508
3321.00,0.0508
3320.00,0.0508
3319.00,0.0508
3318.00,0.0508
3317.00,0.0508
3316.00,0.0508
3315.00,0.0508
3314.00,0.0508
3313.00,0.0508
3312.00,0.0508
3311.00,0.0507
3310.00,0.0507
3309.00,0.0507
3308.00,0.0506
3307.00,0.0506
3306.00,0.0507
3305.00,0.0507
3304.00,0.0508
3303.00,0.0508
3302.00,0.0508
3301.00,0.0508
3300.00,0.0508
3299.00,0.0508
3298.00,0.0508
3297.00,0.0508
3296.00,0.0508
3295.00,0.0508
3294.00,0.0508
3293.00,0.0508
3292.00,0.0509
3291.00,0.0509
3290.00,0.0510
3289.00,0.0510
3288.00,0.0510
3287.00,0.0510
3286.00,0.0510
3285.00,0.0510
3284.00,0.0510
3283.00,0.0510
3282.00,0.0510
3281.00,0.0510
3280.00,0.0510
3279.00,0.0510
3278.00,0.0510
3277.00,0.0510
3276.00,0.0510
3275.00,0.0510
3274.00,0.0509
3273.00,0.0509
3272.00,0.0509
3271.00,0.0509
3270.00,0.0509
3269.00,0.0510
3268.00,0.0510
3267.00,0.0511
3266.00,0.0511
3265.00,0.0511
3264.00,0.0511
3263.00,0.0512
3262.00,0.0512
3261.00,0.0512
3260.00,0.0512
3259.00,0.0511
3258.00,0.0511
3257.00,0.0511
3256.00,0.0511
3255.00,0.0511
3254.00,0.0511
3253.00,0.0511
3252.00,0.0511
3251.00,0.0511
3250.00,0.0511
3249.00,0.0510
3248.00,0.0510
3247.00,0.0510
3246.00,0.0510
3245.00,0.0511
3244.00,0.0512
3243.00,0.0512
3242.00,0.0512
3241.00,0.0512
3240.00,0.0512
3239.00,0.0512
3238.00,0.0511
3237.00,0.0511
3236.00,0.0510
3235.00,0.0509
3234.00,0.0509
3233.00,0.0510
3232.00,0.0510
3231.00,0.0511
3230.00,0.0511
3229.00,0.0512
3228.00,0.0512
3227.00,0.0512
3226.00,0.0512
3225.00,0.0512
3224.00,0.0512
3223.00,0.0512
3222.00,0.0512
3221.00,0.0512
3220.00,0.0512
3219.00,0.0512
3218.00,0.0512
3217.00,0.0512
3216.00,0.0512
3215.00,0.0512
3214.00,0.0512
3213.00,0.0512
3212.00,0.0512
3211.00,0.0512
3210.00,0.0512
3209.00,0.0512
3208.00,0.0512
3207.00,0.0511
3206.00,0.0511
3205.00,0.0511
3204.00,0.0512
3203.00,0.0512
3202.00,0.0512
3201.00,0.0512
3200.00,0.0512
3199.00,0.0511
3198.00,0.0511
3197.00,0.0511
3196.00,0.0511
3195.00,0.0511
3194.00,0.0511
3193.00,0.0511
3192.00,0.0510
3191.00,0.0510
3190.00,0.0510
3189.00,0.0510
3188.00,0.0510
3187.00,0.0510
3186.00,0.0510
3185.00,0.0510
3184.00,0.0510
3183.00,0.0510
3182.00,0.0509
3181.00,0.0509
3180.00,0.0509
3179.00,0.0509
3178.00,0.0509
3177.00,0.0509
3176.00,0.0509
3175.00,0.0508
3174.00,0.0508
3173.00,0.0508
3172.00,0.0508
3171.00,0.0507
3170.00,0.0507
3169.00,0.0507
3168.00,0.0507
3167.00,0.0506
3166.00,0.0506
3165.00,0.0506
3164.00,0.0506
3163.00,0.0506
3162.00,0.0505
3161.00,0.0505
3160.00,0.0505
3159.00,0.0505
3158.00,0.0504
3157.00,0.0503
3156.00,0.0502
3155.00,0.0501
3154.00,0.0500
3153.00,0.0500
3152.00,0.0500
3151.00,0.0501
3150.00,0.0501
3149.00,0.0502
3148.00,0.0502
3147.00,0.0502
3146.00,0.0502
3145.00,0.0502
3144.00,0.0501
3143.00,0.0500
3142.00,0.0499
3141.00,0.0498
3140.00,0.0498
3139.00,0.0498
3138.00,0.0498
3137.00,0.0499
3136.00,0.0499
3135.00,0.0499
3134.00,0.0499
3133.00,0.0499
3132.00,0.0498
3131.00,0.0498
3130.00,0.0497
3129.00,0.0498
3128.00,0.0498
3127.00,0.0498
3126.00,0.0497
3125.00,0.0497
3124.00,0.0496
3123.00,0.0495
3122.00,0.0493
3121.00,0.0492
3120.00,0.0492
3119.00,0.0491
3118.00,0.0491
3117.00,0.0491
3116.00,0.0491
3115.00,0.0492
3114.00,0.0493
3113.00,0.0493
3112.00,0.0493
3111.00,0.0492
3110.00,0.0492
3109.00,0.0492
3108.00,0.0492
3107.00,0.0493
3106.00,0.0493
3105.00,0.0493
3104.00,0.0493
3103.00,0.0493
3102.00,0.0492
3101.00,0.0492
3100.00,0.0492
3099.00,0.0492
3098.00,0.0492
3097.00,0.0492
3096.00,0.0492
3095.00,0.0492
3094.00,0.0491
3093.00,0.0490
3092.00,0.0490
3091.00,0.0489
3090.00,0.0489
3089.00,0.0489
3088.00,0.0489
3087.00,0.0488
3086.00,0.0488
3085.00,0.0487
3084.00,0.0487
3083.00,0.0486
3082.00,0.0486
3081.00,0.0486
3080.00,0.0485
3079.00,0.0485
3078.00,0.0486
3077.00,0.0486
3076.00,0.0487
3075.00,0.0487
3074.00,0.0488
3073.00,0.0488
3072.00,0.0487
3071.00,0.0487
3070.00,0.0486
3069.00,0.0485
3068.00,0.0484
3067.00,0.0484
3066.00,0.0485
3065.00,0.0485
3064.00,0.0485
3063.00,0.0485
3062.00,0.0485
3061.00,0.0485
3060.00,0.0484
3059.00,0.0483
3058.00,0.0483
3057.00,0.0482
3056.00,0.0482
3055.00,0.0482
3054.00,0.0481
3053.00,0.0481
3052.00,0.0480
3051.00,0.0480
3050.00,0.0480
3049.00,0.0480
3048.00,0.0479
3047.00,0.0479
3046.00,0.0478
3045.00,0.0477
3044.00,0.0476
3043.00,0.0476
3042.00,0.0476
3041.00,0.0476
3040.00,0.0476
3039.00,0.0476
3038.00,0.0476
3037.00,0.0475
3036.00,0.0474
3035.00,0.0474
3034.00,0.0474
3033.00,0.0474
3032.00,0.0474
3031.00,0.0474
3030.00,0.0474
3029.00,0.0474
3028.00,0.0473
3027.00,0.0473
3026.00,0.0472
3025.00,0.0472
3024.00,0.0472
3023.00,0.0471
3022.00,0.0471
3021.00,0.0470
3020.00,0.0470
3019.00,0.0469
3018.00,0.0469
3017.00,0.0468
3016.00,0.0468
3015.00,0.0468
3014.00,0.0467
3013.00,0.0467
3012.00,0.0468
3011.00,0.0468
3010.00,0.0469
3009.00,0.0469
3008.00,0.0469
3007.00,0.0469
3006.00,0.0469
3005.00,0.0469
3004.00,0.0470
3003.00,0.0470
3002.00,0.0470
3001.00,0.0469
3000.00,0.0469
2999.00,0.0469
2998.00,0.0468
2997.00,0.0469
2996.00,0.0469
2995.00,0.0469
2994.00,0.0469
2993.00,0.0468
2992.00,0.0468
2991.00,0.0469
2990.00,0.0469
2989.00,0.0469
2988.00,0.0470
2987.00,0.0470
2986.00,0.0470
2985.00,0.0471
2984.00,0.0471
2983.00,0.0471
2982.00,0.0472
2981.00,0.0472
2980.00,0.0471
2979.00,0.0471
2978.00,0.0470
2977.00,0.0470
2976.00,0.0469
2975.00,0.0469
2974.00,0.0470
2973.00,0.0470
2972.00,0.0470
2971.00,0.0470
2970.00,0.0470
2969.00,0.0470
2968.00,0.0469
2967.00,0.0469
2966.00,0.0468
2965.00,0.0468
2964.00,0.0468
2963.00,0.0468
2962.00,0.0468
2961.00,0.0468
2960.00,0.0467
2959.00,0.0467
2958.00,0.0467
2957.00,0.0467
2956.00,0.0466
2955.00,0.0466
2954.00,0.0465
2953.00,0.0465
2952.00,0.0465
2951.00,0.0465
2950.00,0.0464
2949.00,0.0464
2948.00,0.0464
2947.00,0.0463
2946.00,0.0463
2945.00,0.0463
2944.00,0.0463
2943.00,0.0464
2942.00,0.0464
2941.00,0.0465
2940.00,0.0465
2939.00,0.0466
2938.00,0.0466
2937.00,0.0466
2936.00,0.0466
2935.00,0.0466
2934.00,0.0467
2933.00,0.0467
2932.00,0.0467
2931.00,0.0467
2930.00,0.0467
2929.00,0.0468
2928.00,0.0468
2927.00,0.0469
2926.00,0.0470
2925.00,0.0470
2924.00,0.0470
2923.00,0.0470
2922.00,0.0469
2921.00,0.0469
2920.00,0.0468
2919.00,0.0468
2918.00,0.0467
2917.00,0.0466
2916.00,0.0466
2915.00,0.0465
2914.00,0.0464
2913.00,0.0464
2912.00,0.0464
2911.00,0.0464
2910.00,0.0463
2909.00,0.0463
2908.00,0.0463
2907.00,0.0463
2906.00,0.0462
2905.00,0.0462
2904.00,0.0462
2903.00,0.0461
2902.00,0.0461
2901.00,0.0461
2900.00,0.0460
2899.00,0.0460
2898.00,0.0459
2897.00,0.0459
2896.00,0.0459
2895.00,0.0459
2894.00,0.0459
2893.00,0.0459
2892.00,0.0459
2891.00,0.0459
2890.00,0.0458
2889.00,0.0458
2888.00,0.0458
2887.00,0.0458
2886.00,0.0458
2885.00,0.0457
2884.00,0.0457
2883.00,0.0456
2882.00,0.0456
2881.00,0.0455
2880.00,0.0455
2879.00,0.0454
2878.00,0.0454
2877.00,0.0453
2876.00,0.0452
2875.00,0.0451
2874.00,0.0451
2873.00,0.0451
2872.00,0.0451
2871.00,0.0452
2870.00,0.0452
2869.00,0.0451
2868.00,0.0451
2867.00,0.0451
2866.00,0.0450
2865.00,0.0450
2864.00,0.0450
2863.00,0.0450
2862.00,0.0450
2861.00,0.0449
2860.00,0.0450
2859.00,0.0450
2858.00,0.0450
2857.00,0.0451
2856.00,0.0451
2855.00,0.0451
2854.00,0.0451
2853.00,0.0451
2852.00,0.0450
2851.00,0.0450
2850.00,0.0449
2849.00,0.0448
2848.00,0.0447
2847.00,0.0447
2846.00,0.0446
2845.00,0.0446
2844.00,0.0445
2843.00,0.0444
2842.00,0.0443
2841.00,0.0442
2840.00,0.0441
2839.00,0.0440
2838.00,0.0440
2837.00,0.0440
2836.00,0.0440
2835.00,0.0439
2834.00,0.0439
2833.00,0.0439
2832.00,0.0439
2831.00,0.0438
2830.00,0.0438
2829.00,0.0438
2828.00,0.0438
2827.00,0.0437
2826.00,0.0437
2825.00,0.0436
2824.00,0.0436
2823.00,0.0436
2822.00,0.0436
2821.00,0.0435
2820.00,0.0435
2819.00,0.0435
2818.00,0.0434
2817.00,0.0434
2816.00,0.0434
2815.00,0.0433
2814.00,0.0433
2813.00,0.0433
2812.00,0.0432
2811.00,0.0432
2810.00,0.0432
2809.00,0.0431
2808.00,0.0431
2807.00,0.0431
2806.00,0.0431
2805.00,0.0431
2804.00,0.0431
2803.00,0.0431
2802.00,0.0430
2801.00,0.0430
2800.00,0.0429
2799.00,0.0429
2798.00,0.0428
2797.00,0.0428
2796.00,0.0428
2795.00,0.0428
2794.00,0.0428
2793.00,0.0428
2792.00,0.0427
2791.00,0.0426
2790.00,0.0426
2789.00,0.0426
2788.00,0.0426
2787.00,0.0427
2786.00,0.0427
2785.00,0.0427
2784.00,0.0426
2783.00,0.0426
2782.00,0.0426
2781.00,0.0426
2780.00,0.0426
2779.00,0.0425
2778.00,0.0425
2777.00,0.0424
2776.00,0.0424
2775.00,0.0424
2774.00,0.0423
2773.00,0.0424
2772.00,0.0424
2771.00,0.0424
2770.00,0.0424
2769.00,0.0424
2768.00,0.0424
2767.00,0.0423
2766.00,0.0423
2765.00,0.0423
2764.00,0.0423
2763.00,0.0422
2762.00,0.0422
2761.00,0.0422
2760.00,0.0421
2759.00,0.0421
2758.00,0.0421
2757.00,0.0421
2756.00,0.0421
2755.00,0.0421
2754.00,0.0420
2753.00,0.0420
2752.00,0.0420
2751.00,0.0419
2750.00,0.0419
2749.00,0.0419
2748.00,0.0419
2747.00,0.0418
2746.00,0.0418
2745.00,0.0419
2744.00,0.0419
2743.00,0.0419
2742.00,0.0418
2741.00,0.0418
2740.00,0.0418
2739.00,0.0418
2738.00,0.0417
2737.00,0.0417
2736.00,0.0417
2735.00,0.0417
2734.00,0.0417
2733.00,0.0417
2732.00,0.0417
2731.00,0.0416
2730.00,0.0416
2729.00,0.0416
2728.00,0.0415
2727.00,0.0415
2726.00,0.0415
2725.00,0.0415
2724.00,0.0415
2723.00,0.0415
2722.00,0.0414
2721.00,0.0414
2720.00,0.0414
2719.00,0.0414
2718.00,0.0414
2717.00,0.0414
2716.00,0.0413
2715.00,0.0413
2714.00,0.0413
2713.00,0.0413
2712.00,0.0413
2711.00,0.0412
2710.00,0.0412
2709.00,0.0412
2708.00,0.0412
2707.00,0.0412
2706.00,0.0412
2705.00,0.0411
2704.00,0.0411
2703.00,0.0411
2702.00,0.0411
2701.00,0.0411
2700.00,0.0410
2699.00,0.0410
2698.00,0.0410
2697.00,0.0410
2696.00,0.0410
2695.00,0.0410
2694.00,0.0409
2693.00,0.0409
2692.00,0.0409
2691.00,0.0409
2690.00,0.0409
2689.00,0.0409
2688.00,0.0409
2687.00,0.0408
2686.00,0.0408
2685.00,0.0408
2684.00,0.0408
2683.00,0.0407
2682.00,0.0407
2681.00,0.0407
2680.00,0.0407
2679.00,0.0407
2678.00,0.0407
2677.00,0.0407
2676.00,0.0407
2675.00,0.0406
2674.00,0.0406
2673.00,0.0406
2672.00,0.0406
2671.00,0.0406
2670.00,0.0406
2669.00,0.0406
2668.00,0.0406
2667.00,0.0406
2666.00,0.0406
2665.00,0.0406
2664.00,0.0407
2663.00,0.0407
2662.00,0.0407
2661.00,0.0407
2660.00,0.0407
2659.00,0.0407
2658.00,0.0407
2657.00,0.0407
2656.00,0.0407
2655.00,0.0407
2654.00,0.0407
2653.00,0.0407
2652.00,0.0407
2651.00,0.0407
2650.00,0.0406
2649.00,0.0406
2648.00,0.0406
2647.00,0.0406
2646.00,0.0406
2645.00,0.0406
2644.00,0.0405
2643.00,0.0405
2642.00,0.0405
2641.00,0.0405
2640.00,0.0404
2639.00,0.0404
2638.00,0.0404
2637.00,0.0404
2636.00,0.0403
2635.00,0.0403
2634.00,0.0403
2633.00,0.0403
2632.00,0.0403
2631.00,0.0403
2630.00,0.0402
2629.00,0.0402
2628.00,0.0402
2627.00,0.0402
2626.00,0.0401
2625.00,0.0401
2624.00,0.0401
2623.00,0.0401
2622.00,0.0401
2621.00,0.0400
2620.00,0.0400
2619.00,0.0400
2618.00,0.0400
2617.00,0.0399
2616.00,0.0399
2615.00,0.0399
2614.00,0.0399
2613.00,0.0399
2612.00,0.0399
2611.00,0.0399
2610.00,0.0399
2609.00,0.0398
2608.00,0.0398
2607.00,0.0398
2606.00,0.0398
2605.00,0.0398
2604.00,0.0398
2603.00,0.0398
2602.00,0.0397
2601.00,0.0397
2600.00,0.0397
2599.00,0.0397
2598.00,0.0397
2597.00,0.0397
2596.00,0.0396
2595.00,0.0396
2594.00,0.0396
2593.00,0.0395
2592.00,0.0395
2591.00,0.0395
2590.00,0.0395
2589.00,0.0395
2588.00,0.0395
2587.00,0.0394
2586.00,0.0394
2585.00,0.0394
2584.00,0.0394
2583.00,0.0394
2582.00,0.0393
2581.00,0.0393
2580.00,0.0393
2579.00,0.0393
2578.00,0.0392
2577.00,0.0392
2576.00,0.0392
2575.00,0.0392
2574.00,0.0392
2573.00,0.0392
2572.00,0.0392
2571.00,0.0392
2570.00,0.0392
2569.00,0.0392
2568.00,0.0392
2567.00,0.0392
2566.00,0.0392
2565.00,0.0392
2564.00,0.0391
2563.00,0.0391
2562.00,0.0391
2561.00,0.0391
2560.00,0.0391
2559.00,0.0390
2558.00,0.0390
2557.00,0.0390
2556.00,0.0390
2555.00,0.0389
2554.00,0.0389
2553.00,0.0389
2552.00,0.0389
2551.00,0.0389
2550.00,0.0389
2549.00,0.0388
2548.00,0.0388
2547.00,0.0388
2546.00,0.0388
2545.00,0.0388
2544.00,0.0388
2543.00,0.0388
2542.00,0.0387
2541.00,0.0387
2540.00,0.0387
2539.00,0.0387
2538.00,0.0386
2537.00,0.0386
2536.00,0.0386
2535.00,0.0386
2534.00,0.0386
2533.00,0.0386
2532.00,0.0386
2531.00,0.0385
2530.00,0.0385
2529.00,0.0385
2528.00,0.0385
2527.00,0.0385
2526.00,0.0385
2525.00,0.0385
2524.00,0.0385
2523.00,0.0385
2522.00,0.0384
2521.00,0.0384
2520.00,0.0384
2519.00,0.0384
2518.00,0.0384
2517.00,0.0384
2516.00,0.0384
2515.00,0.0384
2514.00,0.0383
2513.00,0.0383
2512.00,0.0383
2511.00,0.0382
2510.00,0.0382
2509.00,0.0382
2508.00,0.0382
2507.00,0.0382
2506.00,0.0382
2505.00,0.0382
2504.00,0.0382
2503.00,0.0381
2502.00,0.0381
2501.00,0.0381
2500.00,0.0382
2499.00,0.0382
2498.00,0.0382
2497.00,0.0381
2496.00,0.0381
2495.00,0.0380
2494.00,0.0380
2493.00,0.0379
2492.00,0.0379
2491.00,0.0379
2490.00,0.0379
2489.00,0.0380
2488.00,0.0380
2487.00,0.0380
2486.00,0.0379
2485.00,0.0379
2484.00,0.0379
2483.00,0.0378
2482.00,0.0378
2481.00,0.0378
2480.00,0.0378
2479.00,0.0378
2478.00,0.0378
2477.00,0.0378
2476.00,0.0378
2475.00,0.0378
2474.00,0.0377
2473.00,0.0377
2472.00,0.0377
2471.00,0.0377
2470.00,0.0377
2469.00,0.0377
2468.00,0.0377
2467.00,0.0376
2466.00,0.0376
2465.00,0.0376
2464.00,0.0376
2463.00,0.0376
2462.00,0.0376
2461.00,0.0376
2460.00,0.0376
2459.00,0.0377
2458.00,0.0377
2457.00,0.0377
2456.00,0.0377
2455.00,0.0376
2454.00,0.0376
2453.00,0.0376
2452.00,0.0376
2451.00,0.0375
2450.00,0.0375
2449.00,0.0375
2448.00,0.0375
2447.00,0.0374
2446.00,0.0374
2445.00,0.0374
2444.00,0.0373
2443.00,0.0373
2442.00,0.0373
2441.00,0.0372
2440.00,0.0372
2439.00,0.0371
2438.00,0.0371
2437.00,0.0371
2436.00,0.0371
2435.00,0.0371
2434.00,0.0371
2433.00,0.0371
2432.00,0.0371
2431.00,0.0371
2430.00,0.0370
2429.00,0.0370
2428.00,0.0370
2427.00,0.0370
2426.00,0.0370
2425.00,0.0369
2424.00,0.0369
2423.00,0.0369
2422.00,0.0368
2421.00,0.0368
2420.00,0.0368
2419.00,0.0368
2418.00,0.0367
2417.00,0.0367
2416.00,0.0367
2415.00,0.0367
2414.00,0.0367
2413.00,0.0367
2412.00,0.0367
2411.00,0.0367
2410.00,0.0366
2409.00,0.0366
2408.00,0.0366
2407.00,0.0365
2406.00,0.0365
2405.00,0.0365
2404.00,0.0365
2403.00,0.0365
2402.00,0.0364
2401.00,0.0364
2400.00,0.0364
2399.00,0.0363
2398.00,0.0363
2397.00,0.0363
2396.00,0.0362
2395.00,0.0362
2394.00,0.0362
2393.00,0.0362
2392.00,0.0362
2391.00,0.0362
2390.00,0.0362
2389.00,0.0362
2388.00,0.0361
2387.00,0.0361
2386.00,0.0361
2385.00,0.0360
2384.00,0.0360
2383.00,0.0359
2382.00,0.0359
2381.00,0.0358
2380.00,0.0358
2379.00,0.0358
2378.00,0.0357
2377.00,0.0357
2376.00,0.0357
2375.00,0.0357
2374.00,0.0357
2373.00,0.0357
2372.00,0.0356
2371.00,0.0356
2370.00,0.0355
2369.00,0.0355
2368.00,0.0354
2367.00,0.0354
2366.00,0.0354
2365.00,0.0355
2364.00,0.0355
2363.00,0.0355
2362.00,0.0355
2361.00,0.0354
2360.00,0.0354
2359.00,0.0354
2358.00,0.0354
2357.00,0.0354
2356.00,0.0354
2355.00,0.0354
2354.00,0.0355
2353.00,0.0355
2352.00,0.0354
2351.00,0.0353
2350.00,0.0352
2349.00,0.0352
2348.00,0.0353
2347.00,0.0354
2346.00,0.0355
2345.00,0.0355
2344.00,0.0354
2343.00,0.0353
2342.00,0.0352
2341.00,0.0352
2340.00,0.0352
2339.00,0.0353
2338.00,0.0354
2337.00,0.0355
2336.00,0.0355
2335.00,0.0354
2334.00,0.0354
2333.00,0.0354
2332.00,0.0354
2331.00,0.0354
2330.00,0.0354
2329.00,0.0354
2328.00,0.0356
2327.00,0.0359
2326.00,0.0361
2325.00,0.0362
2324.00,0.0362
2323.00,0.0361
2322.00,0.0359
2321.00,0.0358
2320.00,0.0356
2319.00,0.0356
2318.00,0.0355
2317.00,0.0354
2316.00,0.0354
2315.00,0.0354
2314.00,0.0354
2313.00,0.0353
2312.00,0.0352
2311.00,0.0351
2310.00,0.0350
2309.00,0.0349
2308.00,0.0348
2307.00,0.0348
2306.00,0.0348
2305.00,0.0348
2304.00,0.0348
2303.00,0.0348
2302.00,0.0349
2301.00,0.0349
2300.00,0.0349
2299.00,0.0349
2298.00,0.0349
2297.00,0.0349
2296.00,0.0350
2295.00,0.0350
2294.00,0.0351
2293.00,0.0351
2292.00,0.0352
2291.00,0.0353
2290.00,0.0353
2289.00,0.0354
2288.00,0.0354
2287.00,0.0354
2286.00,0.0354
2285.00,0.0353
2284.00,0.0353
2283.00,0.0352
2282.00,0.0351
2281.00,0.0351
2280.00,0.0350
2279.00,0.0350
2278.00,0.0349
2277.00,0.0349
2276.00,0.0349
2275.00,0.0349
2274.00,0.0348
2273.00,0.0348
2272.00,0.0348
2271.00,0.0347
2270.00,0.0347
2269.00,0.0346
2268.00,0.0345
2267.00,0.0344
2266.00,0.0343
2265.00,0.0343
2264.00,0.0343
2263.00,0.0343
2262.00,0.0343
2261.00,0.0343
2260.00,0.0343
2259.00,0.0343
2258.00,0.0344
2257.00,0.0343
2256.00,0.0342
2255.00,0.0341
2254.00,0.0340
2253.00,0.0340
2252.00,0.0340
2251.00,0.0341
2250.00,0.0341
2249.00,0.0341
2248.00,0.0341
2247.00,0.0340
2246.00,0.0340
2245.00,0.0340
2244.00,0.0340
2243.00,0.0340
2242.00,0.0341
2241.00,0.0341
2240.00,0.0341
2239.00,0.0340
2238.00,0.0340
2237.00,0.0340
2236.00,0.0340
2235.00,0.0340
2234.00,0.0340
2233.00,0.0340
2232.00,0.0340
2231.00,0.0340
2230.00,0.0340
2229.00,0.0340
2228.00,0.0340
2227.00,0.0340
2226.00,0.0339
2225.00,0.0339
2224.00,0.0338
2223.00,0.0338
2222.00,0.0338
2221.00,0.0338
2220.00,0.0338
2219.00,0.0338
2218.00,0.0338
2217.00,0.0337
2216.00,0.0336
2215.00,0.0335
2214.00,0.0335
2213.00,0.0335
2212.00,0.0335
2211.00,0.0335
2210.00,0.0334
2209.00,0.0334
2208.00,0.0334
2207.00,0.0334
2206.00,0.0334
2205.00,0.0333
2204.00,0.0333
2203.00,0.0333
2202.00,0.0332
2201.00,0.0333
2200.00,0.0333
2199.00,0.0333
2198.00,0.0334
2197.00,0.0334
2196.00,0.0333
2195.00,0.0332
2194.00,0.0332
2193.00,0.0331
2192.00,0.0331
2191.00,0.0331
2190.00,0.0331
2189.00,0.0331
2188.00,0.0332
2187.00,0.0332
2186.00,0.0332
2185.00,0.0330
2184.00,0.0328
2183.00,0.0325
2182.00,0.0324
2181.00,0.0324
2180.00,0.0325
2179.00,0.0326
2178.00,0.0325
2177.00,0.0323
2176.00,0.0322
2175.00,0.0321
2174.00,0.0322
2173.00,0.0324
2172.00,0.0326
2171.00,0.0328
2170.00,0.0330
2169.00,0.0331
2168.00,0.0331
2167.00,0.0330
2166.00,0.0329
2165.00,0.0329
2164.00,0.0330
2163.00,0.0330
2162.00,0.0327
2161.00,0.0320
2160.00,0.0310
2159.00,0.0301
2158.00,0.0295
2157.00,0.0294
2156.00,0.0296
2155.00,0.0298
2154.00,0.0301
2153.00,0.0303
2152.00,0.0305
2151.00,0.0306
2150.00,0.0306
2149.00,0.0306
2148.00,0.0305
2147.00,0.0305
2146.00,0.0305
2145.00,0.0305
2144.00,0.0305
2143.00,0.0306
2142.00,0.0307
2141.00,0.0307
2140.00,0.0307
2139.00,0.0306
2138.00,0.0305
2137.00,0.0303
2136.00,0.0302
2135.00,0.0301
2134.00,0.0301
2133.00,0.0302
2132.00,0.0304
2131.00,0.0305
2130.00,0.0306
2129.00,0.0308
2128.00,0.0309
2127.00,0.0309
2126.00,0.0310
2125.00,0.0310
2124.00,0.0310
2123.00,0.0311
2122.00,0.0311
2121.00,0.0311
2120.00,0.0311
2119.00,0.0312
2118.00,0.0314
2117.00,0.0315
2116.00,0.0316
2115.00,0.0316
2114.00,0.0316
2113.00,0.0315
2112.00,0.0315
2111.00,0.0314
2110.00,0.0314
2109.00,0.0314
2108.00,0.0314
2107.00,0.0313
2106.00,0.0312
2105.00,0.0312
2104.00,0.0312
2103.00,0.0312
2102.00,0.0312
2101.00,0.0313
2100.00,0.0313
2099.00,0.0312
2098.00,0.0311
2097.00,0.0310
2096.00,0.0309
2095.00,0.0307
2094.00,0.0307
2093.00,0.0307
2092.00,0.0307
2091.00,0.0307
2090.00,0.0308
2089.00,0.0308
2088.00,0.0309
2087.00,0.0309
2086.00,0.0309
2085.00,0.0310
2084.00,0.0310
2083.00,0.0310
2082.00,0.0310
2081.00,0.0310
2080.00,0.0310
2079.00,0.0310
2078.00,0.0309
2077.00,0.0308
2076.00,0.0307
2075.00,0.0306
2074.00,0.0305
2073.00,0.0305
2072.00,0.0305
2071.00,0.0304
2070.00,0.0304
2069.00,0.0303
2068.00,0.0303
2067.00,0.0303
2066.00,0.0302
2065.00,0.0302
2064.00,0.0301
2063.00,0.0301
2062.00,0.0301
2061.00,0.0301
2060.00,0.0301
2059.00,0.0302
2058.00,0.0302
2057.00,0.0302
2056.00,0.0301
2055.00,0.0300
2054.00,0.0301
2053.00,0.0304
2052.00,0.0306
2051.00,0.0306
2050.00,0.0304
2049.00,0.0300
2048.00,0.0297
2047.00,0.0295
2046.00,0.0294
2045.00,0.0295
2044.00,0.0296
2043.00,0.0297
2042.00,0.0298
2041.00,0.0299
2040.00,0.0299
2039.00,0.0298
2038.00,0.0296
2037.00,0.0295
2036.00,0.0293
2035.00,0.0291
2034.00,0.0289
2033.00,0.0289
2032.00,0.0289
2031.00,0.0289
2030.00,0.0289
2029.00,0.0288
2028.00,0.0287
2027.00,0.0286
2026.00,0.0285
2025.00,0.0284
2024.00,0.0283
2023.00,0.0282
2022.00,0.0282
2021.00,0.0282
2020.00,0.0283
2019.00,0.0283
2018.00,0.0283
2017.00,0.0283
2016.00,0.0282
2015.00,0.0282
2014.00,0.0281
2013.00,0.0281
2012.00,0.0280
2011.00,0.0280
2010.00,0.0279
2009.00,0.0279
2008.00,0.0278
2007.00,0.0276
2006.00,0.0274
2005.00,0.0274
2004.00,0.0275
2003.00,0.0276
2002.00,0.0277
2001.00,0.0279
2000.00,0.0280
1999.00,0.0281
1998.00,0.0281
1997.00,0.0281
1996.00,0.0282
1995.00,0.0282
1994.00,0.0282
1993.00,0.0282
1992.00,0.0281
1991.00,0.0281
1990.00,0.0281
1989.00,0.0282
1988.00,0.0282
1987.00,0.0281
1986.00,0.0282
1985.00,0.0283
1984.00,0.0285
1983.00,0.0287
1982.00,0.0289
1981.00,0.0291
1980.00,0.0290
1979.00,0.0286
1978.00,0.0280
1977.00,0.0276
1976.00,0.0273
1975.00,0.0271
1974.00,0.0270
1973.00,0.0270
1972.00,0.0270
1971.00,0.0271
1970.00,0.0271
1969.00,0.0270
1968.00,0.0269
1967.00,0.0267
1966.00,0.0265
1965.00,0.0264
1964.00,0.0264
1963.00,0.0264
1962.00,0.0264
1961.00,0.0264
1960.00,0.0265
1959.00,0.0265
1958.00,0.0266
1957.00,0.0267
1956.00,0.0268
1955.00,0.0268
1954.00,0.0267
1953.00,0.0266
1952.00,0.0266
1951.00,0.0265
1950.00,0.0265
1949.00,0.0266
1948.00,0.0267
1947.00,0.0267
1946.00,0.0266
1945.00,0.0266
1944.00,0.0266
1943.00,0.0265
1942.00,0.0264
1941.00,0.0263
1940.00,0.0263
1939.00,0.0264
1938.00,0.0264
1937.00,0.0265
1936.00,0.0265
1935.00,0.0265
1934.00,0.0264
1933.00,0.0264
1932.00,0.0264
1931.00,0.0264
1930.00,0.0263
1929.00,0.0263
1928.00,0.0263
1927.00,0.0262
1926.00,0.0262
1925.00,0.0263
1924.00,0.0263
1923.00,0.0263
1922.00,0.0263
1921.00,0.0263
1920.00,0.0264
1919.00,0.0264
1918.00,0.0262
1917.00,0.0260
1916.00,0.0259
1915.00,0.0260
1914.00,0.0261
1913.00,0.0261
1912.00,0.0262
1911.00,0.0261
1910.00,0.0260
1909.00,0.0259
1908.00,0.0258
1907.00,0.0258
1906.00,0.0258
1905.00,0.0257
1904.00,0.0257
1903.00,0.0257
1902.00,0.0256
1901.00,0.0256
1900.00,0.0256
1899.00,0.0257
1898.00,0.0257
1897.00,0.0257
1896.00,0.0256
1895.00,0.0255
1894.00,0.0254
1893.00,0.0255
1892.00,0.0255
1891.00,0.0255
1890.00,0.0253
1889.00,0.0251
1888.00,0.0250
1887.00,0.0251
1886.00,0.0251
1885.00,0.0252
1884.00,0.0252
1883.00,0.0251
1882.00,0.0251
1881.00,0.0251
1880.00,0.0251
1879.00,0.0250
1878.00,0.0249
1877.00,0.0249
1876.00,0.0248
1875.00,0.0248
1874.00,0.0248
1873.00,0.0249
1872.00,0.0250
1871.00,0.0250
1870.00,0.0249
1869.00,0.0246
1868.00,0.0243
1867.00,0.0240
1866.00,0.0240
1865.00,0.0242
1864.00,0.0243
1863.00,0.0244
1862.00,0.0244
1861.00,0.0244
1860.00,0.0244
1859.00,0.0243
1858.00,0.0242
1857.00,0.0241
1856.00,0.0240
1855.00,0.0240
1854.00,0.0240
1853.00,0.0239
1852.00,0.0239
1851.00,0.0240
1850.00,0.0240
1849.00,0.0241
1848.00,0.0241
1847.00,0.0241
1846.00,0.0241
1845.00,0.0239
1844.00,0.0235
1843.00,0.0232
1842.00,0.0232
1841.00,0.0233
1840.00,0.0235
1839.00,0.0235
1838.00,0.0235
1837.00,0.0234
1836.00,0.0234
1835.00,0.0234
1834.00,0.0234
1833.00,0.0235
1832.00,0.0235
1831.00,0.0233
1830.00,0.0229
1829.00,0.0226
1828.00,0.0227
1827.00,0.0229
1826.00,0.0230
1825.00,0.0229
1824.00,0.0227
1823.00,0.0227
1822.00,0.0228
1821.00,0.0228
1820.00,0.0228
1819.00,0.0228
1818.00,0.0226
1817.00,0.0226
1816.00,0.0226
1815.00,0.0226
1814.00,0.0228
1813.00,0.0228
1812.00,0.0228
1811.00,0.0227
1810.00,0.0226
1809.00,0.0226
1808.00,0.0226
1807.00,0.0227
1806.00,0.0228
1805.00,0.0229
1804.00,0.0231
1803.00,0.0232
1802.00,0.0231
1801.00,0.0230
1800.00,0.0228
1799.00,0.0227
1798.00,0.0229
1797.00,0.0231
1796.00,0.0234
1795.00,0.0236
1794.00,0.0236
1793.00,0.0236
1792.00,0.0234
1791.00,0.0232
1790.00,0.0232
1789.00,0.0236
1788.00,0.0239
1787.00,0.0243
1786.00,0.0245
1785.00,0.0246
1784.00,0.0247
1783.00,0.0249
1782.00,0.0250
1781.00,0.0252
1780.00,0.0252
1779.00,0.0254
1778.00,0.0256
1777.00,0.0260
1776.00,0.0263
1775.00,0.0265
1774.00,0.0267
1773.00,0.0266
1772.00,0.0264
1771.00,0.0263
1770.00,0.0266
1769.00,0.0271
1768.00,0.0275
1767.00,0.0277
1766.00,0.0279
1765.00,0.0282
1764.00,0.0286
1763.00,0.0287
1762.00,0.0287
1761.00,0.0287
1760.00,0.0289
1759.00,0.0292
1758.00,0.0295
1757.00,0.0297
1756.00,0.0298
1755.00,0.0301
1754.00,0.0305
1753.00,0.0310
1752.00,0.0315
1751.00,0.0317
1750.00,0.0316
1749.00,0.0316
1748.00,0.0318
1747.00,0.0321
1746.00,0.0325
1745.00,0.0329
1744.00,0.0333
1743.00,0.0335
1742.00,0.0338
1741.00,0.0340
1740.00,0.0343
1739.00,0.0346
1738.00,0.0350
1737.00,0.0356
1736.00,0.0363
1735.00,0.0369
1734.00,0.0371
1733.00,0.0371
1732.00,0.0374
1731.00,0.0379
1730.00,0.0384
1729.00,0.0389
1728.00,0.0394
1727.00,0.0399
1726.00,0.0404
1725.00,0.0410
1724.00,0.0415
1723.00,0.0419
1722.00,0.0423
1721.00,0.0426
1720.00,0.0430
1719.00,0.0434
1718.00,0.0438
1717.00,0.0440
1716.00,0.0442
1715.00,0.0444
1714.00,0.0447
1713.00,0.0451
1712.00,0.0455
1711.00,0.0458
1710.00,0.0461
1709.00,0.0464
1708.00,0.0467
1707.00,0.0468
1706.00,0.0469
1705.00,0.0470
1704.00,0.0471
1703.00,0.0473
1702.00,0.0474
1701.00,0.0475
1700.00,0.0475
1699.00,0.0475
1698.00,0.0478
1697.00,0.0482
1696.00,0.0483
1695.00,0.0482
1694.00,0.0483
1693.00,0.0486
1692.00,0.0489
1691.00,0.0492
1690.00,0.0494
1689.00,0.0495
1688.00,0.0496
1687.00,0.0497
1686.00,0.0498
1685.00,0.0497
1684.00,0.0495
1683.00,0.0494
1682.00,0.0498
1681.00,0.0504
1680.00,0.0509
1679.00,0.0512
1678.00,0.0514
1677.00,0.0515
1676.00,0.0517
1675.00,0.0519
1674.00,0.0520
1673.00,0.0523
1672.00,0.0526
1671.00,0.0529
1670.00,0.0532
1669.00,0.0534
1668.00,0.0537
1667.00,0.0541
1666.00,0.0545
1665.00,0.0549
1664.00,0.0553
1663.00,0.0556
1662.00,0.0559
1661.00,0.0563
1660.00,0.0567
1659.00,0.0571
1658.00,0.0575
1657.00,0.0577
1656.00,0.0577
1655.00,0.0578
1654.00,0.0581
1653.00,0.0584
1652.00,0.0587
1651.00,0.0592
1650.00,0.0597
1649.00,0.0602
1648.00,0.0608
1647.00,0.0614
1646.00,0.0619
1645.00,0.0624
1644.00,0.0630
1643.00,0.0635
1642.00,0.0640
1641.00,0.0645
1640.00,0.0648
1639.00,0.0650
1638.00,0.0652
1637.00,0.0656
1636.00,0.0662
1635.00,0.0667
1634.00,0.0673
1633.00,0.0679
1632.00,0.0685
1631.00,0.0690
1630.00,0.0695
1629.00,0.0700
1628.00,0.0705
1627.00,0.0709
1626.00,0.0713
1625.00,0.0718
1624.00,0.0724
1623.00,0.0731
1622.00,0.0736
1621.00,0.0740
1620.00,0.0743
1619.00,0.0745
1618.00,0.0750
1617.00,0.0756
1616.00,0.0762
1615.00,0.0767
1614.00,0.0770
1613.00,0.0774
1612.00,0.0778
1611.00,0.0783
1610.00,0.0787
1609.00,0.0792
1608.00,0.0797
1607.00,0.0801
1606.00,0.0806
1605.00,0.0810
1604.00,0.0816
1603.00,0.0822
1602.00,0.0828
1601.00,0.0832
1600.00,0.0837
1599.00,0.0840
1598.00,0.0843
1597.00,0.0847
1596.00,0.0851
1595.00,0.0855
1594.00,0.0857
1593.00,0.0858
1592.00,0.0858
1591.00,0.0858
1590.00,0.0858
1589.00,0.0858
1588.00,0.0858
1587.00,0.0859
1586.00,0.0860
1585.00,0.0862
1584.00,0.0863
1583.00,0.0865
1582.00,0.0866
1581.00,0.0867
1580.00,0.0866
1579.00,0.0865
1578.00,0.0865
1577.00,0.0868
1576.00,0.0873
1575.00,0.0876
1574.00,0.0875
1573.00,0.0873
1572.00,0.0871
1571.00,0.0871
1570.00,0.0873
1569.00,0.0876
1568.00,0.0877
1567.00,0.0878
1566.00,0.0879
1565.00,0.0879
1564.00,0.0880
1563.00,0.0878
1562.00,0.0873
1561.00,0.0866
1560.00,0.0864
1559.00,0.0873
1558.00,0.0875
1557.00,0.0874
1556.00,0.0875
1555.00,0.0877
1554.00,0.0877
1553.00,0.0876
1552.00,0.0875
1551.00,0.0874
1550.00,0.0873
1549.00,0.0869
1548.00,0.0864
1547.00,0.0859
1546.00,0.0852
1545.00,0.0845
1544.00,0.0837
1543.00,0.0828
1542.00,0.0819
1541.00,0.0812
1540.00,0.0806
1539.00,0.0801
1538.00,0.0798
1537.00,0.0795
1536.00,0.0791
1535.00,0.0786
1534.00,0.0782
1533.00,0.0778
1532.00,0.0774
1531.00,0.0771
1530.00,0.0768
1529.00,0.0764
1528.00,0.0761
1527.00,0.0757
1526.00,0.0752
1525.00,0.0746
1524.00,0.0741
1523.00,0.0736
1522.00,0.0734
1521.00,0.0731
1520.00,0.0726
1519.00,0.0722
1518.00,0.0719
1517.00,0.0716
1516.00,0.0714
1515.00,0.0712
1514.00,0.0709
1513.00,0.0708
1512.00,0.0706
1511.00,0.0703
1510.00,0.0699
1509.00,0.0694
1508.00,0.0692
1507.00,0.0687
1506.00,0.0681
1505.00,0.0678
1504.00,0.0679
1503.00,0.0679
1502.00,0.0678
1501.00,0.0675
1500.00,0.0672
1499.00,0.0669
1498.00,0.0667
1497.00,0.0668
1496.00,0.0668
1495.00,0.0668
1494.00,0.0667
1493.00,0.0667
1492.00,0.0667
1491.00,0.0669
1490.00,0.0669
1489.00,0.0669
1488.00,0.0667
1487.00,0.0666
1486.00,0.0666
1485.00,0.0667
1484.00,0.0667
1483.00,0.0668
1482.00,0.0668
1481.00,0.0668
1480.00,0.0669
1479.00,0.0668
1478.00,0.0669
1477.00,0.0670
1476.00,0.0671
1475.00,0.0673
1474.00,0.0675
1473.00,0.0677
1472.00,0.0678
1471.00,0.0679
1470.00,0.0679
1469.00,0.0681
1468.00,0.0682
1467.00,0.0683
1466.00,0.0684
1465.00,0.0686
1464.00,0.0688
1463.00,0.0690
1462.00,0.0690
1461.00,0.0690
1460.00,0.0690
1459.00,0.0691
1458.00,0.0694
1457.00,0.0699
1456.00,0.0702
1455.00,0.0703
1454.00,0.0704
1453.00,0.0705
1452.00,0.0707
1451.00,0.0708
1450.00,0.0709
1449.00,0.0711
1448.00,0.0713
1447.00,0.0714
1446.00,0.0715
1445.00,0.0717
1444.00,0.0719
1443.00,0.0721
1442.00,0.0722
1441.00,0.0723
1440.00,0.0724
1439.00,0.0725
1438.00,0.0727
1437.00,0.0731
1436.00,0.0735
1435.00,0.0737
1434.00,0.0738
1433.00,0.0738
1432.00,0.0740
1431.00,0.0742
1430.00,0.0744
1429.00,0.0746
1428.00,0.0748
1427.00,0.0750
1426.00,0.0751
1425.00,0.0753
1424.00,0.0755
1423.00,0.0757
1422.00,0.0757
1421.00,0.0758
1420.00,0.0761
1419.00,0.0766
1418.00,0.0768
1417.00,0.0770
1416.00,0.0771
1415.00,0.0772
1414.00,0.0773
1413.00,0.0775
1412.00,0.0777
1411.00,0.0779
1410.00,0.0781
1409.00,0.0782
1408.00,0.0784
1407.00,0.0786
1406.00,0.0789
1405.00,0.0792
1404.00,0.0797
1403.00,0.0799
1402.00,0.0801
1401.00,0.0803
1400.00,0.0807
1399.00,0.0810
1398.00,0.0813
1397.00,0.0815
1396.00,0.0817
1395.00,0.0820
1394.00,0.0821
1393.00,0.0823
1392.00,0.0824
1391.00,0.0825
1390.00,0.0827
1389.00,0.0830
1388.00,0.0834
1387.00,0.0837
1386.00,0.0839
1385.00,0.0840
1384.00,0.0841
1383.00,0.0843
1382.00,0.0844
1381.00,0.0845
1380.00,0.0847
1379.00,0.0848
1378.00,0.0848
1377.00,0.0849
1376.00,0.0849
1375.00,0.0851
1374.00,0.0852
1373.00,0.0852
1372.00,0.0852
1371.00,0.0852
1370.00,0.0852
1369.00,0.0852
1368.00,0.0852
1367.00,0.0851
1366.00,0.0850
1365.00,0.0850
1364.00,0.0851
1363.00,0.0852
1362.00,0.0852
1361.00,0.0851
1360.00,0.0849
1359.00,0.0848
1358.00,0.0847
1357.00,0.0846
1356.00,0.0846
1355.00,0.0845
1354.00,0.0844
1353.00,0.0843
1352.00,0.0841
1351.00,0.0840
1350.00,0.0839
1349.00,0.0838
1348.00,0.0837
1347.00,0.0835
1346.00,0.0834
1345.00,0.0833
1344.00,0.0832
1343.00,0.0831
1342.00,0.0831
1341.00,0.0831
1340.00,0.0832
1339.00,0.0832
1338.00,0.0831
1337.00,0.0829
1336.00,0.0827
1335.00,0.0826
1334.00,0.0824
1333.00,0.0823
1332.00,0.0821
1331.00,0.0821
1330.00,0.0820
1329.00,0.0819
1328.00,0.0818
1327.00,0.0817
1326.00,0.0817
1325.00,0.0817
1324.00,0.0817
1323.00,0.0817
1322.00,0.0817
1321.00,0.0817
1320.00,0.0817
1319.00,0.0818
1318.00,0.0818
1317.00,0.0818
1316.00,0.0818
1315.00,0.0818
1314.00,0.0819
1313.00,0.0819
1312.00,0.0818
1311.00,0.0818
1310.00,0.0817
1309.00,0.0817
1308.00,0.0817
1307.00,0.0817
1306.00,0.0817
1305.00,0.0817
1304.00,0.0817
1303.00,0.0818
1302.00,0.0818
1301.00,0.0818
1300.00,0.0818
1299.00,0.0819
1298.00,0.0820
1297.00,0.0821
1296.00,0.0822
1295.00,0.0822
1294.00,0.0823
1293.00,0.0824
1292.00,0.0825
1291.00,0.0826
1290.00,0.0827
1289.00,0.0828
1288.00,0.0829
1287.00,0.0831
1286.00,0.0832
1285.00,0.0833
1284.00,0.0834
1283.00,0.0835
1282.00,0.0836
1281.00,0.0837
1280.00,0.0838
1279.00,0.0838
1278.00,0.0839
1277.00,0.0840
1276.00,0.0841
1275.00,0.0842
1274.00,0.0843
1273.00,0.0844
1272.00,0.0845
1271.00,0.0846
1270.00,0.0847
1269.00,0.0848
1268.00,0.0849
1267.00,0.0850
1266.00,0.0851
1265.00,0.0851
1264.00,0.0852
1263.00,0.0853
1262.00,0.0854
1261.00,0.0855
1260.00,0.0856
1259.00,0.0856
1258.00,0.0857
1257.00,0.0858
1256.00,0.0858
1255.00,0.0859
1254.00,0.0859
1253.00,0.0860
1252.00,0.0861
1251.00,0.0862
1250.00,0.0863
1249.00,0.0863
1248.00,0.0863
1247.00,0.0863
1246.00,0.0864
1245.00,0.0864
1244.00,0.0864
1243.00,0.0864
1242.00,0.0864
1241.00,0.0864
1240.00,0.0864
1239.00,0.0864
1238.00,0.0864
1237.00,0.0864
1236.00,0.0864
1235.00,0.0864
1234.00,0.0864
1233.00,0.0864
1232.00,0.0864
1231.00,0.0864
1230.00,0.0863
1229.00,0.0863
1228.00,0.0863
1227.00,0.0862
1226.00,0.0862
1225.00,0.0861
1224.00,0.0861
1223.00,0.0860
1222.00,0.0859
1221.00,0.0859
1220.00,0.0858
1219.00,0.0857
1218.00,0.0856
1217.00,0.0856
1216.00,0.0856
1215.00,0.0855
1214.00,0.0855
1213.00,0.0854
1212.00,0.0854
1211.00,0.0854
1210.00,0.0854
1209.00,0.0854
1208.00,0.0853
1207.00,0.0853
1206.00,0.0853
1205.00,0.0852
1204.00,0.0852
1203.00,0.0852
1202.00,0.0851
1201.00,0.0850
1200.00,0.0850
1199.00,0.0850
1198.00,0.0849
1197.00,0.0849
1196.00,0.0848
1195.00,0.0848
1194.00,0.0847
1193.00,0.0846
1192.00,0.0846
1191.00,0.0845
1190.00,0.0845
1189.00,0.0845
1188.00,0.0844
1187.00,0.0844
1186.00,0.0844
1185.00,0.0843
1184.00,0.0842
1183.00,0.0842
1182.00,0.0842
1181.00,0.0843
1180.00,0.0844
1179.00,0.0846
1178.00,0.0846
1177.00,0.0846
1176.00,0.0846
1175.00,0.0846
1174.00,0.0846
1173.00,0.0846
1172.00,0.0847
1171.00,0.0848
1170.00,0.0849
1169.00,0.0849
1168.00,0.0850
1167.00,0.0850
1166.00,0.0851
1165.00,0.0851
1164.00,0.0851
1163.00,0.0852
1162.00,0.0851
1161.00,0.0851
1160.00,0.0851
1159.00,0.0850
1158.00,0.0849
1157.00,0.0848
1156.00,0.0848
1155.00,0.0847
1154.00,0.0846
1153.00,0.0845
1152.00,0.0844
1151.00,0.0843
1150.00,0.0842
1149.00,0.0841
1148.00,0.0840
1147.00,0.0839
1146.00,0.0837
1145.00,0.0836
1144.00,0.0835
1143.00,0.0834
1142.00,0.0833
1141.00,0.0832
1140.00,0.0831
1139.00,0.0831
1138.00,0.0830
1137.00,0.0829
1136.00,0.0829
1135.00,0.0828
1134.00,0.0827
1133.00,0.0827
1132.00,0.0827
1131.00,0.0827
1130.00,0.0827
1129.00,0.0827
1128.00,0.0827
1127.00,0.0827
1126.00,0.0827
1125.00,0.0827
1124.00,0.0828
1123.00,0.0828
1122.00,0.0828
1121.00,0.0828
1120.00,0.0828
1119.00,0.0828
1118.00,0.0828
1117.00,0.0829
1116.00,0.0829
1115.00,0.0829
1114.00,0.0830
1113.00,0.0830
1112.00,0.0831
1111.00,0.0831
1110.00,0.0831
1109.00,0.0831
1108.00,0.0831
1107.00,0.0831
1106.00,0.0831
1105.00,0.0831
1104.00,0.0831
1103.00,0.0831
1102.00,0.0831
1101.00,0.0831
1100.00,0.0831
1099.00,0.0831
1098.00,0.0831
1097.00,0.0831
1096.00,0.0830
1095.00,0.0830
1094.00,0.0830
1093.00,0.0830
1092.00,0.0830
1091.00,0.0830
1090.00,0.0830
1089.00,0.0830
1088.00,0.0830
1087.00,0.0830
1086.00,0.0830
1085.00,0.0830
1084.00,0.0830
1083.00,0.0830
1082.00,0.0830
1081.00,0.0830
1080.00,0.0831
1079.00,0.0831
1078.00,0.0831
1077.00,0.0832
1076.00,0.0832
1075.00,0.0832
1074.00,0.0832
1073.00,0.0833
1072.00,0.0834
1071.00,0.0835
1070.00,0.0836
1069.00,0.0837
1068.00,0.0839
1067.00,0.0840
1066.00,0.0841
1065.00,0.0841
1064.00,0.0841
1063.00,0.0841
1062.00,0.0841
1061.00,0.0841
1060.00,0.0841
1059.00,0.0841
1058.00,0.0841
1057.00,0.0841
1056.00,0.0841
1055.00,0.0841
1054.00,0.0840
1053.00,0.0840
1052.00,0.0840
1051.00,0.0841
1050.00,0.0842
1049.00,0.0842
1048.00,0.0843
1047.00,0.0843
1046.00,0.0843
1045.00,0.0842
1044.00,0.0842
1043.00,0.0842
1042.00,0.0843
1041.00,0.0843
1040.00,0.0843
1039.00,0.0844
1038.00,0.0844
1037.00,0.0845
1036.00,0.0845
1035.00,0.0846
1034.00,0.0846
1033.00,0.0846
1032.00,0.0846
1031.00,0.0846
1030.00,0.0845
1029.00,0.0845
1028.00,0.0844
1027.00,0.0843
1026.00,0.0843
1025.00,0.0842
1024.00,0.0842
1023.00,0.0841
1022.00,0.0840
1021.00,0.0839
1020.00,0.0838
1019.00,0.0837
1018.00,0.0836
1017.00,0.0834
1016.00,0.0833
1015.00,0.0831
1014.00,0.0829
1013.00,0.0828
1012.00,0.0826
1011.00,0.0825
1010.00,0.0823
1009.00,0.0821
1008.00,0.0820
1007.00,0.0819
1006.00,0.0818
1005.00,0.0817
1004.00,0.0816
1003.00,0.0814
1002.00,0.0812
1001.00,0.0811
1000.00,0.0809
999.00,0.0808
998.00,0.0807
997.00,0.0805
996.00,0.0804
995.00,0.0802
994.00,0.0800
993.00,0.0799
992.00,0.0797
991.00,0.0795
990.00,0.0794
989.00,0.0793
988.00,0.0792
987.00,0.0791
986.00,0.0790
985.00,0.0789
984.00,0.0787
983.00,0.0786
982.00,0.0785
981.00,0.0783
980.00,0.0782
979.00,0.0780
978.00,0.0778
977.00,0.0776
976.00,0.0775
975.00,0.0774
974.00,0.0773
973.00,0.0771
972.00,0.0770
971.00,0.0768
970.00,0.0767
969.00,0.0766
968.00,0.0765
967.00,0.0764
966.00,0.0763
965.00,0.0761
964.00,0.0760
963.00,0.0759
962.00,0.0757
961.00,0.0756
960.00,0.0755
959.00,0.0754
958.00,0.0752
957.00,0.0751
956.00,0.0749
955.00,0.0748
954.00,0.0747
953.00,0.0745
952.00,0.0744
951.00,0.0743
950.00,0.0742
949.00,0.0741
948.00,0.0740
947.00,0.0739
946.00,0.0738
945.00,0.0737
944.00,0.0736
943.00,0.0735
942.00,0.0734
941.00,0.0734
940.00,0.0733
939.00,0.0733
938.00,0.0732
937.00,0.0732
936.00,0.0732
935.00,0.0732
934.00,0.0731
933.00,0.0731
932.00,0.0731
931.00,0.0731
930.00,0.0731
929.00,0.0731
928.00,0.0731
927.00,0.0731
926.00,0.0731
925.00,0.0731
924.00,0.0732
923.00,0.0732
922.00,0.0732
921.00,0.0733
920.00,0.0733
919.00,0.0733
918.00,0.0734
917.00,0.0735
916.00,0.0736
915.00,0.0737
914.00,0.0738
913.00,0.0739
912.00,0.0740
911.00,0.0740
910.00,0.0741
909.00,0.0742
908.00,0.0742
907.00,0.0743
906.00,0.0743
905.00,0.0744
904.00,0.0745
903.00,0.0746
902.00,0.0746
901.00,0.0747
900.00,0.0747
899.00,0.0748
898.00,0.0749
897.00,0.0750
896.00,0.0750
895.00,0.0751
894.00,0.0751
893.00,0.0751
892.00,0.0752
891.00,0.0751
890.00,0.0751
889.00,0.0750
888.00,0.0750
887.00,0.0750
886.00,0.0751
885.00,0.0751
884.00,0.0752
883.00,0.0752
882.00,0.0752
881.00,0.0752
880.00,0.0752
879.00,0.0752
878.00,0.0753
877.00,0.0753
876.00,0.0752
875.00,0.0752
874.00,0.0752
873.00,0.0753
872.00,0.0754
871.00,0.0754
870.00,0.0755
869.00,0.0755
868.00,0.0755
867.00,0.0755
866.00,0.0756
865.00,0.0756
864.00,0.0757
863.00,0.0757
862.00,0.0757
861.00,0.0758
860.00,0.0758
859.00,0.0759
858.00,0.0761
857.00,0.0762
856.00,0.0763
855.00,0.0764
854.00,0.0765
853.00,0.0766
852.00,0.0768
851.00,0.0770
850.00,0.0772
849.00,0.0775
848.00,0.0777
847.00,0.0779
846.00,0.0781
845.00,0.0784
844.00,0.0786
843.00,0.0789
842.00,0.0791
841.00,0.0793
840.00,0.0796
839.00,0.0798
838.00,0.0801
837.00,0.0803
836.00,0.0806
835.00,0.0809
834.00,0.0812
833.00,0.0814
832.00,0.0817
831.00,0.0818
830.00,0.0819
829.00,0.0821
828.00,0.0823
827.00,0.0825
826.00,0.0828
825.00,0.0831
824.00,0.0834
823.00,0.0836
822.00,0.0838
821.00,0.0840
820.00,0.0842
819.00,0.0844
818.00,0.0846
817.00,0.0848
816.00,0.0849
815.00,0.0851
814.00,0.0852
813.00,0.0854
812.00,0.0855
811.00,0.0857
810.00,0.0858
809.00,0.0860
808.00,0.0862
807.00,0.0863
806.00,0.0864
805.00,0.0865
804.00,0.0866
803.00,0.0867
802.00,0.0869
801.00,0.0871
800.00,0.0872
799.00,0.0873
798.00,0.0873
797.00,0.0874
796.00,0.0875
795.00,0.0876
794.00,0.0878
793.00,0.0879
792.00,0.0881
791.00,0.0882
790.00,0.0883
789.00,0.0885
788.00,0.0886
787.00,0.0888
786.00,0.0890
785.00,0.0891
784.00,0.0892
783.00,0.0893
782.00,0.0895
781.00,0.0897
780.00,0.0899
779.00,0.0901
778.00,0.0903
777.00,0.0905
776.00,0.0906
775.00,0.0908
774.00,0.0910
773.00,0.0912
772.00,0.0914
771.00,0.0916
770.00,0.0918
769.00,0.0920
768.00,0.0922
767.00,0.0923
766.00,0.0924
765.00,0.0926
764.00,0.0928
763.00,0.0929
762.00,0.0930
761.00,0.0930
760.00,0.0932
759.00,0.0933
758.00,0.0935
757.00,0.0936
756.00,0.0937
755.00,0.0938
754.00,0.0939
753.00,0.0940
752.00,0.0942
751.00,0.0942
750.00,0.0943
749.00,0.0943
748.00,0.0945
747.00,0.0946
746.00,0.0947
745.00,0.0947
744.00,0.0947
743.00,0.0948
742.00,0.0949
741.00,0.0949
740.00,0.0950
739.00,0.0950
738.00,0.0950
737.00,0.0950
736.00,0.0951
735.00,0.0952
734.00,0.0952
733.00,0.0953
732.00,0.0954
731.00,0.0956
730.00,0.0957
729.00,0.0958
728.00,0.0959
727.00,0.0960
726.00,0.0962
725.00,0.0964
724.00,0.0967
723.00,0.0970
722.00,0.0973
721.00,0.0977
720.00,0.0982
719.00,0.0986
718.00,0.0989
717.00,0.0991
716.00,0.0994
715.00,0.0997
714.00,0.0998
713.00,0.0998
712.00,0.0996
711.00,0.0994
710.00,0.0993
709.00,0.0994
708.00,0.0997
707.00,0.1000
706.00,0.1003
705.00,0.1005
704.00,0.1007
703.00,0.1008
702.00,0.1008
701.00,0.1008
700.00,0.1008
699.00,0.1009
698.00,0.1009
697.00,0.1010
696.00,0.1011
695.00,0.1013
694.00,0.1015
693.00,0.1017
692.00,0.1019
691.00,0.1020
690.00,0.1021
689.00,0.1023
688.00,0.1026
687.00,0.1029
686.00,0.1031
685.00,0.1033
684.00,0.1034
683.00,0.1036
682.00,0.1038
681.00,0.1040
680.00,0.1042
679.00,0.1044
678.00,0.1046
677.00,0.1048
676.00,0.1050
675.00,0.1051
674.00,0.1052
673.00,0.1053
672.00,0.1053
671.00,0.1053
670.00,0.1054
669.00,0.1058
668.00,0.1065
667.00,0.1072
666.00,0.1075
665.00,0.1074
664.00,0.1074
663.00,0.1075
662.00,0.1077
661.00,0.1079
660.00,0.1080
659.00,0.1082
658.00,0.1083
657.00,0.1085
656.00,0.1087
655.00,0.1089
654.00,0.1090
653.00,0.1090
652.00,0.1091
651.00,0.1093
650.00,0.1095
