Created as New Dataset,Sample 005 By Administrator Date Monday, March 20 2023
cm-1,A
4000.00,0.0174
3999.00,0.0174
3998.00,0.0174
3997.00,0.0173
3996.00,0.0173
3995.00,0.0173
3994.00,0.0173
3993.00,0.0173
3992.00,0.0173
3991.00,0.0173
3990.00,0.0173
3989.00,0.0173
3988.00,0.0173
3987.00,0.0173
3986.00,0.0173
3985.00,0.0173
3984.00,0.0173
3983.00,0.0173
3982.00,0.0173
3981.00,0.0173
3980.00,0.0173
3979.00,0.0173
3978.00,0.0173
3977.00,0.0173
3976.00,0.0173
3975.00,0.0172
3974.00,0.0172
3973.00,0.0172
3972.00,0.0172
3971.00,0.0172
3970.00,0.0172
3969.00,0.0172
3968.00,0.0172
3967.00,0.0172
3966.00,0.0172
3965.00,0.0172
3964.00,0.0172
3963.00,0.0172
3962.00,0.0172
3961.00,0.0172
3960.00,0.0172
3959.00,0.0172
3958.00,0.0171
3957.00,0.0171
3956.00,0.0171
3955.00,0.0171
3954.00,0.0171
3953.00,0.0171
3952.00,0.0171
3951.00,0.0171
3950.00,0.0171
3949.00,0.0171
3948.00,0.0171
3947.00,0.0171
3946.00,0.0171
3945.00,0.0171
3944.00,0.0171
3943.00,0.0171
3942.00,0.0170
3941.00,0.0170
3940.00,0.0171
3939.00,0.0171
3938.00,0.0171
3937.00,0.0171
3936.00,0.0171
3935.00,0.0171
3934.00,0.0171
3933.00,0.0170
3932.00,0.0170
3931.00,0.0170
3930.00,0.0170
3929.00,0.0170
3928.00,0.0170
3927.00,0.0170
3926.00,0.0169
3925.00,0.0169
3924.00,0.0169
3923.00,0.0170
3922.00,0.0170
3921.00,0.0170
3920.00,0.0170
3919.00,0.0170
3918.00,0.0170
3917.00,0.0169
3916.00,0.0169
3915.00,0.0168
3914.00,0.0168
3913.00,0.0168
3912.00,0.0168
3911.00,0.0168
3910.00,0.0168
3909.00,0.0168
3908.00,0.0168
3907.00,0.0168
3906.00,0.0169
3905.00,0.0169
3904.00,0.0169
3903.00,0.0169
3902.00,0.0169
3901.00,0.0169
3900.00,0.0169
3899.00,0.0168
3898.00,0.0168
3897.00,0.0168
3896.00,0.0168
3895.00,0.0168
3894.00,0.0168
3893.00,0.0168
3892.00,0.0167
3891.00,0.0167
3890.00,0.0167
3889.00,0.0167
3888.00,0.0167
3887.00,0.0168
3886.00,0.0168
3885.00,0.0167
3884.00,0.0167
3883.00,0.0167
3882.00,0.0167
3881.00,0.0167
3880.00,0.0166
3879.00,0.0166
3878.00,0.0166
3877.00,0.0166
3876.00,0.0166
3875.00,0.0166
3874.00,0.0166
3873.00,0.0166
3872.00,0.0166
3871.00,0.0167
3870.00,0.0167
3869.00,0.0166
3868.00,0.0166
3867.00,0.0167
3866.00,0.0167
3865.00,0.0167
3864.00,0.0166
3863.00,0.0166
3862.00,0.0166
3861.00,0.0166
3860.00,0.0166
3859.00,0.0166
3858.00,0.0165
3857.00,0.0165
3856.00,0.0165
3855.00,0.0165
3854.00,0.0165
3853.00,0.0165
3852.00,0.0165
3851.00,0.0165
3850.00,0.0165
3849.00,0.0165
3848.00,0.0165
3847.00,0.0165
3846.00,0.0165
3845.00,0.0164
3844.00,0.0164
3843.00,0.0164
3842.00,0.0165
3841.00,0.0165
3840.00,0.0165
3839.00,0.0164
3838.00,0.0164
3837.00,0.0164
3836.00,0.0164
3835.00,0.0163
3834.00,0.0163
3833.00,0.0163
3832.00,0.0163
3831.00,0.0163
3830.00,0.0163
3829.00,0.0163
3828.00,0.0163
3827.00,0.0163
3826.00,0.0163
3825.00,0.0163
3824.00,0.0163
3823.00,0.0163
3822.00,0.0163
3821.00,0.0163
3820.00,0.0162
3819.00,0.0162
3818.00,0.0162
3817.00,0.0162
3816.00,0.0161
3815.00,0.0161
3814.00,0.0161
3813.00,0.0161
3812.00,0.0161
3811.00,0.0161
3810.00,0.0161
3809.00,0.0161
3808.00,0.0161
3807.00,0.0161
3806.00,0.0161
3805.00,0.0161
3804.00,0.0161
3803.00,0.0161
3802.00,0.0161
3801.00,0.0160
3800.00,0.0160
3799.00,0.0160
3798.00,0.0160
3797.00,0.0160
3796.00,0.0159
3795.00,0.0159
3794.00,0.0159
3793.00,0.0159
3792.00,0.0158
3791.00,0.0158
3790.00,0.0158
3789.00,0.0158
3788.00,0.0158
3787.00,0.0158
3786.00,0.0157
3785.00,0.0157
3784.00,0.0157
3783.00,0.0157
3782.00,0.0157
3781.00,0.0157
3780.00,0.0157
3779.00,0.0157
3778.00,0.0157
3777.00,0.0157
3776.00,0.0157
3775.00,0.0157
3774.00,0.0157
3773.00,0.0157
3772.00,0.0157
3771.00,0.0157
3770.00,0.0156
3769.00,0.0156
3768.00,0.0156
3767.00,0.0156
3766.00,0.0156
3765.00,0.0156
3764.00,0.0156
3763.00,0.0156
3762.00,0.0156
3761.00,0.0156
3760.00,0.0156
3759.00,0.0156
3758.00,0.0156
3757.00,0.0156
3756.00,0.0156
3755.00,0.0157
3754.00,0.0157
3753.00,0.0158
3752.00,0.0158
3751.00,0.0159
3750.00,0.0159
3749.00,0.0158
3748.00,0.0158
3747.00,0.0157
3746.00,0.0156
3745.00,0.0156
3744.00,0.0155
3743.00,0.0155
3742.00,0.0155
3741.00,0.0156
3740.00,0.0156
3739.00,0.0156
3738.00,0.0156
3737.00,0.0156
3736.00,0.0155
3735.00,0.0155
3734.00,0.0154
3733.00,0.0153
3732.00,0.0153
3731.00,0.0153
3730.00,0.0153
3729.00,0.0152
3728.00,0.0152
3727.00,0.0152
3726.00,0.0152
3725.00,0.0152
3724.00,0.0152
3723.00,0.0151
3722.00,0.0151
3721.00,0.0150
3720.00,0.0150
3719.00,0.0150
3718.00,0.0150
3717.00,0.0150
3716.00,0.0150
3715.00,0.0151
3714.00,0.0151
3713.00,0.0151
3712.00,0.0151
3711.00,0.0151
3710.00,0.0150
3709.00,0.0150
3708.00,0.0150
3707.00,0.0150
3706.00,0.0150
3705.00,0.0150
3704.00,0.0150
3703.00,0.0149
3702.00,0.0149
3701.00,0.0150
3700.00,0.0150
3699.00,0.0150
3698.00,0.0150
3697.00,0.0150
3696.00,0.0150
3695.00,0.0150
3694.00,0.0151
3693.00,0.0151
3692.00,0.0151
3691.00,0.0151
3690.00,0.0151
3689.00,0.0151
3688.00,0.0151
3687.00,0.0151
3686.00,0.0151
3685.00,0.0151
3684.00,0.0151
3683.00,0.0151
3682.00,0.0152
3681.00,0.0152
3680.00,0.0153
3679.00,0.0153
3678.00,0.0154
3677.00,0.0154
3676.00,0.0155
3675.00,0.0156
3674.00,0.0157
3673.00,0.0158
3672.00,0.0159
3671.00,0.0160
3670.00,0.0160
3669.00,0.0161
3668.00,0.0162
3667.00,0.0163
3666.00,0.0164
3665.00,0.0165
3664.00,0.0166
3663.00,0.0167
3662.00,0.0168
3661.00,0.0169
3660.00,0.0170
3659.00,0.0172
3658.00,0.0174
3657.00,0.0176
3656.00,0.0178
3655.00,0.0179
3654.00,0.0181
3653.00,0.0182
3652.00,0.0184
3651.00,0.0186
3650.00,0.0189
3649.00,0.0191
3648.00,0.0192
3647.00,0.0193
3646.00,0.0194
3645.00,0.0195
3644.00,0.0196
3643.00,0.0197
3642.00,0.0199
3641.00,0.0200
3640.00,0.0201
3639.00,0.0203
3638.00,0.0204
3637.00,0.0206
3636.00,0.0207
3635.00,0.0209
3634.00,0.0210
3633.00,0.0211
3632.00,0.0213
3631.00,0.0214
3630.00,0.0217
3629.00,0.0219
3628.00,0.0221
3627.00,0.0223
3626.00,0.0224
3625.00,0.0224
3624.00,0.0225
3623.00,0.0226
3622.00,0.0228
3621.00,0.0229
3620.00,0.0231
3619.00,0.0232
3618.00,0.0234
3617.00,0.0235
3616.00,0.0236
3615.00,0.0237
3614.00,0.0238
3613.00,0.0239
3612.00,0.0241
3611.00,0.0242
3610.00,0.0243
3609.00,0.0244
3608.00,0.0245
3607.00,0.0246
3606.00,0.0247
3605.00,0.0248
3604.00,0.0248
3603.00,0.0249
3602.00,0.0250
3601.00,0.0251
3600.00,0.0252
3599.00,0.0254
3598.00,0.0255
3597.00,0.0256
3596.00,0.0257
3595.00,0.0258
3594.00,0.0259
3593.00,0.0260
3592.00,0.0261
3591.00,0.0262
3590.00,0.0263
3589.00,0.0264
3588.00,0.0265
3587.00,0.0267
3586.00,0.0268
3585.00,0.0269
3584.00,0.0269
3583.00,0.0270
3582.00,0.0270
3581.00,0.0271
3580.00,0.0272
3579.00,0.0272
3578.00,0.0273
3577.00,0.0274
3576.00,0.0276
3575.00,0.0277
3574.00,0.0278
3573.00,0.0279
3572.00,0.0280
3571.00,0.0281
3570.00,0.0282
3569.00,0.0283
3568.00,0.0284
3567.00,0.0286
3566.00,0.0287
3565.00,0.0289
3564.00,0.0289
3563.00,0.0290
3562.00,0.0291
3561.00,0.0291
3560.00,0.0292
3559.00,0.0293
3558.00,0.0294
3557.00,0.0295
3556.00,0.0296
3555.00,0.0297
3554.00,0.0298
3553.00,0.0299
3552.00,0.0301
3551.00,0.0302
3550.00,0.0303
3549.00,0.0304
3548.00,0.0305
3547.00,0.0307
3546.00,0.0308
3545.00,0.0309
3544.00,0.0309
3543.00,0.0310
3542.00,0.0310
3541.00,0.0311
3540.00,0.0312
3539.00,0.0313
3538.00,0.0314
3537.00,0.0315
3536.00,0.0316
3535.00,0.0317
3534.00,0.0318
3533.00,0.0319
3532.00,0.0320
3531.00,0.0321
3530.00,0.0322
3529.00,0.0323
3528.00,0.0324
3527.00,0.0326
3526.00,0.0327
3525.00,0.0328
3524.00,0.0328
3523.00,0.0329
3522.00,0.0330
3521.00,0.0330
3520.00,0.0331
3519.00,0.0332
3518.00,0.0333
3517.00,0.0334
3516.00,0.0335
3515.00,0.0335
3514.00,0.0336
3513.00,0.0337
3512.00,0.0338
3511.00,0.0339
3510.00,0.0340
3509.00,0.0341
3508.00,0.0342
3507.00,0.0343
3506.00,0.0344
3505.00,0.0345
3504.00,0.0346
3503.00,0.0347
3502.00,0.0348
3501.00,0.0349
3500.00,0.0350
3499.00,0.0350
3498.00,0.0351
3497.00,0.0352
3496.00,0.0352
3495.00,0.0353
3494.00,0.0354
3493.00,0.0355
3492.00,0.0356
3491.00,0.0357
3490.00,0.0357
3489.00,0.0358
3488.00,0.0359
3487.00,0.0360
3486.00,0.0361
3485.00,0.0362
3484.00,0.0363
3483.00,0.0363
3482.00,0.0364
3481.00,0.0365
3480.00,0.0366
3479.00,0.0367
3478.00,0.0368
3477.00,0.0368
3476.00,0.0369
3475.00,0.0370
3474.00,0.0371
3473.00,0.0372
3472.00,0.0372
3471.00,0.0373
3470.00,0.0374
3469.00,0.0375
3468.00,0.0375
3467.00,0.0376
3466.00,0.0377
3465.00,0.0378
3464.00,0.0379
3463.00,0.0380
3462.00,0.0380
3461.00,0.0381
3460.00,0.0382
3459.00,0.0382
3458.00,0.0383
3457.00,0.0384
3456.00,0.0384
3455.00,0.0385
3454.00,0.0386
3453.00,0.0387
3452.00,0.0387
3451.00,0.0388
3450.00,0.0389
3449.00,0.0389
3448.00,0.0390
3447.00,0.0391
3446.00,0.0392
3445.00,0.0393
3444.00,0.0393
3443.00,0.0394
3442.00,0.0394
3441.00,0.0395
3440.00,0.0395
3439.00,0.0396
3438.00,0.0396
3437.00,0.0396
3436.00,0.0397
3435.00,0.0398
3434.00,0.0398
3433.00,0.0399
3432.00,0.0399
3431.00,0.0400
3430.00,0.0401
3429.00,0.0401
3428.00,0.0402
3427.00,0.0403
3426.00,0.0403
3425.00,0.0404
3424.00,0.0405
3423.00,0.0405
3422.00,0.0406
3421.00,0.0406
3420.00,0.0407
3419.00,0.0407
3418.00,0.0407
3417.00,0.0408
3416.00,0.0408
3415.00,0.0409
3414.00,0.0409
3413.00,0.0410
3412.00,0.0410
3411.00,0.0410
3410.00,0.0411
3409.00,0.0411
3408.00,0.0412
3407.00,0.0412
3406.00,0.0412
3405.00,0.0413
3404.00,0.0413
3403.00,0.0413
3402.00,0.0414
3401.00,0.0414
3400.00,0.0414
3399.00,0.0415
3398.00,0.0415
3397.00,0.0416
3396.00,0.0416
3395.00,0.0416
3394.00,0.0416
3393.00,0.0417
3392.00,0.0417
3391.00,0.0418
3390.00,0.0418
3389.00,0.0419
3388.00,0.0419
3387.00,0.0419
3386.00,0.0419
3385.00,0.0420
3384.00,0.0420
3383.00,0.0420
3382.00,0.0420
3381.00,0.0420
3380.00,0.0420
3379.00,0.0420
3378.00,0.0421
3377.00,0.0421
3376.00,0.0421
3375.00,0.0421
3374.00,0.0421
3373.00,0.0421
3372.00,0.0421
3371.00,0.0421
3370.00,0.0421
3369.00,0.0421
3368.00,0.0421
3367.00,0.0422
3366.00,0.0422
3365.00,0.0423
3364.00,0.0423
3363.00,0.0423
3362.00,0.0423
3361.00,0.0423
3360.00,0.0423
3359.00,0.0423
3358.00,0.0423
3357.00,0.0424
3356.00,0.0424
3355.00,0.0424
3354.00,0.0423
3353.00,0.0423
3352.00,0.0423
3351.00,0.0423
3350.00,0.0423
3349.00,0.0423
3348.00,0.0423
3347.00,0.0423
3346.00,0.0423
3345.00,0.0423
3344.00,0.0423
3343.00,0.0423
3342.00,0.0423
3341.00,0.0423
3340.00,0.0422
3339.00,0.0422
3338.00,0.0422
3337.00,0.0422
3336.00,0.0423
3335.00,0.0423
3334.00,0.0423
3333.00,0.0423
3332.00,0.0423
3331.00,0.0423
3330.00,0.0422
3329.00,0.0422
3328.00,0.0421
3327.00,0.0421
3326.00,0.0421
3325.00,0.0421
3324.00,0.0422
3323.00,0.0422
3322.00,0.0422
3321.00,0.0422
3320.00,0.0422
3319.00,0.0422
3318.00,0.0422
3317.00,0.0422
3316.00,0.0421
3315.00,0.0421
3314.00,0.0421
3313.00,0.0421
3312.00,0.0421
3311.00,0.0420
3310.00,0.0420
3309.00,0.0419
3308.00,0.0419
3307.00,0.0419
3306.00,0.0419
3305.00,0.0419
3304.00,0.0419
3303.00,0.0420
3302.00,0.0420
3301.00,0.0420
3300.00,0.0420
3299.00,0.0419
3298.00,0.0419
3297.00,0.0419
3296.00,0.0418
3295.00,0.0418
3294.00,0.0418
3293.00,0.0418
3292.00,0.0419
3291.00,0.0419
3290.00,0.0420
3289.00,0.0420
3288.00,0.0420
3287.00,0.0420
3286.00,0.0419
3285.00,0.0419
3284.00,0.0419
3283.00,0.0419
3282.00,0.0419
3281.00,0.0419
3280.00,0.0419
3279.00,0.0419
3278.00,0.0418
3277.00,0.0418
3276.00,0.0418
3275.00,0.0417
3274.00,0.0417
3273.00,0.0416
3272.00,0.0416
3271.00,0.0416
3270.00,0.0416
3269.00,0.0417
3268.00,0.0417
3267.00,0.0418
3266.00,0.0418
3265.00,0.0418
3264.00,0.0418
3263.00,0.0418
3262.00,0.0418
3261.00,0.0418
3260.00,0.0418
3259.00,0.0417
3258.00,0.0417
3257.00,0.0416
3256.00,0.0416
3255.00,0.0416
3254.00,0.0416
3253.00,0.0416
3252.00,0.0416
3251.00,0.0416
3250.00,0.0416
3249.00,0.0415
3248.00,0.0414
3247.00,0.0414
3246.00,0.0414
3245.00,0.0415
3244.00,0.0415
3243.00,0.0415
3242.00,0.0415
3241.00,0.0415
3240.00,0.0415
3239.00,0.0414
3238.00,0.0414
3237.00,0.0413
3236.00,0.0413
3235.00,0.0412
3234.00,0.0411
3233.00,0.0411
3232.00,0.0412
3231.00,0.0412
3230.00,0.0413
3229.00,0.0413
3228.00,0.0413
3227.00,0.0413
3226.00,0.0412
3225.00,0.0412
3224.00,0.0412
3223.00,0.0412
3222.00,0.0412
3221.00,0.0412
3220.00,0.0411
3219.00,0.0411
3218.00,0.0411
3217.00,0.0411
3216.00,0.0410
3215.00,0.0410
3214.00,0.0410
3213.00,0.0410
3212.00,0.0410
3211.00,0.0410
3210.00,0.0409
3209.00,0.0409
3208.00,0.0409
3207.00,0.0408
3206.00,0.0408
3205.00,0.0408
3204.00,0.0408
3203.00,0.0408
3202.00,0.0407
3201.00,0.0407
3200.00,0.0407
3199.00,0.0407
3198.00,0.0407
3197.00,0.0406
3196.00,0.0406
3195.00,0.0405
3194.00,0.0405
3193.00,0.0404
3192.00,0.0404
3191.00,0.0403
3190.00,0.0403
3189.00,0.0403
3188.00,0.0403
3187.00,0.0403
3186.00,0.0402
3185.00,0.0402
3184.00,0.0401
3183.00,0.0401
3182.00,0.0400
3181.00,0.0400
3180.00,0.0399
3179.00,0.0399
3178.00,0.0399
3177.00,0.0399
3176.00,0.0398
3175.00,0.0398
3174.00,0.0397
3173.00,0.0397
3172.00,0.0396
3171.00,0.0396
3170.00,0.0395
3169.00,0.0395
3168.00,0.0395
3167.00,0.0394
3166.00,0.0394
3165.00,0.0393
3164.00,0.0393
3163.00,0.0392
3162.00,0.0392
3161.00,0.0391
3160.00,0.0390
3159.00,0.0390
3158.00,0.0389
3157.00,0.0388
3156.00,0.0387
3155.00,0.0386
3154.00,0.0385
3153.00,0.0384
3152.00,0.0384
3151.00,0.0384
3150.00,0.0385
3149.00,0.0385
3148.00,0.0385
3147.00,0.0385
3146.00,0.0384
3145.00,0.0384
3144.00,0.0383
3143.00,0.0382
3142.00,0.0381
3141.00,0.0380
3140.00,0.0379
3139.00,0.0379
3138.00,0.0379
3137.00,0.0379
3136.00,0.0379
3135.00,0.0379
3134.00,0.0379
3133.00,0.0378
3132.00,0.0377
3131.00,0.0376
3130.00,0.0376
3129.00,0.0376
3128.00,0.0376
3127.00,0.0376
3126.00,0.0375
3125.00,0.0374
3124.00,0.0373
3123.00,0.0372
3122.00,0.0370
3121.00,0.0369
3120.00,0.0368
3119.00,0.0368
3118.00,0.0367
3117.00,0.0367
3116.00,0.0367
3115.00,0.0368
3114.00,0.0368
3113.00,0.0368
3112.00,0.0368
3111.00,0.0367
3110.00,0.0367
3109.00,0.0366
3108.00,0.0366
3107.00,0.0367
3106.00,0.0367
3105.00,0.0367
3104.00,0.0366
3103.00,0.0366
3102.00,0.0365
3101.00,0.0364
3100.00,0.0364
3099.00,0.0364
3098.00,0.0364
3097.00,0.0364
3096.00,0.0364
3095.00,0.0364
3094.00,0.0363
3093.00,0.0362
3092.00,0.0361
3091.00,0.0360
3090.00,0.0360
3089.00,0.0359
3088.00,0.0359
3087.00,0.0359
3086.00,0.0358
3085.00,0.0357
3084.00,0.0357
3083.00,0.0356
3082.00,0.0355
3081.00,0.0355
3080.00,0.0354
3079.00,0.0354
3078.00,0.0354
3077.00,0.0355
3076.00,0.0355
3075.00,0.0356
3074.00,0.0356
3073.00,0.0355
3072.00,0.0355
3071.00,0.0354
3070.00,0.0353
3069.00,0.0352
3068.00,0.0351
3067.00,0.0351
3066.00,0.0351
3065.00,0.0351
3064.00,0.0351
3063.00,0.0351
3062.00,0.0350
3061.00,0.0350
3060.00,0.0349
3059.00,0.0348
3058.00,0.0347
3057.00,0.0346
3056.00,0.0346
3055.00,0.0345
3054.00,0.0345
3053.00,0.0344
3052.00,0.0344
3051.00,0.0343
3050.00,0.0343
3049.00,0.0342
3048.00,0.0342
3047.00,0.0341
3046.00,0.0340
3045.00,0.0339
3044.00,0.0338
3043.00,0.0338
3042.00,0.0337
3041.00,0.0337
3040.00,0.0337
3039.00,0.0337
3038.00,0.0336
3037.00,0.0336
3036.00,0.0335
3035.00,0.0334
3034.00,0.0334
3033.00,0.0333
3032.00,0.0333
3031.00,0.0333
3030.00,0.0332
3029.00,0.0332
3028.00,0.0332
3027.00,0.0331
3026.00,0.0331
3025.00,0.0330
3024.00,0.0329
3023.00,0.0329
3022.00,0.0328
3021.00,0.0328
3020.00,0.0327
3019.00,0.0326
3018.00,0.0325
3017.00,0.0325
3016.00,0.0324
3015.00,0.0323
3014.00,0.0323
3013.00,0.0323
3012.00,0.0323
3011.00,0.0323
3010.00,0.0323
3009.00,0.0323
3008.00,0.0323
3007.00,0.0323
3006.00,0.0322
3005.00,0.0322
3004.00,0.0322
3003.00,0.0322
3002.00,0.0321
3001.00,0.0321
3000.00,0.0320
2999.00,0.0320
2998.00,0.0320
2997.00,0.0319
2996.00,0.0319
2995.00,0.0319
2994.00,0.0319
2993.00,0.0319
2992.00,0.0318
2991.00,0.0318
2990.00,0.0319
2989.00,0.0319
2988.00,0.0319
2987.00,0.0319
2986.00,0.0318
2985.00,0.0318
2984.00,0.0318
2983.00,0.0318
2982.00,0.0318
2981.00,0.0318
2980.00,0.0318
2979.00,0.0317
2978.00,0.0317
2977.00,0.0317
2976.00,0.0316
2975.00,0.0316
2974.00,0.0316
2973.00,0.0316
2972.00,0.0316
2971.00,0.0316
2970.00,0.0316
2969.00,0.0315
2968.00,0.0314
2967.00,0.0314
2966.00,0.0314
2965.00,0.0313
2964.00,0.0313
2963.00,0.0312
2962.00,0.0312
2961.00,0.0312
2960.00,0.0312
2959.00,0.0312
2958.00,0.0311
2957.00,0.0311
2956.00,0.0310
2955.00,0.0309
2954.00,0.0309
2953.00,0.0308
2952.00,0.0308
2951.00,0.0308
2950.00,0.0308
2949.00,0.0307
2948.00,0.0306
2947.00,0.0306
2946.00,0.0306
2945.00,0.0306
2944.00,0.0306
2943.00,0.0306
2942.00,0.0306
2941.00,0.0306
2940.00,0.0306
2939.00,0.0306
2938.00,0.0306
2937.00,0.0306
2936.00,0.0305
2935.00,0.0305
2934.00,0.0305
2933.00,0.0304
2932.00,0.0303
2931.00,0.0303
2930.00,0.0302
2929.00,0.0302
2928.00,0.0302
2927.00,0.0302
2926.00,0.0302
2925.00,0.0302
2924.00,0.0302
2923.00,0.0301
2922.00,0.0301
2921.00,0.0301
2920.00,0.0300
2919.00,0.0300
2918.00,0.0299
2917.00,0.0299
2916.00,0.0298
2915.00,0.0298
2914.00,0.0297
2913.00,0.0297
2912.00,0.0297
2911.00,0.0297
2910.00,0.0297
2909.00,0.0297
2908.00,0.0296
2907.00,0.0296
2906.00,0.0296
2905.00,0.0295
2904.00,0.0295
2903.00,0.0295
2902.00,0.0295
2901.00,0.0294
2900.00,0.0294
2899.00,0.0293
2898.00,0.0293
2897.00,0.0292
2896.00,0.0292
2895.00,0.0292
2894.00,0.0292
2893.00,0.0292
2892.00,0.0292
2891.00,0.0291
2890.00,0.0291
2889.00,0.0291
2888.00,0.0291
2887.00,0.0290
2886.00,0.0290
2885.00,0.0290
2884.00,0.0290
2883.00,0.0289
2882.00,0.0289
2881.00,0.0288
2880.00,0.0288
2879.00,0.0288
2878.00,0.0287
2877.00,0.0287
2876.00,0.0286
2875.00,0.0285
2874.00,0.0285
2873.00,0.0285
2872.00,0.0285
2871.00,0.0285
2870.00,0.0284
2869.00,0.0284
2868.00,0.0284
2867.00,0.0283
2866.00,0.0283
2865.00,0.0283
2864.00,0.0282
2863.00,0.0282
2862.00,0.0281
2861.00,0.0280
2860.00,0.0280
2859.00,0.0280
2858.00,0.0279
2857.00,0.0279
2856.00,0.0279
2855.00,0.0279
2854.00,0.0279
2853.00,0.0279
2852.00,0.0279
2851.00,0.0279
2850.00,0.0278
2849.00,0.0277
2848.00,0.0277
2847.00,0.0277
2846.00,0.0277
2845.00,0.0276
2844.00,0.0276
2843.00,0.0275
2842.00,0.0274
2841.00,0.0273
2840.00,0.0272
2839.00,0.0272
2838.00,0.0272
2837.00,0.0272
2836.00,0.0272
2835.00,0.0271
2834.00,0.0271
2833.00,0.0271
2832.00,0.0271
2831.00,0.0271
2830.00,0.0271
2829.00,0.0271
2828.00,0.0270
2827.00,0.0270
2826.00,0.0269
2825.00,0.0269
2824.00,0.0268
2823.00,0.0268
2822.00,0.0268
2821.00,0.0267
2820.00,0.0267
2819.00,0.0267
2818.00,0.0267
2817.00,0.0266
2816.00,0.0266
2815.00,0.0266
2814.00,0.0265
2813.00,0.0265
2812.00,0.0265
2811.00,0.0264
2810.00,0.0264
2809.00,0.0264
2808.00,0.0264
2807.00,0.0264
2806.00,0.0264
2805.00,0.0263
2804.00,0.0263
2803.00,0.0263
2802.00,0.0262
2801.00,0.0262
2800.00,0.0261
2799.00,0.0261
2798.00,0.0260
2797.00,0.0260
2796.00,0.0260
2795.00,0.0260
2794.00,0.0260
2793.00,0.0260
2792.00,0.0259
2791.00,0.0259
2790.00,0.0258
2789.00,0.0258
2788.00,0.0258
2787.00,0.0259
2786.00,0.0259
2785.00,0.0258
2784.00,0.0258
2783.00,0.0258
2782.00,0.0258
2781.00,0.0258
2780.00,0.0257
2779.00,0.0257
2778.00,0.0257
2777.00,0.0256
2776.00,0.0256
2775.00,0.0255
2774.00,0.0255
2773.00,0.0255
2772.00,0.0255
2771.00,0.0255
2770.00,0.0255
2769.00,0.0255
2768.00,0.0255
2767.00,0.0255
2766.00,0.0255
2765.00,0.0254
2764.00,0.0254
2763.00,0.0254
2762.00,0.0253
2761.00,0.0253
2760.00,0.0253
2759.00,0.0252
2758.00,0.0252
2757.00,0.0252
2756.00,0.0252
2755.00,0.0252
2754.00,0.0252
2753.00,0.0251
2752.00,0.0251
2751.00,0.0250
2750.00,0.0250
2749.00,0.0250
2748.00,0.0250
2747.00,0.0250
2746.00,0.0250
2745.00,0.0250
2744.00,0.0250
2743.00,0.0249
2742.00,0.0249
2741.00,0.0249
2740.00,0.0249
2739.00,0.0248
2738.00,0.0248
2737.00,0.0248
2736.00,0.0248
2735.00,0.0248
2734.00,0.0248
2733.00,0.0248
2732.00,0.0247
2731.00,0.0247
2730.00,0.0247
2729.00,0.0246
2728.00,0.0246
2727.00,0.0245
2726.00,0.0245
2725.00,0.0245
2724.00,0.0245
2723.00,0.0245
2722.00,0.0245
2721.00,0.0245
2720.00,0.0244
2719.00,0.0244
2718.00,0.0244
2717.00,0.0244
2716.00,0.0244
2715.00,0.0244
2714.00,0.0244
2713.00,0.0243
2712.00,0.0243
2711.00,0.0243
2710.00,0.0242
2709.00,0.0242
2708.00,0.0242
2707.00,0.0242
2706.00,0.0242
2705.00,0.0241
2704.00,0.0241
2703.00,0.0241
2702.00,0.0241
2701.00,0.0241
2700.00,0.0241
2699.00,0.0241
2698.00,0.0240
2697.00,0.0240
2696.00,0.0240
2695.00,0.0240
2694.00,0.0240
2693.00,0.0240
2692.00,0.0240
2691.00,0.0240
2690.00,0.0239
2689.00,0.0239
2688.00,0.0239
2687.00,0.0238
2686.00,0.0238
2685.00,0.0238
2684.00,0.0238
2683.00,0.0238
2682.00,0.0238
2681.00,0.0237
2680.00,0.0237
2679.00,0.0237
2678.00,0.0237
2677.00,0.0237
2676.00,0.0237
2675.00,0.0237
2674.00,0.0237
2673.00,0.0237
2672.00,0.0236
2671.00,0.0236
2670.00,0.0236
2669.00,0.0236
2668.00,0.0236
2667.00,0.0236
2666.00,0.0237
2665.00,0.0237
2664.00,0.0237
2663.00,0.0238
2662.00,0.0238
2661.00,0.0238
2660.00,0.0239
2659.00,0.0239
2658.00,0.0239
2657.00,0.0239
2656.00,0.0239
2655.00,0.0239
2654.00,0.0239
2653.00,0.0239
2652.00,0.0239
2651.00,0.0239
2650.00,0.0239
2649.00,0.0238
2648.00,0.0238
2647.00,0.0238
2646.00,0.0238
2645.00,0.0238
2644.00,0.0238
2643.00,0.0238
2642.00,0.0237
2641.00,0.0237
2640.00,0.0237
2639.00,0.0237
2638.00,0.0237
2637.00,0.0236
2636.00,0.0236
2635.00,0.0236
2634.00,0.0236
2633.00,0.0235
2632.00,0.0235
2631.00,0.0235
2630.00,0.0235
2629.00,0.0235
2628.00,0.0235
2627.00,0.0235
2626.00,0.0234
2625.00,0.0234
2624.00,0.0234
2623.00,0.0234
2622.00,0.0234
2621.00,0.0234
2620.00,0.0234
2619.00,0.0233
2618.00,0.0233
2617.00,0.0233
2616.00,0.0233
2615.00,0.0233
2614.00,0.0233
2613.00,0.0232
2612.00,0.0232
2611.00,0.0232
2610.00,0.0231
2609.00,0.0231
2608.00,0.0231
2607.00,0.0231
2606.00,0.0231
2605.00,0.0231
2604.00,0.0231
2603.00,0.0230
2602.00,0.0230
2601.00,0.0230
2600.00,0.0230
2599.00,0.0230
2598.00,0.0229
2597.00,0.0229
2596.00,0.0229
2595.00,0.0229
2594.00,0.0228
2593.00,0.0228
2592.00,0.0228
2591.00,0.0228
2590.00,0.0228
2589.00,0.0228
2588.00,0.0227
2587.00,0.0227
2586.00,0.0227
2585.00,0.0226
2584.00,0.0226
2583.00,0.0226
2582.00,0.0226
2581.00,0.0225
2580.00,0.0225
2579.00,0.0225
2578.00,0.0225
2577.00,0.0224
2576.00,0.0224
2575.00,0.0224
2574.00,0.0224
2573.00,0.0224
2572.00,0.0224
2571.00,0.0224
2570.00,0.0224
2569.00,0.0224
2568.00,0.0223
2567.00,0.0223
2566.00,0.0223
2565.00,0.0223
2564.00,0.0223
2563.00,0.0223
2562.00,0.0223
2561.00,0.0222
2560.00,0.0222
2559.00,0.0222
2558.00,0.0222
2557.00,0.0222
2556.00,0.0222
2555.00,0.0221
2554.00,0.0221
2553.00,0.0221
2552.00,0.0221
2551.00,0.0220
2550.00,0.0220
2549.00,0.0220
2548.00,0.0219
2547.00,0.0219
2546.00,0.0219
2545.00,0.0219
2544.00,0.0218
2543.00,0.0218
2542.00,0.0218
2541.00,0.0218
2540.00,0.0218
2539.00,0.0218
2538.00,0.0217
2537.00,0.0217
2536.00,0.0217
2535.00,0.0217
2534.00,0.0217
2533.00,0.0217
2532.00,0.0217
2531.00,0.0216
2530.00,0.0216
2529.00,0.0216
2528.00,0.0216
2527.00,0.0216
2526.00,0.0216
2525.00,0.0216
2524.00,0.0215
2523.00,0.0215
2522.00,0.0215
2521.00,0.0215
2520.00,0.0215
2519.00,0.0215
2518.00,0.0214
2517.00,0.0214
2516.00,0.0214
2515.00,0.0213
2514.00,0.0213
2513.00,0.0213
2512.00,0.0213
2511.00,0.0212
2510.00,0.0212
2509.00,0.0212
2508.00,0.0212
2507.00,0.0212
2506.00,0.0211
2505.00,0.0212
2504.00,0.0212
2503.00,0.0212
2502.00,0.0212
2501.00,0.0212
2500.00,0.0212
2499.00,0.0211
2498.00,0.0211
2497.00,0.0211
2496.00,0.0210
2495.00,0.0210
2494.00,0.0210
2493.00,0.0210
2492.00,0.0210
2491.00,0.0210
2490.00,0.0210
2489.00,0.0209
2488.00,0.0209
2487.00,0.0209
2486.00,0.0209
2485.00,0.0209
2484.00,0.0209
2483.00,0.0208
2482.00,0.0208
2481.00,0.0208
2480.00,0.0208
2479.00,0.0208
2478.00,0.0208
2477.00,0.0208
2476.00,0.0208
2475.00,0.0208
2474.00,0.0208
2473.00,0.0208
2472.00,0.0208
2471.00,0.0208
2470.00,0.0208
2469.00,0.0207
2468.00,0.0207
2467.00,0.0207
2466.00,0.0206
2465.00,0.0206
2464.00,0.0206
2463.00,0.0206
2462.00,0.0207
2461.00,0.0207
2460.00,0.0207
2459.00,0.0207
2458.00,0.0207
2457.00,0.0207
2456.00,0.0207
2455.00,0.0207
2454.00,0.0207
2453.00,0.0207
2452.00,0.0207
2451.00,0.0206
2450.00,0.0206
2449.00,0.0206
2448.00,0.0206
2447.00,0.0205
2446.00,0.0205
2445.00,0.0204
2444.00,0.0204
2443.00,0.0204
2442.00,0.0204
2441.00,0.0203
2440.00,0.0203
2439.00,0.0202
2438.00,0.0202
2437.00,0.0202
2436.00,0.0202
2435.00,0.0202
2434.00,0.0202
2433.00,0.0202
2432.00,0.0201
2431.00,0.0201
2430.00,0.0201
2429.00,0.0201
2428.00,0.0201
2427.00,0.0200
2426.00,0.0200
2425.00,0.0200
2424.00,0.0200
2423.00,0.0199
2422.00,0.0199
2421.00,0.0199
2420.00,0.0198
2419.00,0.0198
2418.00,0.0198
2417.00,0.0198
2416.00,0.0198
2415.00,0.0198
2414.00,0.0198
2413.00,0.0198
2412.00,0.0198
2411.00,0.0198
2410.00,0.0197
2409.00,0.0197
2408.00,0.0196
2407.00,0.0196
2406.00,0.0195
2405.00,0.0195
2404.00,0.0195
2403.00,0.0194
2402.00,0.0194
2401.00,0.0194
2400.00,0.0194
2399.00,0.0194
2398.00,0.0194
2397.00,0.0194
2396.00,0.0193
2395.00,0.0193
2394.00,0.0193
2393.00,0.0193
2392.00,0.0193
2391.00,0.0193
2390.00,0.0193
2389.00,0.0193
2388.00,0.0192
2387.00,0.0192
2386.00,0.0191
2385.00,0.0191
2384.00,0.0191
2383.00,0.0190
2382.00,0.0189
2381.00,0.0189
2380.00,0.0189
2379.00,0.0188
2378.00,0.0188
2377.00,0.0188
2376.00,0.0188
2375.00,0.0188
2374.00,0.0188
2373.00,0.0187
2372.00,0.0187
2371.00,0.0187
2370.00,0.0186
2369.00,0.0186
2368.00,0.0185
2367.00,0.0185
2366.00,0.0186
2365.00,0.0186
2364.00,0.0186
2363.00,0.0186
2362.00,0.0186
2361.00,0.0186
2360.00,0.0186
2359.00,0.0186
2358.00,0.0185
2357.00,0.0186
2356.00,0.0186
2355.00,0.0186
2354.00,0.0186
2353.00,0.0186
2352.00,0.0186
2351.00,0.0185
2350.00,0.0185
2349.00,0.0185
2348.00,0.0186
2347.00,0.0187
2346.00,0.0187
2345.00,0.0187
2344.00,0.0187
2343.00,0.0187
2342.00,0.0187
2341.00,0.0187
2340.00,0.0187
2339.00,0.0187
2338.00,0.0188
2337.00,0.0188
2336.00,0.0187
2335.00,0.0187
2334.00,0.0187
2333.00,0.0187
2332.00,0.0187
2331.00,0.0186
2330.00,0.0186
2329.00,0.0188
2328.00,0.0190
2327.00,0.0193
2326.00,0.0196
2325.00,0.0198
2324.00,0.0198
2323.00,0.0196
2322.00,0.0194
2321.00,0.0192
2320.00,0.0191
2319.00,0.0190
2318.00,0.0189
2317.00,0.0189
2316.00,0.0189
2315.00,0.0188
2314.00,0.0188
2313.00,0.0187
2312.00,0.0187
2311.00,0.0186
2310.00,0.0185
2309.00,0.0185
2308.00,0.0185
2307.00,0.0185
2306.00,0.0185
2305.00,0.0185
2304.00,0.0185
2303.00,0.0186
2302.00,0.0186
2301.00,0.0186
2300.00,0.0186
2299.00,0.0187
2298.00,0.0187
2297.00,0.0188
2296.00,0.0188
2295.00,0.0188
2294.00,0.0189
2293.00,0.0190
2292.00,0.0190
2291.00,0.0191
2290.00,0.0192
2289.00,0.0192
2288.00,0.0193
2287.00,0.0193
2286.00,0.0192
2285.00,0.0191
2284.00,0.0191
2283.00,0.0190
2282.00,0.0189
2281.00,0.0189
2280.00,0.0188
2279.00,0.0188
2278.00,0.0188
2277.00,0.0188
2276.00,0.0188
2275.00,0.0188
2274.00,0.0188
2273.00,0.0188
2272.00,0.0187
2271.00,0.0187
2270.00,0.0186
2269.00,0.0186
2268.00,0.0185
2267.00,0.0184
2266.00,0.0183
2265.00,0.0182
2264.00,0.0182
2263.00,0.0182
2262.00,0.0183
2261.00,0.0183
2260.00,0.0183
2259.00,0.0183
2258.00,0.0183
2257.00,0.0183
2256.00,0.0182
2255.00,0.0180
2254.00,0.0180
2253.00,0.0180
2252.00,0.0180
2251.00,0.0181
2250.00,0.0181
2249.00,0.0181
2248.00,0.0181
2247.00,0.0180
2246.00,0.0180
2245.00,0.0180
2244.00,0.0180
2243.00,0.0180
2242.00,0.0180
2241.00,0.0180
2240.00,0.0180
2239.00,0.0180
2238.00,0.0180
2237.00,0.0181
2236.00,0.0181
2235.00,0.0181
2234.00,0.0181
2233.00,0.0181
2232.00,0.0180
2231.00,0.0180
2230.00,0.0180
2229.00,0.0180
2228.00,0.0180
2227.00,0.0180
2226.00,0.0179
2225.00,0.0179
2224.00,0.0179
2223.00,0.0179
2222.00,0.0179
2221.00,0.0178
2220.00,0.0178
2219.00,0.0178
2218.00,0.0177
2217.00,0.0177
2216.00,0.0177
2215.00,0.0177
2214.00,0.0177
2213.00,0.0178
2212.00,0.0178
2211.00,0.0178
2210.00,0.0176
2209.00,0.0176
2208.00,0.0175
2207.00,0.0175
2206.00,0.0175
2205.00,0.0176
2204.00,0.0176
2203.00,0.0176
2202.00,0.0176
2201.00,0.0175
2200.00,0.0175
2199.00,0.0175
2198.00,0.0175
2197.00,0.0175
2196.00,0.0175
2195.00,0.0176
2194.00,0.0176
2193.00,0.0176
2192.00,0.0176
2191.00,0.0175
2190.00,0.0175
2189.00,0.0175
2188.00,0.0175
2187.00,0.0175
2186.00,0.0175
2185.00,0.0174
2184.00,0.0172
2183.00,0.0170
2182.00,0.0168
2181.00,0.0168
2180.00,0.0168
2179.00,0.0169
2178.00,0.0168
2177.00,0.0167
2176.00,0.0166
2175.00,0.0166
2174.00,0.0167
2173.00,0.0170
2172.00,0.0173
2171.00,0.0175
2170.00,0.0176
2169.00,0.0178
2168.00,0.0178
2167.00,0.0178
2166.00,0.0178
2165.00,0.0179
2164.00,0.0180
2163.00,0.0180
2162.00,0.0176
2161.00,0.0167
2160.00,0.0154
2159.00,0.0142
2158.00,0.0135
2157.00,0.0135
2156.00,0.0138
2155.00,0.0142
2154.00,0.0146
2153.00,0.0148
2152.00,0.0150
2151.00,0.0151
2150.00,0.0150
2149.00,0.0150
2148.00,0.0149
2147.00,0.0149
2146.00,0.0149
2145.00,0.0149
2144.00,0.0150
2143.00,0.0150
2142.00,0.0150
2141.00,0.0151
2140.00,0.0151
2139.00,0.0150
2138.00,0.0149
2137.00,0.0147
2136.00,0.0145
2135.00,0.0143
2134.00,0.0143
2133.00,0.0144
2132.00,0.0146
2131.00,0.0148
2130.00,0.0150
2129.00,0.0151
2128.00,0.0152
2127.00,0.0153
2126.00,0.0154
2125.00,0.0155
2124.00,0.0155
2123.00,0.0155
2122.00,0.0156
2121.00,0.0156
2120.00,0.0157
2119.00,0.0158
2118.00,0.0159
2117.00,0.0161
2116.00,0.0162
2115.00,0.0162
2114.00,0.0163
2113.00,0.0162
2112.00,0.0162
2111.00,0.0161
2110.00,0.0160
2109.00,0.0160
2108.00,0.0160
2107.00,0.0160
2106.00,0.0160
2105.00,0.0160
2104.00,0.0160
2103.00,0.0160
2102.00,0.0160
2101.00,0.0159
2100.00,0.0159
2099.00,0.0158
2098.00,0.0157
2097.00,0.0156
2096.00,0.0155
2095.00,0.0154
2094.00,0.0154
2093.00,0.0155
2092.00,0.0156
2091.00,0.0156
2090.00,0.0157
2089.00,0.0157
2088.00,0.0157
2087.00,0.0157
2086.00,0.0157
2085.00,0.0157
2084.00,0.0157
2083.00,0.0157
2082.00,0.0158
2081.00,0.0158
2080.00,0.0158
2079.00,0.0158
2078.00,0.0157
2077.00,0.0157
2076.00,0.0157
2075.00,0.0156
2074.00,0.0156
2073.00,0.0155
2072.00,0.0155
2071.00,0.0155
2070.00,0.0154
2069.00,0.0154
2068.00,0.0153
2067.00,0.0153
2066.00,0.0152
2065.00,0.0151
2064.00,0.0151
2063.00,0.0151
2062.00,0.0151
2061.00,0.0151
2060.00,0.0151
2059.00,0.0151
2058.00,0.0151
2057.00,0.0151
2056.00,0.0150
2055.00,0.0150
2054.00,0.0152
2053.00,0.0156
2052.00,0.0159
2051.00,0.0159
2050.00,0.0156
2049.00,0.0152
2048.00,0.0149
2047.00,0.0148
2046.00,0.0147
2045.00,0.0147
2044.00,0.0147
2043.00,0.0147
2042.00,0.0147
2041.00,0.0148
2040.00,0.0149
2039.00,0.0149
2038.00,0.0148
2037.00,0.0146
2036.00,0.0144
2035.00,0.0141
2034.00,0.0139
2033.00,0.0138
2032.00,0.0137
2031.00,0.0136
2030.00,0.0136
2029.00,0.0136
2028.00,0.0137
2027.00,0.0137
2026.00,0.0136
2025.00,0.0136
2024.00,0.0135
2023.00,0.0134
2022.00,0.0134
2021.00,0.0135
2020.00,0.0135
2019.00,0.0134
2018.00,0.0133
2017.00,0.0133
2016.00,0.0133
2015.00,0.0134
2014.00,0.0134
2013.00,0.0135
2012.00,0.0135
2011.00,0.0135
2010.00,0.0134
2009.00,0.0132
2008.00,0.0130
2007.00,0.0127
2006.00,0.0125
2005.00,0.0126
2004.00,0.0127
2003.00,0.0128
2002.00,0.0129
2001.00,0.0131
2000.00,0.0133
1999.00,0.0134
1998.00,0.0136
1997.00,0.0137
1996.00,0.0137
1995.00,0.0137
1994.00,0.0136
1993.00,0.0135
1992.00,0.0135
1991.00,0.0135
1990.00,0.0136
1989.00,0.0136
1988.00,0.0137
1987.00,0.0137
1986.00,0.0138
1985.00,0.0139
1984.00,0.0141
1983.00,0.0144
1982.00,0.0146
1981.00,0.0147
1980.00,0.0146
1979.00,0.0142
1978.00,0.0136
1977.00,0.0131
1976.00,0.0129
1975.00,0.0127
1974.00,0.0126
1973.00,0.0126
1972.00,0.0126
1971.00,0.0126
1970.00,0.0124
1969.00,0.0123
1968.00,0.0121
1967.00,0.0120
1966.00,0.0120
1965.00,0.0120
1964.00,0.0120
1963.00,0.0121
1962.00,0.0120
1961.00,0.0120
1960.00,0.0119
1959.00,0.0119
1958.00,0.0119
1957.00,0.0120
1956.00,0.0121
1955.00,0.0122
1954.00,0.0122
1953.00,0.0122
1952.00,0.0122
1951.00,0.0122
1950.00,0.0123
1949.00,0.0123
1948.00,0.0124
1947.00,0.0124
1946.00,0.0124
1945.00,0.0123
1944.00,0.0122
1943.00,0.0121
1942.00,0.0120
1941.00,0.0120
1940.00,0.0121
1939.00,0.0121
1938.00,0.0122
1937.00,0.0122
1936.00,0.0122
1935.00,0.0122
1934.00,0.0122
1933.00,0.0122
1932.00,0.0123
1931.00,0.0123
1930.00,0.0123
1929.00,0.0122
1928.00,0.0122
1927.00,0.0121
1926.00,0.0121
1925.00,0.0121
1924.00,0.0121
1923.00,0.0121
1922.00,0.0122
1921.00,0.0123
1920.00,0.0124
1919.00,0.0124
1918.00,0.0123
1917.00,0.0122
1916.00,0.0121
1915.00,0.0122
1914.00,0.0122
1913.00,0.0122
1912.00,0.0122
1911.00,0.0122
1910.00,0.0121
1909.00,0.0121
1908.00,0.0120
1907.00,0.0120
1906.00,0.0120
1905.00,0.0119
1904.00,0.0119
1903.00,0.0119
1902.00,0.0119
1901.00,0.0120
1900.00,0.0120
1899.00,0.0120
1898.00,0.0120
1897.00,0.0119
1896.00,0.0119
1895.00,0.0118
1894.00,0.0118
1893.00,0.0119
1892.00,0.0119
1891.00,0.0118
1890.00,0.0117
1889.00,0.0116
1888.00,0.0116
1887.00,0.0116
1886.00,0.0117
1885.00,0.0117
1884.00,0.0117
1883.00,0.0117
1882.00,0.0117
1881.00,0.0117
1880.00,0.0116
1879.00,0.0116
1878.00,0.0115
1877.00,0.0115
1876.00,0.0115
1875.00,0.0115
1874.00,0.0115
1873.00,0.0115
1872.00,0.0115
1871.00,0.0115
1870.00,0.0114
1869.00,0.0113
1868.00,0.0112
1867.00,0.0111
1866.00,0.0111
1865.00,0.0112
1864.00,0.0112
1863.00,0.0112
1862.00,0.0113
1861.00,0.0113
1860.00,0.0112
1859.00,0.0112
1858.00,0.0111
1857.00,0.0111
1856.00,0.0111
1855.00,0.0111
1854.00,0.0111
1853.00,0.0111
1852.00,0.0111
1851.00,0.0111
1850.00,0.0111
1849.00,0.0111
1848.00,0.0111
1847.00,0.0111
1846.00,0.0111
1845.00,0.0110
1844.00,0.0109
1843.00,0.0108
1842.00,0.0108
1841.00,0.0109
1840.00,0.0110
1839.00,0.0110
1838.00,0.0109
1837.00,0.0109
1836.00,0.0109
1835.00,0.0109
1834.00,0.0109
1833.00,0.0109
1832.00,0.0109
1831.00,0.0108
1830.00,0.0107
1829.00,0.0106
1828.00,0.0107
1827.00,0.0107
1826.00,0.0107
1825.00,0.0107
1824.00,0.0106
1823.00,0.0106
1822.00,0.0107
1821.00,0.0107
1820.00,0.0107
1819.00,0.0106
1818.00,0.0105
1817.00,0.0105
1816.00,0.0105
1815.00,0.0106
1814.00,0.0107
1813.00,0.0107
1812.00,0.0108
1811.00,0.0107
1810.00,0.0107
1809.00,0.0107
1808.00,0.0108
1807.00,0.0109
1806.00,0.0109
1805.00,0.0110
1804.00,0.0111
1803.00,0.0112
1802.00,0.0112
1801.00,0.0112
1800.00,0.0112
1799.00,0.0113
1798.00,0.0114
1797.00,0.0115
1796.00,0.0116
1795.00,0.0118
1794.00,0.0119
1793.00,0.0120
1792.00,0.0121
1791.00,0.0121
1790.00,0.0122
1789.00,0.0124
1788.00,0.0126
1787.00,0.0128
1786.00,0.0130
1785.00,0.0131
1784.00,0.0133
1783.00,0.0135
1782.00,0.0137
1781.00,0.0139
1780.00,0.0141
1779.00,0.0143
1778.00,0.0145
1777.00,0.0148
1776.00,0.0150
1775.00,0.0153
1774.00,0.0155
1773.00,0.0156
1772.00,0.0157
1771.00,0.0158
1770.00,0.0160
1769.00,0.0163
1768.00,0.0165
1767.00,0.0167
1766.00,0.0169
1765.00,0.0171
1764.00,0.0173
1763.00,0.0174
1762.00,0.0175
1761.00,0.0176
1760.00,0.0178
1759.00,0.0181
1758.00,0.0183
1757.00,0.0185
1756.00,0.0187
1755.00,0.0189
1754.00,0.0192
1753.00,0.0195
1752.00,0.0198
1751.00,0.0200
1750.00,0.0201
1749.00,0.0203
1748.00,0.0206
1747.00,0.0209
1746.00,0.0211
1745.00,0.0214
1744.00,0.0217
1743.00,0.0220
1742.00,0.0223
1741.00,0.0227
1740.00,0.0231
1739.00,0.0235
1738.00,0.0239
1737.00,0.0243
1736.00,0.0248
1735.00,0.0253
1734.00,0.0258
1733.00,0.0263
1732.00,0.0267
1731.00,0.0272
1730.00,0.0276
1729.00,0.0282
1728.00,0.0288
1727.00,0.0294
1726.00,0.0299
1725.00,0.0304
1724.00,0.0309
1723.00,0.0312
1722.00,0.0314
1721.00,0.0315
1720.00,0.0316
1719.00,0.0316
1718.00,0.0317
1717.00,0.0319
1716.00,0.0320
1715.00,0.0321
1714.00,0.0323
1713.00,0.0326
1712.00,0.0328
1711.00,0.0331
1710.00,0.0333
1709.00,0.0335
1708.00,0.0337
1707.00,0.0339
1706.00,0.0340
1705.00,0.0342
1704.00,0.0343
1703.00,0.0344
1702.00,0.0346
1701.00,0.0347
1700.00,0.0349
1699.00,0.0351
1698.00,0.0352
1697.00,0.0353
1696.00,0.0354
1695.00,0.0355
1694.00,0.0356
1693.00,0.0358
1692.00,0.0359
1691.00,0.0361
1690.00,0.0362
1689.00,0.0364
1688.00,0.0365
1687.00,0.0366
1686.00,0.0367
1685.00,0.0369
1684.00,0.0371
1683.00,0.0373
1682.00,0.0375
1681.00,0.0378
1680.00,0.0381
1679.00,0.0383
1678.00,0.0385
1677.00,0.0388
1676.00,0.0391
1675.00,0.0394
1674.00,0.0397
1673.00,0.0399
1672.00,0.0401
1671.00,0.0404
1670.00,0.0407
1669.00,0.0410
1668.00,0.0413
1667.00,0.0416
1666.00,0.0419
1665.00,0.0421
1664.00,0.0424
1663.00,0.0428
1662.00,0.0432
1661.00,0.0435
1660.00,0.0438
1659.00,0.0440
1658.00,0.0442
1657.00,0.0444
1656.00,0.0445
1655.00,0.0447
1654.00,0.0451
1653.00,0.0457
1652.00,0.0462
1651.00,0.0464
1650.00,0.0465
1649.00,0.0466
1648.00,0.0470
1647.00,0.0475
1646.00,0.0479
1645.00,0.0483
1644.00,0.0485
1643.00,0.0487
1642.00,0.0490
1641.00,0.0492
1640.00,0.0495
1639.00,0.0497
1638.00,0.0499
1637.00,0.0502
1636.00,0.0507
1635.00,0.0511
1634.00,0.0515
1633.00,0.0518
1632.00,0.0520
1631.00,0.0523
1630.00,0.0526
1629.00,0.0529
1628.00,0.0533
1627.00,0.0536
1626.00,0.0539
1625.00,0.0542
1624.00,0.0546
1623.00,0.0550
1622.00,0.0554
1621.00,0.0556
1620.00,0.0558
1619.00,0.0560
1618.00,0.0564
1617.00,0.0568
1616.00,0.0572
1615.00,0.0575
1614.00,0.0577
1613.00,0.0579
1612.00,0.0581
1611.00,0.0584
1610.00,0.0588
1609.00,0.0591
1608.00,0.0595
1607.00,0.0598
1606.00,0.0602
1605.00,0.0605
1604.00,0.0609
1603.00,0.0613
1602.00,0.0618
1601.00,0.0621
1600.00,0.0625
1599.00,0.0628
1598.00,0.0630
1597.00,0.0633
1596.00,0.0636
1595.00,0.0639
1594.00,0.0641
1593.00,0.0642
1592.00,0.0642
1591.00,0.0643
1590.00,0.0643
1589.00,0.0644
1588.00,0.0645
1587.00,0.0647
1586.00,0.0648
1585.00,0.0649
1584.00,0.0650
1583.00,0.0652
1582.00,0.0653
1581.00,0.0654
1580.00,0.0655
1579.00,0.0655
1578.00,0.0656
1577.00,0.0658
1576.00,0.0661
1575.00,0.0662
1574.00,0.0662
1573.00,0.0660
1572.00,0.0660
1571.00,0.0660
1570.00,0.0661
1569.00,0.0661
1568.00,0.0662
1567.00,0.0662
1566.00,0.0662
1565.00,0.0662
1564.00,0.0662
1563.00,0.0662
1562.00,0.0660
1561.00,0.0658
1560.00,0.0657
1559.00,0.0658
1558.00,0.0657
1557.00,0.0655
1556.00,0.0653
1555.00,0.0651
1554.00,0.0648
1553.00,0.0646
1552.00,0.0644
1551.00,0.0641
1550.00,0.0639
1549.00,0.0636
1548.00,0.0633
1547.00,0.0629
1546.00,0.0624
1545.00,0.0618
1544.00,0.0613
1543.00,0.0608
1542.00,0.0603
1541.00,0.0597
1540.00,0.0591
1539.00,0.0585
1538.00,0.0581
1537.00,0.0577
1536.00,0.0573
1535.00,0.0569
1534.00,0.0564
1533.00,0.0559
1532.00,0.0556
1531.00,0.0553
1530.00,0.0549
1529.00,0.0546
1528.00,0.0542
1527.00,0.0538
1526.00,0.0534
1525.00,0.0530
1524.00,0.0527
1523.00,0.0523
1522.00,0.0520
1521.00,0.0516
1520.00,0.0512
1519.00,0.0509
1518.00,0.0505
1517.00,0.0502
1516.00,0.0499
1515.00,0.0498
1514.00,0.0496
1513.00,0.0493
1512.00,0.0491
1511.00,0.0488
1510.00,0.0484
1509.00,0.0481
1508.00,0.0478
1507.00,0.0475
1506.00,0.0473
1505.00,0.0472
1504.00,0.0472
1503.00,0.0470
1502.00,0.0468
1501.00,0.0466
1500.00,0.0464
1499.00,0.0462
1498.00,0.0461
1497.00,0.0460
1496.00,0.0460
1495.00,0.0459
1494.00,0.0458
1493.00,0.0457
1492.00,0.0456
1491.00,0.0455
1490.00,0.0454
1489.00,0.0454
1488.00,0.0453
1487.00,0.0453
1486.00,0.0453
1485.00,0.0453
1484.00,0.0453
1483.00,0.0453
1482.00,0.0453
1481.00,0.0453
1480.00,0.0453
1479.00,0.0453
1478.00,0.0453
1477.00,0.0453
1476.00,0.0453
1475.00,0.0454
1474.00,0.0456
1473.00,0.0457
1472.00,0.0458
1471.00,0.0458
1470.00,0.0459
1469.00,0.0460
1468.00,0.0460
1467.00,0.0461
1466.00,0.0462
1465.00,0.0463
1464.00,0.0465
1463.00,0.0466
1462.00,0.0467
1461.00,0.0467
1460.00,0.0468
1459.00,0.0468
1458.00,0.0470
1457.00,0.0473
1456.00,0.0476
1455.00,0.0477
1454.00,0.0478
1453.00,0.0479
1452.00,0.0480
1451.00,0.0481
1450.00,0.0482
1449.00,0.0483
1448.00,0.0484
1447.00,0.0486
1446.00,0.0487
1445.00,0.0489
1444.00,0.0490
1443.00,0.0491
1442.00,0.0493
1441.00,0.0494
1440.00,0.0495
1439.00,0.0496
1438.00,0.0497
1437.00,0.0499
1436.00,0.0502
1435.00,0.0504
1434.00,0.0505
1433.00,0.0506
1432.00,0.0508
1431.00,0.0509
1430.00,0.0511
1429.00,0.0513
1428.00,0.0515
1427.00,0.0517
1426.00,0.0518
1425.00,0.0520
1424.00,0.0522
1423.00,0.0524
1422.00,0.0525
1421.00,0.0526
1420.00,0.0528
1419.00,0.0531
1418.00,0.0533
1417.00,0.0535
1416.00,0.0538
1415.00,0.0540
1414.00,0.0542
1413.00,0.0544
1412.00,0.0546
1411.00,0.0548
1410.00,0.0551
1409.00,0.0553
1408.00,0.0555
1407.00,0.0557
1406.00,0.0560
1405.00,0.0563
1404.00,0.0567
1403.00,0.0570
1402.00,0.0573
1401.00,0.0575
1400.00,0.0577
1399.00,0.0580
1398.00,0.0582
1397.00,0.0584
1396.00,0.0586
1395.00,0.0589
1394.00,0.0591
1393.00,0.0593
1392.00,0.0595
1391.00,0.0597
1390.00,0.0599
1389.00,0.0601
1388.00,0.0603
1387.00,0.0605
1386.00,0.0607
1385.00,0.0609
1384.00,0.0611
1383.00,0.0612
1382.00,0.0613
1381.00,0.0615
1380.00,0.0616
1379.00,0.0616
1378.00,0.0616
1377.00,0.0616
1376.00,0.0616
1375.00,0.0615
1374.00,0.0615
1373.00,0.0615
1372.00,0.0615
1371.00,0.0615
1370.00,0.0615
1369.00,0.0614
1368.00,0.0614
1367.00,0.0614
1366.00,0.0613
1365.00,0.0612
1364.00,0.0611
1363.00,0.0610
1362.00,0.0609
1361.00,0.0608
1360.00,0.0608
1359.00,0.0607
1358.00,0.0606
1357.00,0.0605
1356.00,0.0604
1355.00,0.0603
1354.00,0.0601
1353.00,0.0600
1352.00,0.0598
1351.00,0.0597
1350.00,0.0595
1349.00,0.0594
1348.00,0.0592
1347.00,0.0590
1346.00,0.0589
1345.00,0.0587
1344.00,0.0586
1343.00,0.0584
1342.00,0.0582
1341.00,0.0580
1340.00,0.0578
1339.00,0.0577
1338.00,0.0575
1337.00,0.0574
1336.00,0.0573
1335.00,0.0572
1334.00,0.0570
1333.00,0.0569
1332.00,0.0567
1331.00,0.0566
1330.00,0.0565
1329.00,0.0564
1328.00,0.0563
1327.00,0.0562
1326.00,0.0561
1325.00,0.0560
1324.00,0.0559
1323.00,0.0558
1322.00,0.0557
1321.00,0.0557
1320.00,0.0556
1319.00,0.0555
1318.00,0.0555
1317.00,0.0555
1316.00,0.0554
1315.00,0.0554
1314.00,0.0553
1313.00,0.0553
1312.00,0.0552
1311.00,0.0552
1310.00,0.0552
1309.00,0.0551
1308.00,0.0551
1307.00,0.0551
1306.00,0.0551
1305.00,0.0551
1304.00,0.0551
1303.00,0.0552
1302.00,0.0552
1301.00,0.0552
1300.00,0.0553
1299.00,0.0553
1298.00,0.0554
1297.00,0.0555
1296.00,0.0556
1295.00,0.0557
1294.00,0.0557
1293.00,0.0558
1292.00,0.0558
1291.00,0.0559
1290.00,0.0559
1289.00,0.0560
1288.00,0.0560
1287.00,0.0560
1286.00,0.0561
1285.00,0.0562
1284.00,0.0562
1283.00,0.0563
1282.00,0.0563
1281.00,0.0563
1280.00,0.0563
1279.00,0.0562
1278.00,0.0562
1277.00,0.0562
1276.00,0.0561
1275.00,0.0561
1274.00,0.0561
1273.00,0.0560
1272.00,0.0560
1271.00,0.0560
1270.00,0.0560
1269.00,0.0560
1268.00,0.0561
1267.00,0.0561
1266.00,0.0561
1265.00,0.0562
1264.00,0.0562
1263.00,0.0562
1262.00,0.0563
1261.00,0.0563
1260.00,0.0562
1259.00,0.0562
1258.00,0.0562
1257.00,0.0561
1256.00,0.0561
1255.00,0.0561
1254.00,0.0561
1253.00,0.0560
1252.00,0.0560
1251.00,0.0560
1250.00,0.0560
1249.00,0.0560
1248.00,0.0560
1247.00,0.0560
1246.00,0.0559
1245.00,0.0559
1244.00,0.0558
1243.00,0.0558
1242.00,0.0558
1241.00,0.0558
1240.00,0.0558
1239.00,0.0557
1238.00,0.0557
1237.00,0.0557
1236.00,0.0557
1235.00,0.0557
1234.00,0.0557
1233.00,0.0557
1232.00,0.0557
1231.00,0.0557
1230.00,0.0557
1229.00,0.0556
1228.00,0.0555
1227.00,0.0554
1226.00,0.0553
1225.00,0.0552
1224.00,0.0551
1223.00,0.0551
1222.00,0.0550
1221.00,0.0549
1220.00,0.0548
1219.00,0.0547
1218.00,0.0546
1217.00,0.0545
1216.00,0.0544
1215.00,0.0544
1214.00,0.0543
1213.00,0.0542
1212.00,0.0541
1211.00,0.0541
1210.00,0.0540
1209.00,0.0540
1208.00,0.0539
1207.00,0.0538
1206.00,0.0537
1205.00,0.0537
1204.00,0.0536
1203.00,0.0535
1202.00,0.0535
1201.00,0.0534
1200.00,0.0533
1199.00,0.0533
1198.00,0.0532
1197.00,0.0532
1196.00,0.0532
1195.00,0.0531
1194.00,0.0531
1193.00,0.0530
1192.00,0.0530
1191.00,0.0529
1190.00,0.0529
1189.00,0.0528
1188.00,0.0528
1187.00,0.0527
1186.00,0.0527
1185.00,0.0526
1184.00,0.0525
1183.00,0.0525
1182.00,0.0524
1181.00,0.0525
1180.00,0.0525
1179.00,0.0525
1178.00,0.0524
1177.00,0.0524
1176.00,0.0523
1175.00,0.0522
1174.00,0.0521
1173.00,0.0521
1172.00,0.0520
1171.00,0.0520
1170.00,0.0519
1169.00,0.0518
1168.00,0.0518
1167.00,0.0517
1166.00,0.0517
1165.00,0.0516
1164.00,0.0516
1163.00,0.0515
1162.00,0.0514
1161.00,0.0514
1160.00,0.0513
1159.00,0.0512
1158.00,0.0512
1157.00,0.0511
1156.00,0.0511
1155.00,0.0510
1154.00,0.0509
1153.00,0.0508
1152.00,0.0508
1151.00,0.0507
1150.00,0.0507
1149.00,0.0506
1148.00,0.0506
1147.00,0.0505
1146.00,0.0504
1145.00,0.0504
1144.00,0.0504
1143.00,0.0503
1142.00,0.0503
1141.00,0.0503
1140.00,0.0503
1139.00,0.0503
1138.00,0.0503
1137.00,0.0504
1136.00,0.0504
1135.00,0.0504
1134.00,0.0504
1133.00,0.0504
1132.00,0.0504
1131.00,0.0504
1130.00,0.0503
1129.00,0.0502
1128.00,0.0502
1127.00,0.0501
1126.00,0.0500
1125.00,0.0499
1124.00,0.0499
1123.00,0.0499
1122.00,0.0498
1121.00,0.0498
1120.00,0.0498
1119.00,0.0498
1118.00,0.0498
1117.00,0.0498
1116.00,0.0497
1115.00,0.0497
1114.00,0.0496
1113.00,0.0496
1112.00,0.0496
1111.00,0.0496
1110.00,0.0496
1109.00,0.0496
1108.00,0.0496
1107.00,0.0496
1106.00,0.0497
1105.00,0.0497
1104.00,0.0497
1103.00,0.0497
1102.00,0.0497
1101.00,0.0496
1100.00,0.0496
1099.00,0.0496
1098.00,0.0496
1097.00,0.0495
1096.00,0.0495
1095.00,0.0494
1094.00,0.0493
1093.00,0.0493
1092.00,0.0493
1091.00,0.0493
1090.00,0.0493
1089.00,0.0492
1088.00,0.0492
1087.00,0.0492
1086.00,0.0492
1085.00,0.0492
1084.00,0.0492
1083.00,0.0491
1082.00,0.0491
1081.00,0.0491
1080.00,0.0490
1079.00,0.0490
1078.00,0.0490
1077.00,0.0489
1076.00,0.0489
1075.00,0.0489
1074.00,0.0488
1073.00,0.0488
1072.00,0.0488
1071.00,0.0488
1070.00,0.0488
1069.00,0.0489
1068.00,0.0489
1067.00,0.0490
1066.00,0.0490
1065.00,0.0489
1064.00,0.0489
1063.00,0.0488
1062.00,0.0488
1061.00,0.0488
1060.00,0.0488
1059.00,0.0488
1058.00,0.0488
1057.00,0.0488
1056.00,0.0487
1055.00,0.0487
1054.00,0.0486
1053.00,0.0485
1052.00,0.0485
1051.00,0.0485
1050.00,0.0485
1049.00,0.0485
1048.00,0.0485
1047.00,0.0485
1046.00,0.0485
1045.00,0.0484
1044.00,0.0484
1043.00,0.0483
1042.00,0.0483
1041.00,0.0482
1040.00,0.0481
1039.00,0.0480
1038.00,0.0480
1037.00,0.0479
1036.00,0.0478
1035.00,0.0477
1034.00,0.0476
1033.00,0.0475
1032.00,0.0475
1031.00,0.0474
1030.00,0.0473
1029.00,0.0472
1028.00,0.0471
1027.00,0.0470
1026.00,0.0469
1025.00,0.0468
1024.00,0.0467
1023.00,0.0466
1022.00,0.0465
1021.00,0.0464
1020.00,0.0463
1019.00,0.0462
1018.00,0.0461
1017.00,0.0460
1016.00,0.0459
1015.00,0.0458
1014.00,0.0458
1013.00,0.0457
1012.00,0.0456
1011.00,0.0456
1010.00,0.0455
1009.00,0.0454
1008.00,0.0453
1007.00,0.0452
1006.00,0.0451
1005.00,0.0450
1004.00,0.0449
1003.00,0.0447
1002.00,0.0446
1001.00,0.0445
1000.00,0.0444
999.00,0.0442
998.00,0.0441
997.00,0.0440
996.00,0.0438
995.00,0.0437
994.00,0.0436
993.00,0.0435
992.00,0.0434
991.00,0.0433
990.00,0.0432
989.00,0.0431
988.00,0.0431
987.00,0.0431
986.00,0.0430
985.00,0.0430
984.00,0.0430
983.00,0.0430
982.00,0.0429
981.00,0.0429
980.00,0.0428
979.00,0.0427
978.00,0.0425
977.00,0.0424
976.00,0.0422
975.00,0.0422
974.00,0.0421
973.00,0.0420
972.00,0.0419
971.00,0.0418
970.00,0.0417
969.00,0.0417
968.00,0.0416
967.00,0.0415
966.00,0.0414
965.00,0.0413
964.00,0.0413
963.00,0.0412
962.00,0.0412
961.00,0.0411
960.00,0.0411
959.00,0.0410
958.00,0.0410
957.00,0.0409
956.00,0.0408
955.00,0.0408
954.00,0.0407
953.00,0.0406
952.00,0.0405
951.00,0.0405
950.00,0.0405
949.00,0.0404
948.00,0.0404
947.00,0.0404
946.00,0.0404
945.00,0.0403
944.00,0.0403
943.00,0.0403
942.00,0.0403
941.00,0.0403
940.00,0.0403
939.00,0.0403
938.00,0.0403
937.00,0.0404
936.00,0.0404
935.00,0.0404
934.00,0.0404
933.00,0.0404
932.00,0.0404
931.00,0.0404
930.00,0.0405
929.00,0.0405
928.00,0.0406
927.00,0.0406
926.00,0.0406
925.00,0.0406
924.00,0.0407
923.00,0.0408
922.00,0.0408
921.00,0.0408
920.00,0.0409
919.00,0.0409
918.00,0.0410
917.00,0.0411
916.00,0.0412
915.00,0.0413
914.00,0.0414
913.00,0.0415
912.00,0.0415
911.00,0.0415
910.00,0.0415
909.00,0.0415
908.00,0.0415
907.00,0.0416
906.00,0.0416
905.00,0.0417
904.00,0.0417
903.00,0.0417
902.00,0.0417
901.00,0.0417
900.00,0.0417
899.00,0.0418
898.00,0.0418
897.00,0.0418
896.00,0.0418
895.00,0.0418
894.00,0.0418
893.00,0.0418
892.00,0.0419
891.00,0.0419
890.00,0.0418
889.00,0.0418
888.00,0.0418
887.00,0.0417
886.00,0.0418
885.00,0.0418
884.00,0.0418
883.00,0.0418
882.00,0.0417
881.00,0.0417
880.00,0.0418
879.00,0.0418
878.00,0.0418
877.00,0.0418
876.00,0.0418
875.00,0.0418
874.00,0.0418
873.00,0.0418
872.00,0.0419
871.00,0.0419
870.00,0.0420
869.00,0.0420
868.00,0.0419
867.00,0.0419
866.00,0.0420
865.00,0.0420
864.00,0.0421
863.00,0.0422
862.00,0.0422
861.00,0.0422
860.00,0.0423
859.00,0.0424
858.00,0.0425
857.00,0.0426
856.00,0.0426
855.00,0.0427
854.00,0.0428
853.00,0.0429
852.00,0.0430
851.00,0.0431
850.00,0.0432
849.00,0.0434
848.00,0.0436
847.00,0.0437
846.00,0.0439
845.00,0.0441
844.00,0.0443
843.00,0.0445
842.00,0.0446
841.00,0.0448
840.00,0.0449
839.00,0.0450
838.00,0.0451
837.00,0.0453
836.00,0.0455
835.00,0.0458
834.00,0.0461
833.00,0.0463
832.00,0.0465
831.00,0.0466
830.00,0.0467
829.00,0.0469
828.00,0.0470
827.00,0.0471
826.00,0.0473
825.00,0.0475
824.00,0.0477
823.00,0.0478
822.00,0.0479
821.00,0.0481
820.00,0.0482
819.00,0.0483
818.00,0.0484
817.00,0.0485
816.00,0.0486
815.00,0.0488
814.00,0.0489
813.00,0.0490
812.00,0.0491
811.00,0.0492
810.00,0.0493
809.00,0.0493
808.00,0.0494
807.00,0.0495
806.00,0.0495
805.00,0.0496
804.00,0.0496
803.00,0.0497
802.00,0.0498
801.00,0.0499
800.00,0.0500
799.00,0.0501
798.00,0.0502
797.00,0.0502
796.00,0.0502
795.00,0.0503
794.00,0.0504
793.00,0.0504
792.00,0.0505
791.00,0.0506
790.00,0.0507
789.00,0.0508
788.00,0.0509
787.00,0.0510
786.00,0.0511
785.00,0.0512
784.00,0.0513
783.00,0.0514
782.00,0.0515
781.00,0.0516
780.00,0.0517
779.00,0.0517
778.00,0.0518
777.00,0.0519
776.00,0.0521
775.00,0.0522
774.00,0.0523
773.00,0.0524
772.00,0.0525
771.00,0.0525
770.00,0.0526
769.00,0.0527
768.00,0.0527
767.00,0.0527
766.00,0.0528
765.00,0.0529
764.00,0.0530
763.00,0.0531
762.00,0.0531
761.00,0.0531
760.00,0.0532
759.00,0.0533
758.00,0.0533
757.00,0.0534
756.00,0.0534
755.00,0.0534
754.00,0.0535
753.00,0.0536
752.00,0.0538
751.00,0.0538
750.00,0.0538
749.00,0.0538
748.00,0.0539
747.00,0.0539
746.00,0.0539
745.00,0.0539
744.00,0.0540
743.00,0.0540
742.00,0.0541
741.00,0.0541
740.00,0.0541
739.00,0.0541
738.00,0.0541
737.00,0.0542
736.00,0.0542
735.00,0.0543
734.00,0.0543
733.00,0.0542
732.00,0.0543
731.00,0.0543
730.00,0.0544
729.00,0.0545
728.00,0.0545
727.00,0.0546
726.00,0.0547
725.00,0.0549
724.00,0.0551
723.00,0.0553
722.00,0.0555
721.00,0.0557
720.00,0.0560
719.00,0.0562
718.00,0.0563
717.00,0.0564
716.00,0.0566
715.00,0.0568
714.00,0.0569
713.00,0.0569
712.00,0.0568
711.00,0.0567
710.00,0.0566
709.00,0.0567
708.00,0.0568
707.00,0.0570
706.00,0.0572
705.00,0.0573
704.00,0.0574
703.00,0.0574
702.00,0.0574
701.00,0.0574
700.00,0.0574
699.00,0.0574
698.00,0.0574
697.00,0.0574
696.00,0.0575
695.00,0.0576
694.00,0.0578
693.00,0.0579
692.00,0.0579
691.00,0.0579
690.00,0.0579
689.00,0.0579
688.00,0.0580
687.00,0.0580
686.00,0.0580
685.00,0.0580
684.00,0.0580
683.00,0.0580
682.00,0.0581
681.00,0.0581
680.00,0.0582
679.00,0.0582
678.00,0.0582
677.00,0.0582
676.00,0.0583
675.00,0.0583
674.00,0.0582
673.00,0.0582
672.00,0.0582
671.00,0.0581
670.00,0.0580
669.00,0.0579
668.00,0.0580
667.00,0.0582
666.00,0.0583
665.00,0.0584
664.00,0.0585
663.00,0.0586
662.00,0.0588
661.00,0.0589
660.00,0.0590
659.00,0.0591
658.00,0.0591
657.00,0.0592
656.00,0.0593
655.00,0.0594
654.00,0.0595
653.00,0.0595
652.00,0.0595
651.00,0.0595
650.00,0.0596
