Created as New Dataset,Monday, April 03 2023
cm-1,A
4000.00,0.0320
3999.00,0.0320
3998.00,0.0320
3997.00,0.0320
3996.00,0.0320
3995.00,0.0320
3994.00,0.0320
3993.00,0.0320
3992.00,0.0319
3991.00,0.0319
3990.00,0.0319
3989.00,0.0319
3988.00,0.0319
3987.00,0.0319
3986.00,0.0319
3985.00,0.0319
3984.00,0.0319
3983.00,0.0319
3982.00,0.0318
3981.00,0.0318
3980.00,0.0318
3979.00,0.0318
3978.00,0.0318
3977.00,0.0318
3976.00,0.0317
3975.00,0.0317
3974.00,0.0316
3973.00,0.0316
3972.00,0.0316
3971.00,0.0316
3970.00,0.0316
3969.00,0.0316
3968.00,0.0316
3967.00,0.0316
3966.00,0.0316
3965.00,0.0316
3964.00,0.0316
3963.00,0.0316
3962.00,0.0316
3961.00,0.0316
3960.00,0.0315
3959.00,0.0315
3958.00,0.0315
3957.00,0.0315
3956.00,0.0315
3955.00,0.0314
3954.00,0.0314
3953.00,0.0314
3952.00,0.0314
3951.00,0.0314
3950.00,0.0313
3949.00,0.0313
3948.00,0.0313
3947.00,0.0313
3946.00,0.0313
3945.00,0.0313
3944.00,0.0313
3943.00,0.0313
3942.00,0.0312
3941.00,0.0312
3940.00,0.0312
3939.00,0.0312
3938.00,0.0312
3937.00,0.0312
3936.00,0.0312
3935.00,0.0312
3934.00,0.0312
3933.00,0.0312
3932.00,0.0312
3931.00,0.0311
3930.00,0.0311
3929.00,0.0311
3928.00,0.0311
3927.00,0.0310
3926.00,0.0310
3925.00,0.0309
3924.00,0.0309
3923.00,0.0309
3922.00,0.0308
3921.00,0.0308
3920.00,0.0308
3919.00,0.0308
3918.00,0.0308
3917.00,0.0308
3916.00,0.0308
3915.00,0.0308
3914.00,0.0308
3913.00,0.0308
3912.00,0.0308
3911.00,0.0307
3910.00,0.0307
3909.00,0.0308
3908.00,0.0308
3907.00,0.0308
3906.00,0.0308
3905.00,0.0307
3904.00,0.0306
3903.00,0.0306
3902.00,0.0306
3901.00,0.0306
3900.00,0.0305
3899.00,0.0305
3898.00,0.0305
3897.00,0.0306
3896.00,0.0306
3895.00,0.0307
3894.00,0.0306
3893.00,0.0306
3892.00,0.0305
3891.00,0.0304
3890.00,0.0304
3889.00,0.0305
3888.00,0.0306
3887.00,0.0306
3886.00,0.0305
3885.00,0.0304
3884.00,0.0304
3883.00,0.0304
3882.00,0.0303
3881.00,0.0302
3880.00,0.0301
3879.00,0.0301
3878.00,0.0302
3877.00,0.0302
3876.00,0.0302
3875.00,0.0302
3874.00,0.0302
3873.00,0.0302
3872.00,0.0302
3871.00,0.0302
3870.00,0.0301
3869.00,0.0300
3868.00,0.0301
3867.00,0.0302
3866.00,0.0302
3865.00,0.0301
3864.00,0.0301
3863.00,0.0300
3862.00,0.0300
3861.00,0.0300
3860.00,0.0300
3859.00,0.0300
3858.00,0.0300
3857.00,0.0299
3856.00,0.0299
3855.00,0.0300
3854.00,0.0301
3853.00,0.0300
3852.00,0.0299
3851.00,0.0299
3850.00,0.0300
3849.00,0.0300
3848.00,0.0299
3847.00,0.0299
3846.00,0.0298
3845.00,0.0298
3844.00,0.0298
3843.00,0.0298
3842.00,0.0298
3841.00,0.0298
3840.00,0.0298
3839.00,0.0298
3838.00,0.0298
3837.00,0.0298
3836.00,0.0298
3835.00,0.0297
3834.00,0.0297
3833.00,0.0297
3832.00,0.0296
3831.00,0.0296
3830.00,0.0297
3829.00,0.0297
3828.00,0.0296
3827.00,0.0295
3826.00,0.0295
3825.00,0.0295
3824.00,0.0295
3823.00,0.0295
3822.00,0.0295
3821.00,0.0295
3820.00,0.0294
3819.00,0.0295
3818.00,0.0296
3817.00,0.0295
3816.00,0.0294
3815.00,0.0293
3814.00,0.0293
3813.00,0.0294
3812.00,0.0294
3811.00,0.0293
3810.00,0.0292
3809.00,0.0292
3808.00,0.0293
3807.00,0.0293
3806.00,0.0293
3805.00,0.0293
3804.00,0.0294
3803.00,0.0295
3802.00,0.0294
3801.00,0.0293
3800.00,0.0292
3799.00,0.0292
3798.00,0.0292
3797.00,0.0290
3796.00,0.0289
3795.00,0.0289
3794.00,0.0290
3793.00,0.0290
3792.00,0.0289
3791.00,0.0289
3790.00,0.0289
3789.00,0.0289
3788.00,0.0289
3787.00,0.0289
3786.00,0.0289
3785.00,0.0289
3784.00,0.0289
3783.00,0.0289
3782.00,0.0289
3781.00,0.0289
3780.00,0.0288
3779.00,0.0287
3778.00,0.0287
3777.00,0.0287
3776.00,0.0287
3775.00,0.0287
3774.00,0.0287
3773.00,0.0287
3772.00,0.0287
3771.00,0.0287
3770.00,0.0287
3769.00,0.0287
3768.00,0.0287
3767.00,0.0286
3766.00,0.0286
3765.00,0.0285
3764.00,0.0285
3763.00,0.0285
3762.00,0.0286
3761.00,0.0286
3760.00,0.0286
3759.00,0.0286
3758.00,0.0286
3757.00,0.0286
3756.00,0.0285
3755.00,0.0285
3754.00,0.0286
3753.00,0.0287
3752.00,0.0288
3751.00,0.0288
3750.00,0.0288
3749.00,0.0286
3748.00,0.0286
3747.00,0.0285
3746.00,0.0284
3745.00,0.0283
3744.00,0.0282
3743.00,0.0282
3742.00,0.0284
3741.00,0.0285
3740.00,0.0284
3739.00,0.0284
3738.00,0.0283
3737.00,0.0283
3736.00,0.0283
3735.00,0.0282
3734.00,0.0281
3733.00,0.0280
3732.00,0.0280
3731.00,0.0280
3730.00,0.0281
3729.00,0.0282
3728.00,0.0282
3727.00,0.0282
3726.00,0.0281
3725.00,0.0280
3724.00,0.0279
3723.00,0.0279
3722.00,0.0279
3721.00,0.0280
3720.00,0.0280
3719.00,0.0280
3718.00,0.0280
3717.00,0.0280
3716.00,0.0281
3715.00,0.0282
3714.00,0.0282
3713.00,0.0283
3712.00,0.0284
3711.00,0.0284
3710.00,0.0284
3709.00,0.0284
3708.00,0.0285
3707.00,0.0286
3706.00,0.0287
3705.00,0.0288
3704.00,0.0289
3703.00,0.0289
3702.00,0.0290
3701.00,0.0291
3700.00,0.0292
3699.00,0.0294
3698.00,0.0295
3697.00,0.0295
3696.00,0.0295
3695.00,0.0295
3694.00,0.0295
3693.00,0.0295
3692.00,0.0295
3691.00,0.0295
3690.00,0.0295
3689.00,0.0295
3688.00,0.0294
3687.00,0.0293
3686.00,0.0294
3685.00,0.0293
3684.00,0.0293
3683.00,0.0293
3682.00,0.0293
3681.00,0.0293
3680.00,0.0293
3679.00,0.0292
3678.00,0.0292
3677.00,0.0294
3676.00,0.0297
3675.00,0.0298
3674.00,0.0299
3673.00,0.0301
3672.00,0.0303
3671.00,0.0304
3670.00,0.0304
3669.00,0.0305
3668.00,0.0306
3667.00,0.0308
3666.00,0.0310
3665.00,0.0312
3664.00,0.0314
3663.00,0.0316
3662.00,0.0318
3661.00,0.0320
3660.00,0.0322
3659.00,0.0324
3658.00,0.0327
3657.00,0.0331
3656.00,0.0334
3655.00,0.0337
3654.00,0.0339
3653.00,0.0340
3652.00,0.0342
3651.00,0.0345
3650.00,0.0351
3649.00,0.0355
3648.00,0.0357
3647.00,0.0358
3646.00,0.0359
3645.00,0.0361
3644.00,0.0363
3643.00,0.0364
3642.00,0.0366
3641.00,0.0368
3640.00,0.0371
3639.00,0.0373
3638.00,0.0374
3637.00,0.0376
3636.00,0.0378
3635.00,0.0380
3634.00,0.0382
3633.00,0.0383
3632.00,0.0384
3631.00,0.0386
3630.00,0.0391
3629.00,0.0397
3628.00,0.0402
3627.00,0.0406
3626.00,0.0409
3625.00,0.0411
3624.00,0.0413
3623.00,0.0414
3622.00,0.0416
3621.00,0.0419
3620.00,0.0422
3619.00,0.0425
3618.00,0.0426
3617.00,0.0427
3616.00,0.0427
3615.00,0.0428
3614.00,0.0428
3613.00,0.0429
3612.00,0.0431
3611.00,0.0433
3610.00,0.0435
3609.00,0.0439
3608.00,0.0441
3607.00,0.0444
3606.00,0.0445
3605.00,0.0446
3604.00,0.0447
3603.00,0.0449
3602.00,0.0450
3601.00,0.0452
3600.00,0.0453
3599.00,0.0454
3598.00,0.0456
3597.00,0.0457
3596.00,0.0460
3595.00,0.0463
3594.00,0.0466
3593.00,0.0468
3592.00,0.0469
3591.00,0.0469
3590.00,0.0470
3589.00,0.0472
3588.00,0.0475
3587.00,0.0478
3586.00,0.0480
3585.00,0.0482
3584.00,0.0483
3583.00,0.0485
3582.00,0.0486
3581.00,0.0488
3580.00,0.0490
3579.00,0.0493
3578.00,0.0495
3577.00,0.0497
3576.00,0.0499
3575.00,0.0500
3574.00,0.0502
3573.00,0.0503
3572.00,0.0504
3571.00,0.0504
3570.00,0.0505
3569.00,0.0507
3568.00,0.0512
3567.00,0.0517
3566.00,0.0520
3565.00,0.0522
3564.00,0.0522
3563.00,0.0523
3562.00,0.0524
3561.00,0.0526
3560.00,0.0528
3559.00,0.0530
3558.00,0.0532
3557.00,0.0534
3556.00,0.0535
3555.00,0.0537
3554.00,0.0539
3553.00,0.0542
3552.00,0.0544
3551.00,0.0546
3550.00,0.0547
3549.00,0.0548
3548.00,0.0549
3547.00,0.0552
3546.00,0.0555
3545.00,0.0558
3544.00,0.0560
3543.00,0.0562
3542.00,0.0563
3541.00,0.0564
3540.00,0.0565
3539.00,0.0566
3538.00,0.0568
3537.00,0.0570
3536.00,0.0572
3535.00,0.0575
3534.00,0.0577
3533.00,0.0579
3532.00,0.0580
3531.00,0.0581
3530.00,0.0582
3529.00,0.0584
3528.00,0.0587
3527.00,0.0589
3526.00,0.0591
3525.00,0.0594
3524.00,0.0596
3523.00,0.0597
3522.00,0.0599
3521.00,0.0600
3520.00,0.0601
3519.00,0.0603
3518.00,0.0605
3517.00,0.0607
3516.00,0.0609
3515.00,0.0610
3514.00,0.0612
3513.00,0.0613
3512.00,0.0614
3511.00,0.0616
3510.00,0.0618
3509.00,0.0621
3508.00,0.0622
3507.00,0.0623
3506.00,0.0624
3505.00,0.0626
3504.00,0.0628
3503.00,0.0631
3502.00,0.0633
3501.00,0.0635
3500.00,0.0636
3499.00,0.0638
3498.00,0.0639
3497.00,0.0641
3496.00,0.0643
3495.00,0.0645
3494.00,0.0647
3493.00,0.0649
3492.00,0.0651
3491.00,0.0652
3490.00,0.0653
3489.00,0.0654
3488.00,0.0656
3487.00,0.0657
3486.00,0.0659
3485.00,0.0660
3484.00,0.0661
3483.00,0.0663
3482.00,0.0664
3481.00,0.0667
3480.00,0.0669
3479.00,0.0671
3478.00,0.0672
3477.00,0.0674
3476.00,0.0675
3475.00,0.0677
3474.00,0.0678
3473.00,0.0680
3472.00,0.0681
3471.00,0.0682
3470.00,0.0684
3469.00,0.0686
3468.00,0.0687
3467.00,0.0689
3466.00,0.0691
3465.00,0.0692
3464.00,0.0694
3463.00,0.0695
3462.00,0.0697
3461.00,0.0698
3460.00,0.0699
3459.00,0.0700
3458.00,0.0701
3457.00,0.0703
3456.00,0.0704
3455.00,0.0706
3454.00,0.0708
3453.00,0.0709
3452.00,0.0711
3451.00,0.0713
3450.00,0.0714
3449.00,0.0716
3448.00,0.0718
3447.00,0.0720
3446.00,0.0721
3445.00,0.0722
3444.00,0.0723
3443.00,0.0724
3442.00,0.0726
3441.00,0.0727
3440.00,0.0728
3439.00,0.0730
3438.00,0.0731
3437.00,0.0733
3436.00,0.0734
3435.00,0.0735
3434.00,0.0737
3433.00,0.0739
3432.00,0.0740
3431.00,0.0742
3430.00,0.0743
3429.00,0.0744
3428.00,0.0745
3427.00,0.0746
3426.00,0.0747
3425.00,0.0748
3424.00,0.0749
3423.00,0.0750
3422.00,0.0751
3421.00,0.0753
3420.00,0.0755
3419.00,0.0756
3418.00,0.0758
3417.00,0.0759
3416.00,0.0760
3415.00,0.0760
3414.00,0.0761
3413.00,0.0762
3412.00,0.0763
3411.00,0.0764
3410.00,0.0765
3409.00,0.0766
3408.00,0.0767
3407.00,0.0768
3406.00,0.0769
3405.00,0.0770
3404.00,0.0771
3403.00,0.0773
3402.00,0.0774
3401.00,0.0775
3400.00,0.0775
3399.00,0.0776
3398.00,0.0776
3397.00,0.0777
3396.00,0.0778
3395.00,0.0779
3394.00,0.0781
3393.00,0.0782
3392.00,0.0782
3391.00,0.0783
3390.00,0.0784
3389.00,0.0785
3388.00,0.0785
3387.00,0.0786
3386.00,0.0787
3385.00,0.0787
3384.00,0.0788
3383.00,0.0789
3382.00,0.0790
3381.00,0.0790
3380.00,0.0791
3379.00,0.0792
3378.00,0.0792
3377.00,0.0793
3376.00,0.0793
3375.00,0.0794
3374.00,0.0794
3373.00,0.0794
3372.00,0.0794
3371.00,0.0794
3370.00,0.0795
3369.00,0.0796
3368.00,0.0797
3367.00,0.0798
3366.00,0.0799
3365.00,0.0800
3364.00,0.0801
3363.00,0.0801
3362.00,0.0802
3361.00,0.0802
3360.00,0.0802
3359.00,0.0802
3358.00,0.0802
3357.00,0.0803
3356.00,0.0804
3355.00,0.0804
3354.00,0.0805
3353.00,0.0805
3352.00,0.0805
3351.00,0.0806
3350.00,0.0806
3349.00,0.0806
3348.00,0.0806
3347.00,0.0805
3346.00,0.0805
3345.00,0.0805
3344.00,0.0806
3343.00,0.0807
3342.00,0.0807
3341.00,0.0807
3340.00,0.0807
3339.00,0.0807
3338.00,0.0807
3337.00,0.0807
3336.00,0.0807
3335.00,0.0807
3334.00,0.0807
3333.00,0.0807
3332.00,0.0807
3331.00,0.0807
3330.00,0.0806
3329.00,0.0806
3328.00,0.0807
3327.00,0.0807
3326.00,0.0807
3325.00,0.0807
3324.00,0.0806
3323.00,0.0806
3322.00,0.0806
3321.00,0.0806
3320.00,0.0806
3319.00,0.0806
3318.00,0.0806
3317.00,0.0806
3316.00,0.0805
3315.00,0.0805
3314.00,0.0805
3313.00,0.0805
3312.00,0.0804
3311.00,0.0804
3310.00,0.0804
3309.00,0.0805
3308.00,0.0805
3307.00,0.0806
3306.00,0.0806
3305.00,0.0805
3304.00,0.0805
3303.00,0.0804
3302.00,0.0804
3301.00,0.0804
3300.00,0.0804
3299.00,0.0804
3298.00,0.0804
3297.00,0.0803
3296.00,0.0803
3295.00,0.0803
3294.00,0.0803
3293.00,0.0803
3292.00,0.0803
3291.00,0.0803
3290.00,0.0803
3289.00,0.0803
3288.00,0.0803
3287.00,0.0803
3286.00,0.0803
3285.00,0.0802
3284.00,0.0802
3283.00,0.0802
3282.00,0.0802
3281.00,0.0801
3280.00,0.0801
3279.00,0.0801
3278.00,0.0801
3277.00,0.0801
3276.00,0.0800
3275.00,0.0800
3274.00,0.0800
3273.00,0.0800
3272.00,0.0800
3271.00,0.0799
3270.00,0.0799
3269.00,0.0798
3268.00,0.0797
3267.00,0.0797
3266.00,0.0796
3265.00,0.0796
3264.00,0.0796
3263.00,0.0795
3262.00,0.0794
3261.00,0.0794
3260.00,0.0793
3259.00,0.0793
3258.00,0.0793
3257.00,0.0792
3256.00,0.0792
3255.00,0.0792
3254.00,0.0791
3253.00,0.0791
3252.00,0.0790
3251.00,0.0789
3250.00,0.0788
3249.00,0.0788
3248.00,0.0788
3247.00,0.0787
3246.00,0.0788
3245.00,0.0787
3244.00,0.0787
3243.00,0.0786
3242.00,0.0786
3241.00,0.0785
3240.00,0.0785
3239.00,0.0784
3238.00,0.0784
3237.00,0.0783
3236.00,0.0782
3235.00,0.0782
3234.00,0.0781
3233.00,0.0780
3232.00,0.0780
3231.00,0.0780
3230.00,0.0779
3229.00,0.0779
3228.00,0.0779
3227.00,0.0778
3226.00,0.0777
3225.00,0.0777
3224.00,0.0776
3223.00,0.0776
3222.00,0.0775
3221.00,0.0775
3220.00,0.0774
3219.00,0.0773
3218.00,0.0772
3217.00,0.0771
3216.00,0.0771
3215.00,0.0770
3214.00,0.0770
3213.00,0.0769
3212.00,0.0768
3211.00,0.0768
3210.00,0.0767
3209.00,0.0767
3208.00,0.0766
3207.00,0.0766
3206.00,0.0765
3205.00,0.0764
3204.00,0.0763
3203.00,0.0762
3202.00,0.0761
3201.00,0.0761
3200.00,0.0760
3199.00,0.0760
3198.00,0.0759
3197.00,0.0758
3196.00,0.0757
3195.00,0.0756
3194.00,0.0756
3193.00,0.0755
3192.00,0.0754
3191.00,0.0754
3190.00,0.0753
3189.00,0.0752
3188.00,0.0751
3187.00,0.0750
3186.00,0.0749
3185.00,0.0748
3184.00,0.0747
3183.00,0.0746
3182.00,0.0745
3181.00,0.0744
3180.00,0.0743
3179.00,0.0743
3178.00,0.0742
3177.00,0.0741
3176.00,0.0740
3175.00,0.0739
3174.00,0.0738
3173.00,0.0737
3172.00,0.0737
3171.00,0.0736
3170.00,0.0735
3169.00,0.0734
3168.00,0.0733
3167.00,0.0732
3166.00,0.0731
3165.00,0.0729
3164.00,0.0728
3163.00,0.0728
3162.00,0.0727
3161.00,0.0727
3160.00,0.0726
3159.00,0.0725
3158.00,0.0724
3157.00,0.0723
3156.00,0.0722
3155.00,0.0720
3154.00,0.0719
3153.00,0.0718
3152.00,0.0718
3151.00,0.0717
3150.00,0.0716
3149.00,0.0715
3148.00,0.0714
3147.00,0.0713
3146.00,0.0712
3145.00,0.0711
3144.00,0.0710
3143.00,0.0710
3142.00,0.0709
3141.00,0.0708
3140.00,0.0708
3139.00,0.0707
3138.00,0.0706
3137.00,0.0705
3136.00,0.0704
3135.00,0.0703
3134.00,0.0702
3133.00,0.0702
3132.00,0.0701
3131.00,0.0700
3130.00,0.0699
3129.00,0.0698
3128.00,0.0697
3127.00,0.0697
3126.00,0.0696
3125.00,0.0695
3124.00,0.0694
3123.00,0.0692
3122.00,0.0691
3121.00,0.0691
3120.00,0.0690
3119.00,0.0690
3118.00,0.0689
3117.00,0.0688
3116.00,0.0687
3115.00,0.0686
3114.00,0.0686
3113.00,0.0686
3112.00,0.0685
3111.00,0.0684
3110.00,0.0683
3109.00,0.0682
3108.00,0.0681
3107.00,0.0681
3106.00,0.0681
3105.00,0.0680
3104.00,0.0679
3103.00,0.0678
3102.00,0.0678
3101.00,0.0677
3100.00,0.0676
3099.00,0.0675
3098.00,0.0674
3097.00,0.0673
3096.00,0.0673
3095.00,0.0673
3094.00,0.0673
3093.00,0.0672
3092.00,0.0672
3091.00,0.0671
3090.00,0.0670
3089.00,0.0670
3088.00,0.0669
3087.00,0.0668
3086.00,0.0667
3085.00,0.0666
3084.00,0.0665
3083.00,0.0664
3082.00,0.0664
3081.00,0.0663
3080.00,0.0663
3079.00,0.0663
3078.00,0.0662
3077.00,0.0661
3076.00,0.0660
3075.00,0.0660
3074.00,0.0659
3073.00,0.0658
3072.00,0.0657
3071.00,0.0656
3070.00,0.0655
3069.00,0.0654
3068.00,0.0653
3067.00,0.0653
3066.00,0.0652
3065.00,0.0652
3064.00,0.0652
3063.00,0.0651
3062.00,0.0650
3061.00,0.0649
3060.00,0.0648
3059.00,0.0646
3058.00,0.0645
3057.00,0.0644
3056.00,0.0643
3055.00,0.0643
3054.00,0.0642
3053.00,0.0641
3052.00,0.0641
3051.00,0.0640
3050.00,0.0639
3049.00,0.0639
3048.00,0.0638
3047.00,0.0637
3046.00,0.0636
3045.00,0.0635
3044.00,0.0634
3043.00,0.0633
3042.00,0.0632
3041.00,0.0631
3040.00,0.0629
3039.00,0.0628
3038.00,0.0628
3037.00,0.0627
3036.00,0.0626
3035.00,0.0625
3034.00,0.0624
3033.00,0.0623
3032.00,0.0622
3031.00,0.0622
3030.00,0.0621
3029.00,0.0620
3028.00,0.0619
3027.00,0.0619
3026.00,0.0618
3025.00,0.0617
3024.00,0.0617
3023.00,0.0616
3022.00,0.0614
3021.00,0.0613
3020.00,0.0613
3019.00,0.0612
3018.00,0.0611
3017.00,0.0611
3016.00,0.0610
3015.00,0.0610
3014.00,0.0609
3013.00,0.0609
3012.00,0.0608
3011.00,0.0607
3010.00,0.0606
3009.00,0.0605
3008.00,0.0604
3007.00,0.0603
3006.00,0.0602
3005.00,0.0601
3004.00,0.0601
3003.00,0.0600
3002.00,0.0600
3001.00,0.0600
3000.00,0.0599
2999.00,0.0599
2998.00,0.0599
2997.00,0.0598
2996.00,0.0597
2995.00,0.0597
2994.00,0.0597
2993.00,0.0597
2992.00,0.0596
2991.00,0.0596
2990.00,0.0595
2989.00,0.0595
2988.00,0.0594
2987.00,0.0594
2986.00,0.0593
2985.00,0.0593
2984.00,0.0592
2983.00,0.0592
2982.00,0.0591
2981.00,0.0591
2980.00,0.0592
2979.00,0.0592
2978.00,0.0593
2977.00,0.0594
2976.00,0.0595
2975.00,0.0595
2974.00,0.0595
2973.00,0.0596
2972.00,0.0596
2971.00,0.0597
2970.00,0.0597
2969.00,0.0598
2968.00,0.0599
2967.00,0.0600
2966.00,0.0600
2965.00,0.0600
2964.00,0.0601
2963.00,0.0601
2962.00,0.0602
2961.00,0.0602
2960.00,0.0602
2959.00,0.0602
2958.00,0.0603
2957.00,0.0603
2956.00,0.0604
2955.00,0.0605
2954.00,0.0606
2953.00,0.0606
2952.00,0.0607
2951.00,0.0608
2950.00,0.0609
2949.00,0.0609
2948.00,0.0610
2947.00,0.0611
2946.00,0.0611
2945.00,0.0612
2944.00,0.0613
2943.00,0.0613
2942.00,0.0614
2941.00,0.0615
2940.00,0.0616
2939.00,0.0617
2938.00,0.0618
2937.00,0.0619
2936.00,0.0620
2935.00,0.0622
2934.00,0.0623
2933.00,0.0624
2932.00,0.0624
2931.00,0.0625
2930.00,0.0625
2929.00,0.0626
2928.00,0.0626
2927.00,0.0627
2926.00,0.0627
2925.00,0.0628
2924.00,0.0628
2923.00,0.0629
2922.00,0.0628
2921.00,0.0628
2920.00,0.0627
2919.00,0.0625
2918.00,0.0623
2917.00,0.0621
2916.00,0.0619
2915.00,0.0618
2914.00,0.0617
2913.00,0.0616
2912.00,0.0615
2911.00,0.0614
2910.00,0.0612
2909.00,0.0611
2908.00,0.0610
2907.00,0.0610
2906.00,0.0609
2905.00,0.0608
2904.00,0.0607
2903.00,0.0606
2902.00,0.0606
2901.00,0.0605
2900.00,0.0604
2899.00,0.0603
2898.00,0.0602
2897.00,0.0601
2896.00,0.0600
2895.00,0.0599
2894.00,0.0598
2893.00,0.0597
2892.00,0.0596
2891.00,0.0595
2890.00,0.0595
2889.00,0.0594
2888.00,0.0593
2887.00,0.0592
2886.00,0.0592
2885.00,0.0591
2884.00,0.0590
2883.00,0.0589
2882.00,0.0589
2881.00,0.0588
2880.00,0.0588
2879.00,0.0588
2878.00,0.0587
2877.00,0.0587
2876.00,0.0586
2875.00,0.0586
2874.00,0.0585
2873.00,0.0584
2872.00,0.0583
2871.00,0.0582
2870.00,0.0581
2869.00,0.0581
2868.00,0.0580
2867.00,0.0579
2866.00,0.0579
2865.00,0.0578
2864.00,0.0577
2863.00,0.0577
2862.00,0.0576
2861.00,0.0575
2860.00,0.0575
2859.00,0.0575
2858.00,0.0575
2857.00,0.0574
2856.00,0.0574
2855.00,0.0573
2854.00,0.0573
2853.00,0.0573
2852.00,0.0573
2851.00,0.0572
2850.00,0.0570
2849.00,0.0569
2848.00,0.0566
2847.00,0.0565
2846.00,0.0563
2845.00,0.0561
2844.00,0.0560
2843.00,0.0558
2842.00,0.0557
2841.00,0.0555
2840.00,0.0554
2839.00,0.0553
2838.00,0.0551
2837.00,0.0550
2836.00,0.0549
2835.00,0.0547
2834.00,0.0546
2833.00,0.0545
2832.00,0.0544
2831.00,0.0543
2830.00,0.0542
2829.00,0.0541
2828.00,0.0539
2827.00,0.0538
2826.00,0.0537
2825.00,0.0536
2824.00,0.0536
2823.00,0.0535
2822.00,0.0534
2821.00,0.0533
2820.00,0.0533
2819.00,0.0532
2818.00,0.0531
2817.00,0.0531
2816.00,0.0530
2815.00,0.0529
2814.00,0.0528
2813.00,0.0527
2812.00,0.0527
2811.00,0.0526
2810.00,0.0525
2809.00,0.0524
2808.00,0.0523
2807.00,0.0522
2806.00,0.0522
2805.00,0.0521
2804.00,0.0521
2803.00,0.0520
2802.00,0.0519
2801.00,0.0518
2800.00,0.0517
2799.00,0.0517
2798.00,0.0516
2797.00,0.0516
2796.00,0.0515
2795.00,0.0515
2794.00,0.0515
2793.00,0.0514
2792.00,0.0513
2791.00,0.0513
2790.00,0.0512
2789.00,0.0512
2788.00,0.0511
2787.00,0.0510
2786.00,0.0510
2785.00,0.0509
2784.00,0.0509
2783.00,0.0508
2782.00,0.0508
2781.00,0.0507
2780.00,0.0507
2779.00,0.0506
2778.00,0.0505
2777.00,0.0504
2776.00,0.0504
2775.00,0.0503
2774.00,0.0502
2773.00,0.0502
2772.00,0.0502
2771.00,0.0502
2770.00,0.0502
2769.00,0.0501
2768.00,0.0501
2767.00,0.0500
2766.00,0.0500
2765.00,0.0499
2764.00,0.0499
2763.00,0.0499
2762.00,0.0498
2761.00,0.0498
2760.00,0.0497
2759.00,0.0497
2758.00,0.0496
2757.00,0.0496
2756.00,0.0496
2755.00,0.0495
2754.00,0.0495
2753.00,0.0494
2752.00,0.0493
2751.00,0.0493
2750.00,0.0492
2749.00,0.0492
2748.00,0.0492
2747.00,0.0492
2746.00,0.0491
2745.00,0.0490
2744.00,0.0490
2743.00,0.0489
2742.00,0.0489
2741.00,0.0489
2740.00,0.0489
2739.00,0.0489
2738.00,0.0488
2737.00,0.0488
2736.00,0.0488
2735.00,0.0487
2734.00,0.0486
2733.00,0.0486
2732.00,0.0485
2731.00,0.0485
2730.00,0.0485
2729.00,0.0485
2728.00,0.0484
2727.00,0.0484
2726.00,0.0484
2725.00,0.0483
2724.00,0.0483
2723.00,0.0482
2722.00,0.0481
2721.00,0.0481
2720.00,0.0480
2719.00,0.0480
2718.00,0.0480
2717.00,0.0479
2716.00,0.0479
2715.00,0.0479
2714.00,0.0478
2713.00,0.0478
2712.00,0.0477
2711.00,0.0476
2710.00,0.0476
2709.00,0.0475
2708.00,0.0475
2707.00,0.0475
2706.00,0.0475
2705.00,0.0474
2704.00,0.0474
2703.00,0.0474
2702.00,0.0473
2701.00,0.0473
2700.00,0.0473
2699.00,0.0472
2698.00,0.0472
2697.00,0.0472
2696.00,0.0472
2695.00,0.0471
2694.00,0.0471
2693.00,0.0470
2692.00,0.0470
2691.00,0.0469
2690.00,0.0469
2689.00,0.0468
2688.00,0.0468
2687.00,0.0468
2686.00,0.0468
2685.00,0.0467
2684.00,0.0467
2683.00,0.0467
2682.00,0.0466
2681.00,0.0466
2680.00,0.0465
2679.00,0.0465
2678.00,0.0465
2677.00,0.0464
2676.00,0.0464
2675.00,0.0464
2674.00,0.0464
2673.00,0.0464
2672.00,0.0464
2671.00,0.0463
2670.00,0.0463
2669.00,0.0463
2668.00,0.0463
2667.00,0.0462
2666.00,0.0462
2665.00,0.0462
2664.00,0.0462
2663.00,0.0462
2662.00,0.0461
2661.00,0.0461
2660.00,0.0461
2659.00,0.0461
2658.00,0.0461
2657.00,0.0462
2656.00,0.0462
2655.00,0.0462
2654.00,0.0462
2653.00,0.0462
2652.00,0.0462
2651.00,0.0462
2650.00,0.0462
2649.00,0.0461
2648.00,0.0461
2647.00,0.0461
2646.00,0.0461
2645.00,0.0462
2644.00,0.0462
2643.00,0.0461
2642.00,0.0461
2641.00,0.0461
2640.00,0.0461
2639.00,0.0461
2638.00,0.0461
2637.00,0.0461
2636.00,0.0461
2635.00,0.0461
2634.00,0.0461
2633.00,0.0460
2632.00,0.0460
2631.00,0.0460
2630.00,0.0460
2629.00,0.0460
2628.00,0.0460
2627.00,0.0460
2626.00,0.0460
2625.00,0.0459
2624.00,0.0459
2623.00,0.0459
2622.00,0.0459
2621.00,0.0459
2620.00,0.0459
2619.00,0.0459
2618.00,0.0458
2617.00,0.0458
2616.00,0.0458
2615.00,0.0458
2614.00,0.0458
2613.00,0.0459
2612.00,0.0459
2611.00,0.0458
2610.00,0.0458
2609.00,0.0458
2608.00,0.0458
2607.00,0.0458
2606.00,0.0458
2605.00,0.0458
2604.00,0.0457
2603.00,0.0457
2602.00,0.0457
2601.00,0.0457
2600.00,0.0457
2599.00,0.0456
2598.00,0.0456
2597.00,0.0456
2596.00,0.0456
2595.00,0.0456
2594.00,0.0456
2593.00,0.0456
2592.00,0.0456
2591.00,0.0456
2590.00,0.0456
2589.00,0.0455
2588.00,0.0455
2587.00,0.0455
2586.00,0.0455
2585.00,0.0455
2584.00,0.0455
2583.00,0.0455
2582.00,0.0454
2581.00,0.0455
2580.00,0.0455
2579.00,0.0455
2578.00,0.0454
2577.00,0.0454
2576.00,0.0453
2575.00,0.0453
2574.00,0.0453
2573.00,0.0452
2572.00,0.0452
2571.00,0.0452
2570.00,0.0452
2569.00,0.0452
2568.00,0.0452
2567.00,0.0452
2566.00,0.0451
2565.00,0.0451
2564.00,0.0451
2563.00,0.0451
2562.00,0.0450
2561.00,0.0450
2560.00,0.0449
2559.00,0.0448
2558.00,0.0448
2557.00,0.0448
2556.00,0.0448
2555.00,0.0449
2554.00,0.0449
2553.00,0.0450
2552.00,0.0450
2551.00,0.0449
2550.00,0.0449
2549.00,0.0448
2548.00,0.0448
2547.00,0.0447
2546.00,0.0447
2545.00,0.0447
2544.00,0.0447
2543.00,0.0446
2542.00,0.0446
2541.00,0.0446
2540.00,0.0446
2539.00,0.0446
2538.00,0.0446
2537.00,0.0446
2536.00,0.0445
2535.00,0.0444
2534.00,0.0444
2533.00,0.0444
2532.00,0.0444
2531.00,0.0444
2530.00,0.0444
2529.00,0.0444
2528.00,0.0443
2527.00,0.0443
2526.00,0.0443
2525.00,0.0443
2524.00,0.0443
2523.00,0.0443
2522.00,0.0443
2521.00,0.0443
2520.00,0.0443
2519.00,0.0442
2518.00,0.0441
2517.00,0.0441
2516.00,0.0441
2515.00,0.0440
2514.00,0.0440
2513.00,0.0440
2512.00,0.0440
2511.00,0.0439
2510.00,0.0439
2509.00,0.0438
2508.00,0.0438
2507.00,0.0438
2506.00,0.0438
2505.00,0.0438
2504.00,0.0438
2503.00,0.0438
2502.00,0.0437
2501.00,0.0437
2500.00,0.0437
2499.00,0.0437
2498.00,0.0437
2497.00,0.0437
2496.00,0.0437
2495.00,0.0437
2494.00,0.0437
2493.00,0.0436
2492.00,0.0436
2491.00,0.0435
2490.00,0.0435
2489.00,0.0435
2488.00,0.0434
2487.00,0.0434
2486.00,0.0433
2485.00,0.0433
2484.00,0.0433
2483.00,0.0432
2482.00,0.0432
2481.00,0.0432
2480.00,0.0432
2479.00,0.0432
2478.00,0.0431
2477.00,0.0431
2476.00,0.0431
2475.00,0.0431
2474.00,0.0430
2473.00,0.0430
2472.00,0.0429
2471.00,0.0428
2470.00,0.0428
2469.00,0.0428
2468.00,0.0428
2467.00,0.0428
2466.00,0.0428
2465.00,0.0428
2464.00,0.0428
2463.00,0.0428
2462.00,0.0428
2461.00,0.0427
2460.00,0.0427
2459.00,0.0427
2458.00,0.0426
2457.00,0.0426
2456.00,0.0426
2455.00,0.0425
2454.00,0.0425
2453.00,0.0425
2452.00,0.0425
2451.00,0.0425
2450.00,0.0425
2449.00,0.0424
2448.00,0.0424
2447.00,0.0424
2446.00,0.0423
2445.00,0.0423
2444.00,0.0422
2443.00,0.0422
2442.00,0.0421
2441.00,0.0421
2440.00,0.0421
2439.00,0.0421
2438.00,0.0421
2437.00,0.0420
2436.00,0.0419
2435.00,0.0419
2434.00,0.0418
2433.00,0.0418
2432.00,0.0417
2431.00,0.0417
2430.00,0.0417
2429.00,0.0417
2428.00,0.0417
2427.00,0.0417
2426.00,0.0417
2425.00,0.0417
2424.00,0.0416
2423.00,0.0416
2422.00,0.0415
2421.00,0.0414
2420.00,0.0414
2419.00,0.0413
2418.00,0.0413
2417.00,0.0413
2416.00,0.0412
2415.00,0.0411
2414.00,0.0411
2413.00,0.0411
2412.00,0.0410
2411.00,0.0409
2410.00,0.0409
2409.00,0.0408
2408.00,0.0408
2407.00,0.0407
2406.00,0.0407
2405.00,0.0407
2404.00,0.0407
2403.00,0.0407
2402.00,0.0407
2401.00,0.0406
2400.00,0.0405
2399.00,0.0404
2398.00,0.0404
2397.00,0.0403
2396.00,0.0403
2395.00,0.0403
2394.00,0.0402
2393.00,0.0401
2392.00,0.0401
2391.00,0.0401
2390.00,0.0401
2389.00,0.0401
2388.00,0.0401
2387.00,0.0400
2386.00,0.0399
2385.00,0.0399
2384.00,0.0398
2383.00,0.0397
2382.00,0.0396
2381.00,0.0394
2380.00,0.0392
2379.00,0.0391
2378.00,0.0389
2377.00,0.0388
2376.00,0.0387
2375.00,0.0387
2374.00,0.0386
2373.00,0.0385
2372.00,0.0384
2371.00,0.0384
2370.00,0.0383
2369.00,0.0382
2368.00,0.0382
2367.00,0.0382
2366.00,0.0383
2365.00,0.0384
2364.00,0.0384
2363.00,0.0384
2362.00,0.0383
2361.00,0.0382
2360.00,0.0381
2359.00,0.0380
2358.00,0.0380
2357.00,0.0380
2356.00,0.0380
2355.00,0.0380
2354.00,0.0379
2353.00,0.0378
2352.00,0.0378
2351.00,0.0378
2350.00,0.0378
2349.00,0.0378
2348.00,0.0377
2347.00,0.0378
2346.00,0.0379
2345.00,0.0380
2344.00,0.0379
2343.00,0.0377
2342.00,0.0376
2341.00,0.0375
2340.00,0.0376
2339.00,0.0375
2338.00,0.0375
2337.00,0.0374
2336.00,0.0374
2335.00,0.0374
2334.00,0.0374
2333.00,0.0374
2332.00,0.0374
2331.00,0.0373
2330.00,0.0373
2329.00,0.0374
2328.00,0.0375
2327.00,0.0376
2326.00,0.0378
2325.00,0.0379
2324.00,0.0379
2323.00,0.0378
2322.00,0.0377
2321.00,0.0377
2320.00,0.0376
2319.00,0.0376
2318.00,0.0376
2317.00,0.0376
2316.00,0.0376
2315.00,0.0376
2314.00,0.0376
2313.00,0.0376
2312.00,0.0377
2311.00,0.0377
2310.00,0.0377
2309.00,0.0378
2308.00,0.0378
2307.00,0.0378
2306.00,0.0378
2305.00,0.0378
2304.00,0.0379
2303.00,0.0379
2302.00,0.0379
2301.00,0.0379
2300.00,0.0379
2299.00,0.0379
2298.00,0.0380
2297.00,0.0380
2296.00,0.0380
2295.00,0.0380
2294.00,0.0381
2293.00,0.0381
2292.00,0.0382
2291.00,0.0383
2290.00,0.0383
2289.00,0.0384
2288.00,0.0385
2287.00,0.0385
2286.00,0.0385
2285.00,0.0385
2284.00,0.0385
2283.00,0.0385
2282.00,0.0384
2281.00,0.0384
2280.00,0.0383
2279.00,0.0382
2278.00,0.0381
2277.00,0.0380
2276.00,0.0380
2275.00,0.0380
2274.00,0.0380
2273.00,0.0380
2272.00,0.0381
2271.00,0.0381
2270.00,0.0382
2269.00,0.0382
2268.00,0.0382
2267.00,0.0382
2266.00,0.0382
2265.00,0.0382
2264.00,0.0383
2263.00,0.0383
2262.00,0.0383
2261.00,0.0383
2260.00,0.0383
2259.00,0.0382
2258.00,0.0380
2257.00,0.0379
2256.00,0.0377
2255.00,0.0377
2254.00,0.0376
2253.00,0.0376
2252.00,0.0376
2251.00,0.0375
2250.00,0.0375
2249.00,0.0375
2248.00,0.0376
2247.00,0.0376
2246.00,0.0377
2245.00,0.0378
2244.00,0.0378
2243.00,0.0378
2242.00,0.0379
2241.00,0.0379
2240.00,0.0379
2239.00,0.0379
2238.00,0.0379
2237.00,0.0379
2236.00,0.0379
2235.00,0.0379
2234.00,0.0379
2233.00,0.0379
2232.00,0.0379
2231.00,0.0379
2230.00,0.0379
2229.00,0.0378
2228.00,0.0378
2227.00,0.0377
2226.00,0.0376
2225.00,0.0375
2224.00,0.0374
2223.00,0.0374
2222.00,0.0374
2221.00,0.0375
2220.00,0.0376
2219.00,0.0375
2218.00,0.0374
2217.00,0.0373
2216.00,0.0372
2215.00,0.0373
2214.00,0.0373
2213.00,0.0374
2212.00,0.0374
2211.00,0.0374
2210.00,0.0373
2209.00,0.0373
2208.00,0.0372
2207.00,0.0371
2206.00,0.0370
2205.00,0.0370
2204.00,0.0370
2203.00,0.0371
2202.00,0.0373
2201.00,0.0375
2200.00,0.0377
2199.00,0.0378
2198.00,0.0378
2197.00,0.0377
2196.00,0.0376
2195.00,0.0375
2194.00,0.0374
2193.00,0.0373
2192.00,0.0372
2191.00,0.0371
2190.00,0.0372
2189.00,0.0373
2188.00,0.0374
2187.00,0.0374
2186.00,0.0374
2185.00,0.0373
2184.00,0.0372
2183.00,0.0371
2182.00,0.0369
2181.00,0.0369
2180.00,0.0370
2179.00,0.0371
2178.00,0.0371
2177.00,0.0370
2176.00,0.0370
2175.00,0.0370
2174.00,0.0370
2173.00,0.0371
2172.00,0.0372
2171.00,0.0373
2170.00,0.0375
2169.00,0.0376
2168.00,0.0377
2167.00,0.0376
2166.00,0.0375
2165.00,0.0374
2164.00,0.0374
2163.00,0.0374
2162.00,0.0373
2161.00,0.0370
2160.00,0.0366
2159.00,0.0361
2158.00,0.0358
2157.00,0.0357
2156.00,0.0357
2155.00,0.0356
2154.00,0.0355
2153.00,0.0355
2152.00,0.0354
2151.00,0.0353
2150.00,0.0352
2149.00,0.0352
2148.00,0.0353
2147.00,0.0354
2146.00,0.0354
2145.00,0.0354
2144.00,0.0354
2143.00,0.0354
2142.00,0.0353
2141.00,0.0353
2140.00,0.0352
2139.00,0.0350
2138.00,0.0348
2137.00,0.0346
2136.00,0.0344
2135.00,0.0342
2134.00,0.0341
2133.00,0.0341
2132.00,0.0341
2131.00,0.0341
2130.00,0.0341
2129.00,0.0341
2128.00,0.0341
2127.00,0.0341
2126.00,0.0342
2125.00,0.0342
2124.00,0.0342
2123.00,0.0341
2122.00,0.0341
2121.00,0.0342
2120.00,0.0343
2119.00,0.0344
2118.00,0.0344
2117.00,0.0345
2116.00,0.0344
2115.00,0.0344
2114.00,0.0343
2113.00,0.0343
2112.00,0.0344
2111.00,0.0344
2110.00,0.0344
2109.00,0.0343
2108.00,0.0342
2107.00,0.0341
2106.00,0.0340
2105.00,0.0339
2104.00,0.0339
2103.00,0.0338
2102.00,0.0339
2101.00,0.0340
2100.00,0.0340
2099.00,0.0340
2098.00,0.0338
2097.00,0.0337
2096.00,0.0336
2095.00,0.0335
2094.00,0.0335
2093.00,0.0335
2092.00,0.0336
2091.00,0.0335
2090.00,0.0335
2089.00,0.0334
2088.00,0.0334
2087.00,0.0334
2086.00,0.0334
2085.00,0.0335
2084.00,0.0334
2083.00,0.0334
2082.00,0.0333
2081.00,0.0332
2080.00,0.0332
2079.00,0.0333
2078.00,0.0334
2077.00,0.0335
2076.00,0.0336
2075.00,0.0335
2074.00,0.0335
2073.00,0.0334
2072.00,0.0333
2071.00,0.0332
2070.00,0.0330
2069.00,0.0330
2068.00,0.0329
2067.00,0.0328
2066.00,0.0328
2065.00,0.0328
2064.00,0.0328
2063.00,0.0328
2062.00,0.0328
2061.00,0.0327
2060.00,0.0327
2059.00,0.0326
2058.00,0.0327
2057.00,0.0328
2056.00,0.0329
2055.00,0.0329
2054.00,0.0330
2053.00,0.0331
2052.00,0.0332
2051.00,0.0332
2050.00,0.0331
2049.00,0.0329
2048.00,0.0327
2047.00,0.0325
2046.00,0.0325
2045.00,0.0327
2044.00,0.0329
2043.00,0.0330
2042.00,0.0329
2041.00,0.0329
2040.00,0.0328
2039.00,0.0329
2038.00,0.0331
2037.00,0.0333
2036.00,0.0334
2035.00,0.0332
2034.00,0.0329
2033.00,0.0327
2032.00,0.0325
2031.00,0.0325
2030.00,0.0325
2029.00,0.0326
2028.00,0.0326
2027.00,0.0325
2026.00,0.0324
2025.00,0.0323
2024.00,0.0324
2023.00,0.0323
2022.00,0.0323
2021.00,0.0323
2020.00,0.0323
2019.00,0.0322
2018.00,0.0321
2017.00,0.0319
2016.00,0.0318
2015.00,0.0316
2014.00,0.0316
2013.00,0.0317
2012.00,0.0318
2011.00,0.0318
2010.00,0.0317
2009.00,0.0315
2008.00,0.0314
2007.00,0.0313
2006.00,0.0312
2005.00,0.0311
2004.00,0.0310
2003.00,0.0309
2002.00,0.0309
2001.00,0.0309
2000.00,0.0310
1999.00,0.0310
1998.00,0.0311
1997.00,0.0312
1996.00,0.0314
1995.00,0.0314
1994.00,0.0314
1993.00,0.0313
1992.00,0.0312
1991.00,0.0312
1990.00,0.0311
1989.00,0.0311
1988.00,0.0310
1987.00,0.0308
1986.00,0.0308
1985.00,0.0308
1984.00,0.0309
1983.00,0.0310
1982.00,0.0311
1981.00,0.0314
1980.00,0.0315
1979.00,0.0313
1978.00,0.0309
1977.00,0.0305
1976.00,0.0302
1975.00,0.0301
1974.00,0.0301
1973.00,0.0302
1972.00,0.0303
1971.00,0.0303
1970.00,0.0302
1969.00,0.0301
1968.00,0.0298
1967.00,0.0295
1966.00,0.0294
1965.00,0.0294
1964.00,0.0296
1963.00,0.0297
1962.00,0.0296
1961.00,0.0295
1960.00,0.0294
1959.00,0.0292
1958.00,0.0290
1957.00,0.0289
1956.00,0.0289
1955.00,0.0289
1954.00,0.0289
1953.00,0.0289
1952.00,0.0288
1951.00,0.0286
1950.00,0.0285
1949.00,0.0284
1948.00,0.0284
1947.00,0.0285
1946.00,0.0285
1945.00,0.0286
1944.00,0.0285
1943.00,0.0282
1942.00,0.0280
1941.00,0.0280
1940.00,0.0280
1939.00,0.0280
1938.00,0.0279
1937.00,0.0279
1936.00,0.0279
1935.00,0.0279
1934.00,0.0278
1933.00,0.0278
1932.00,0.0277
1931.00,0.0276
1930.00,0.0275
1929.00,0.0273
1928.00,0.0272
1927.00,0.0271
1926.00,0.0271
1925.00,0.0272
1924.00,0.0271
1923.00,0.0269
1922.00,0.0268
1921.00,0.0268
1920.00,0.0269
1919.00,0.0268
1918.00,0.0266
1917.00,0.0265
1916.00,0.0265
1915.00,0.0267
1914.00,0.0267
1913.00,0.0267
1912.00,0.0266
1911.00,0.0265
1910.00,0.0263
1909.00,0.0262
1908.00,0.0261
1907.00,0.0260
1906.00,0.0260
1905.00,0.0259
1904.00,0.0259
1903.00,0.0259
1902.00,0.0259
1901.00,0.0258
1900.00,0.0258
1899.00,0.0258
1898.00,0.0257
1897.00,0.0257
1896.00,0.0255
1895.00,0.0253
1894.00,0.0253
1893.00,0.0253
1892.00,0.0255
1891.00,0.0254
1890.00,0.0251
1889.00,0.0249
1888.00,0.0247
1887.00,0.0247
1886.00,0.0247
1885.00,0.0246
1884.00,0.0246
1883.00,0.0245
1882.00,0.0245
1881.00,0.0245
1880.00,0.0245
1879.00,0.0244
1878.00,0.0243
1877.00,0.0243
1876.00,0.0243
1875.00,0.0242
1874.00,0.0241
1873.00,0.0241
1872.00,0.0242
1871.00,0.0241
1870.00,0.0239
1869.00,0.0234
1868.00,0.0231
1867.00,0.0230
1866.00,0.0231
1865.00,0.0233
1864.00,0.0235
1863.00,0.0235
1862.00,0.0234
1861.00,0.0233
1860.00,0.0232
1859.00,0.0231
1858.00,0.0230
1857.00,0.0230
1856.00,0.0229
1855.00,0.0229
1854.00,0.0229
1853.00,0.0229
1852.00,0.0229
1851.00,0.0229
1850.00,0.0228
1849.00,0.0227
1848.00,0.0228
1847.00,0.0229
1846.00,0.0229
1845.00,0.0225
1844.00,0.0220
1843.00,0.0217
1842.00,0.0217
1841.00,0.0220
1840.00,0.0222
1839.00,0.0222
1838.00,0.0220
1837.00,0.0219
1836.00,0.0218
1835.00,0.0218
1834.00,0.0219
1833.00,0.0221
1832.00,0.0221
1831.00,0.0219
1830.00,0.0214
1829.00,0.0211
1828.00,0.0211
1827.00,0.0213
1826.00,0.0213
1825.00,0.0211
1824.00,0.0210
1823.00,0.0210
1822.00,0.0212
1821.00,0.0213
1820.00,0.0213
1819.00,0.0213
1818.00,0.0212
1817.00,0.0211
1816.00,0.0212
1815.00,0.0212
1814.00,0.0213
1813.00,0.0213
1812.00,0.0213
1811.00,0.0211
1810.00,0.0211
1809.00,0.0211
1808.00,0.0213
1807.00,0.0214
1806.00,0.0215
1805.00,0.0217
1804.00,0.0219
1803.00,0.0220
1802.00,0.0220
1801.00,0.0220
1800.00,0.0220
1799.00,0.0221
1798.00,0.0223
1797.00,0.0226
1796.00,0.0230
1795.00,0.0233
1794.00,0.0236
1793.00,0.0237
1792.00,0.0236
1791.00,0.0236
1790.00,0.0239
1789.00,0.0244
1788.00,0.0250
1787.00,0.0254
1786.00,0.0257
1785.00,0.0260
1784.00,0.0263
1783.00,0.0266
1782.00,0.0269
1781.00,0.0272
1780.00,0.0276
1779.00,0.0280
1778.00,0.0286
1777.00,0.0292
1776.00,0.0297
1775.00,0.0303
1774.00,0.0306
1773.00,0.0308
1772.00,0.0308
1771.00,0.0312
1770.00,0.0318
1769.00,0.0325
1768.00,0.0331
1767.00,0.0335
1766.00,0.0339
1765.00,0.0344
1764.00,0.0349
1763.00,0.0351
1762.00,0.0352
1761.00,0.0354
1760.00,0.0358
1759.00,0.0364
1758.00,0.0368
1757.00,0.0372
1756.00,0.0376
1755.00,0.0381
1754.00,0.0388
1753.00,0.0394
1752.00,0.0400
1751.00,0.0405
1750.00,0.0408
1749.00,0.0412
1748.00,0.0418
1747.00,0.0424
1746.00,0.0431
1745.00,0.0439
1744.00,0.0446
1743.00,0.0453
1742.00,0.0461
1741.00,0.0469
1740.00,0.0476
1739.00,0.0483
1738.00,0.0490
1737.00,0.0499
1736.00,0.0508
1735.00,0.0517
1734.00,0.0523
1733.00,0.0529
1732.00,0.0536
1731.00,0.0544
1730.00,0.0552
1729.00,0.0561
1728.00,0.0570
1727.00,0.0579
1726.00,0.0587
1725.00,0.0595
1724.00,0.0603
1723.00,0.0608
1722.00,0.0613
1721.00,0.0618
1720.00,0.0621
1719.00,0.0624
1718.00,0.0626
1717.00,0.0630
1716.00,0.0634
1715.00,0.0639
1714.00,0.0644
1713.00,0.0650
1712.00,0.0655
1711.00,0.0660
1710.00,0.0663
1709.00,0.0667
1708.00,0.0670
1707.00,0.0672
1706.00,0.0674
1705.00,0.0676
1704.00,0.0680
1703.00,0.0685
1702.00,0.0689
1701.00,0.0694
1700.00,0.0696
1699.00,0.0697
1698.00,0.0699
1697.00,0.0702
1696.00,0.0703
1695.00,0.0703
1694.00,0.0704
1693.00,0.0707
1692.00,0.0709
1691.00,0.0710
1690.00,0.0711
1689.00,0.0713
1688.00,0.0715
1687.00,0.0717
1686.00,0.0718
1685.00,0.0720
1684.00,0.0722
1683.00,0.0725
1682.00,0.0730
1681.00,0.0735
1680.00,0.0738
1679.00,0.0742
1678.00,0.0746
1677.00,0.0751
1676.00,0.0756
1675.00,0.0760
1674.00,0.0763
1673.00,0.0765
1672.00,0.0768
1671.00,0.0772
1670.00,0.0778
1669.00,0.0783
1668.00,0.0789
1667.00,0.0794
1666.00,0.0798
1665.00,0.0802
1664.00,0.0806
1663.00,0.0811
1662.00,0.0817
1661.00,0.0823
1660.00,0.0828
1659.00,0.0832
1658.00,0.0834
1657.00,0.0836
1656.00,0.0839
1655.00,0.0842
1654.00,0.0851
1653.00,0.0861
1652.00,0.0865
1651.00,0.0869
1650.00,0.0871
1649.00,0.0872
1648.00,0.0876
1647.00,0.0884
1646.00,0.0892
1645.00,0.0899
1644.00,0.0904
1643.00,0.0909
1642.00,0.0912
1641.00,0.0915
1640.00,0.0918
1639.00,0.0921
1638.00,0.0924
1637.00,0.0930
1636.00,0.0940
1635.00,0.0950
1634.00,0.0957
1633.00,0.0963
1632.00,0.0967
1631.00,0.0970
1630.00,0.0973
1629.00,0.0978
1628.00,0.0983
1627.00,0.0988
1626.00,0.0993
1625.00,0.0998
1624.00,0.1004
1623.00,0.1010
1622.00,0.1015
1621.00,0.1017
1620.00,0.1020
1619.00,0.1022
1618.00,0.1028
1617.00,0.1036
1616.00,0.1043
1615.00,0.1047
1614.00,0.1050
1613.00,0.1052
1612.00,0.1055
1611.00,0.1060
1610.00,0.1064
1609.00,0.1069
1608.00,0.1074
1607.00,0.1079
1606.00,0.1083
1605.00,0.1086
1604.00,0.1090
1603.00,0.1095
1602.00,0.1099
1601.00,0.1103
1600.00,0.1107
1599.00,0.1111
1598.00,0.1114
1597.00,0.1117
1596.00,0.1120
1595.00,0.1124
1594.00,0.1127
1593.00,0.1130
1592.00,0.1133
1591.00,0.1136
1590.00,0.1139
1589.00,0.1141
1588.00,0.1144
1587.00,0.1146
1586.00,0.1148
1585.00,0.1149
1584.00,0.1150
1583.00,0.1152
1582.00,0.1153
1581.00,0.1152
1580.00,0.1151
1579.00,0.1149
1578.00,0.1149
1577.00,0.1152
1576.00,0.1156
1575.00,0.1157
1574.00,0.1155
1573.00,0.1151
1572.00,0.1147
1571.00,0.1146
1570.00,0.1145
1569.00,0.1144
1568.00,0.1142
1567.00,0.1140
1566.00,0.1137
1565.00,0.1133
1564.00,0.1129
1563.00,0.1124
1562.00,0.1118
1561.00,0.1108
1560.00,0.1105
1559.00,0.1110
1558.00,0.1109
1557.00,0.1105
1556.00,0.1102
1555.00,0.1097
1554.00,0.1090
1553.00,0.1084
1552.00,0.1078
1551.00,0.1071
1550.00,0.1065
1549.00,0.1059
1548.00,0.1054
1547.00,0.1048
1546.00,0.1040
1545.00,0.1032
1544.00,0.1024
1543.00,0.1017
1542.00,0.1011
1541.00,0.1006
1540.00,0.1002
1539.00,0.0995
1538.00,0.0990
1537.00,0.0985
1536.00,0.0978
1535.00,0.0970
1534.00,0.0962
1533.00,0.0954
1532.00,0.0948
1531.00,0.0943
1530.00,0.0937
1529.00,0.0931
1528.00,0.0924
1527.00,0.0918
1526.00,0.0911
1525.00,0.0905
1524.00,0.0901
1523.00,0.0895
1522.00,0.0890
1521.00,0.0884
1520.00,0.0879
1519.00,0.0875
1518.00,0.0869
1517.00,0.0863
1516.00,0.0859
1515.00,0.0857
1514.00,0.0855
1513.00,0.0851
1512.00,0.0847
1511.00,0.0841
1510.00,0.0835
1509.00,0.0828
1508.00,0.0825
1507.00,0.0821
1506.00,0.0817
1505.00,0.0816
1504.00,0.0816
1503.00,0.0813
1502.00,0.0809
1501.00,0.0805
1500.00,0.0802
1499.00,0.0800
1498.00,0.0797
1497.00,0.0796
1496.00,0.0795
1495.00,0.0795
1494.00,0.0794
1493.00,0.0793
1492.00,0.0792
1491.00,0.0790
1490.00,0.0788
1489.00,0.0787
1488.00,0.0787
1487.00,0.0788
1486.00,0.0789
1485.00,0.0790
1484.00,0.0791
1483.00,0.0792
1482.00,0.0793
1481.00,0.0795
1480.00,0.0796
1479.00,0.0798
1478.00,0.0799
1477.00,0.0800
1476.00,0.0803
1475.00,0.0807
1474.00,0.0811
1473.00,0.0817
1472.00,0.0824
1471.00,0.0829
1470.00,0.0832
1469.00,0.0836
1468.00,0.0839
1467.00,0.0843
1466.00,0.0847
1465.00,0.0853
1464.00,0.0857
1463.00,0.0861
1462.00,0.0862
1461.00,0.0863
1460.00,0.0865
1459.00,0.0867
1458.00,0.0873
1457.00,0.0880
1456.00,0.0886
1455.00,0.0889
1454.00,0.0891
1453.00,0.0893
1452.00,0.0896
1451.00,0.0900
1450.00,0.0902
1449.00,0.0905
1448.00,0.0908
1447.00,0.0912
1446.00,0.0914
1445.00,0.0917
1444.00,0.0919
1443.00,0.0922
1442.00,0.0925
1441.00,0.0927
1440.00,0.0930
1439.00,0.0933
1438.00,0.0937
1437.00,0.0943
1436.00,0.0949
1435.00,0.0951
1434.00,0.0952
1433.00,0.0954
1432.00,0.0956
1431.00,0.0960
1430.00,0.0963
1429.00,0.0966
1428.00,0.0969
1427.00,0.0973
1426.00,0.0975
1425.00,0.0977
1424.00,0.0980
1423.00,0.0982
1422.00,0.0984
1421.00,0.0985
1420.00,0.0989
1419.00,0.0993
1418.00,0.0996
1417.00,0.0999
1416.00,0.1002
1415.00,0.1004
1414.00,0.1005
1413.00,0.1007
1412.00,0.1009
1411.00,0.1011
1410.00,0.1013
1409.00,0.1015
1408.00,0.1017
1407.00,0.1019
1406.00,0.1021
1405.00,0.1025
1404.00,0.1028
1403.00,0.1031
1402.00,0.1033
1401.00,0.1035
1400.00,0.1038
1399.00,0.1042
1398.00,0.1044
1397.00,0.1047
1396.00,0.1050
1395.00,0.1055
1394.00,0.1059
1393.00,0.1062
1392.00,0.1065
1391.00,0.1068
1390.00,0.1070
1389.00,0.1073
1388.00,0.1079
1387.00,0.1085
1386.00,0.1090
1385.00,0.1095
1384.00,0.1099
1383.00,0.1103
1382.00,0.1108
1381.00,0.1112
1380.00,0.1116
1379.00,0.1119
1378.00,0.1122
1377.00,0.1123
1376.00,0.1125
1375.00,0.1127
1374.00,0.1129
1373.00,0.1131
1372.00,0.1132
1371.00,0.1132
1370.00,0.1132
1369.00,0.1131
1368.00,0.1131
1367.00,0.1130
1366.00,0.1129
1365.00,0.1127
1364.00,0.1126
1363.00,0.1126
1362.00,0.1127
1361.00,0.1127
1360.00,0.1126
1359.00,0.1125
1358.00,0.1123
1357.00,0.1121
1356.00,0.1119
1355.00,0.1117
1354.00,0.1114
1353.00,0.1113
1352.00,0.1111
1351.00,0.1109
1350.00,0.1107
1349.00,0.1105
1348.00,0.1104
1347.00,0.1102
1346.00,0.1099
1345.00,0.1097
1344.00,0.1095
1343.00,0.1092
1342.00,0.1089
1341.00,0.1087
1340.00,0.1085
1339.00,0.1085
1338.00,0.1084
1337.00,0.1084
1336.00,0.1084
1335.00,0.1082
1334.00,0.1080
1333.00,0.1079
1332.00,0.1077
1331.00,0.1076
1330.00,0.1074
1329.00,0.1073
1328.00,0.1072
1327.00,0.1070
1326.00,0.1069
1325.00,0.1069
1324.00,0.1069
1323.00,0.1070
1322.00,0.1070
1321.00,0.1070
1320.00,0.1071
1319.00,0.1072
1318.00,0.1072
1317.00,0.1073
1316.00,0.1073
1315.00,0.1073
1314.00,0.1073
1313.00,0.1073
1312.00,0.1073
1311.00,0.1073
1310.00,0.1072
1309.00,0.1072
1308.00,0.1072
1307.00,0.1072
1306.00,0.1072
1305.00,0.1072
1304.00,0.1073
1303.00,0.1073
1302.00,0.1073
1301.00,0.1073
1300.00,0.1074
1299.00,0.1074
1298.00,0.1076
1297.00,0.1077
1296.00,0.1079
1295.00,0.1080
1294.00,0.1082
1293.00,0.1083
1292.00,0.1085
1291.00,0.1086
1290.00,0.1087
1289.00,0.1088
1288.00,0.1090
1287.00,0.1092
1286.00,0.1093
1285.00,0.1095
1284.00,0.1097
1283.00,0.1099
1282.00,0.1101
1281.00,0.1103
1280.00,0.1105
1279.00,0.1107
1278.00,0.1108
1277.00,0.1109
1276.00,0.1111
1275.00,0.1112
1274.00,0.1114
1273.00,0.1115
1272.00,0.1118
1271.00,0.1120
1270.00,0.1121
1269.00,0.1123
1268.00,0.1125
1267.00,0.1127
1266.00,0.1129
1265.00,0.1132
1264.00,0.1136
1263.00,0.1138
1262.00,0.1140
1261.00,0.1142
1260.00,0.1144
1259.00,0.1146
1258.00,0.1148
1257.00,0.1150
1256.00,0.1153
1255.00,0.1155
1254.00,0.1157
1253.00,0.1159
1252.00,0.1161
1251.00,0.1162
1250.00,0.1163
1249.00,0.1164
1248.00,0.1166
1247.00,0.1168
1246.00,0.1169
1245.00,0.1169
1244.00,0.1170
1243.00,0.1170
1242.00,0.1171
1241.00,0.1172
1240.00,0.1173
1239.00,0.1174
1238.00,0.1174
1237.00,0.1174
1236.00,0.1175
1235.00,0.1176
1234.00,0.1176
1233.00,0.1176
1232.00,0.1177
1231.00,0.1176
1230.00,0.1176
1229.00,0.1175
1228.00,0.1174
1227.00,0.1174
1226.00,0.1173
1225.00,0.1172
1224.00,0.1171
1223.00,0.1170
1222.00,0.1169
1221.00,0.1168
1220.00,0.1167
1219.00,0.1167
1218.00,0.1165
1217.00,0.1164
1216.00,0.1163
1215.00,0.1163
1214.00,0.1162
1213.00,0.1163
1212.00,0.1163
1211.00,0.1163
1210.00,0.1162
1209.00,0.1161
1208.00,0.1161
1207.00,0.1161
1206.00,0.1161
1205.00,0.1161
1204.00,0.1161
1203.00,0.1161
1202.00,0.1159
1201.00,0.1157
1200.00,0.1155
1199.00,0.1153
1198.00,0.1152
1197.00,0.1151
1196.00,0.1150
1195.00,0.1149
1194.00,0.1147
1193.00,0.1146
1192.00,0.1145
1191.00,0.1145
1190.00,0.1145
1189.00,0.1144
1188.00,0.1144
1187.00,0.1144
1186.00,0.1145
1185.00,0.1146
1184.00,0.1147
1183.00,0.1148
1182.00,0.1150
1181.00,0.1153
1180.00,0.1157
1179.00,0.1160
1178.00,0.1163
1177.00,0.1166
1176.00,0.1169
1175.00,0.1173
1174.00,0.1176
1173.00,0.1179
1172.00,0.1183
1171.00,0.1187
1170.00,0.1191
1169.00,0.1195
1168.00,0.1199
1167.00,0.1203
1166.00,0.1207
1165.00,0.1211
1164.00,0.1215
1163.00,0.1217
1162.00,0.1219
1161.00,0.1221
1160.00,0.1222
1159.00,0.1223
1158.00,0.1224
1157.00,0.1226
1156.00,0.1228
1155.00,0.1229
1154.00,0.1230
1153.00,0.1230
1152.00,0.1231
1151.00,0.1232
1150.00,0.1232
1149.00,0.1233
1148.00,0.1234
1147.00,0.1234
1146.00,0.1235
1145.00,0.1235
1144.00,0.1235
1143.00,0.1235
1142.00,0.1235
1141.00,0.1234
1140.00,0.1233
1139.00,0.1232
1138.00,0.1232
1137.00,0.1232
1136.00,0.1234
1135.00,0.1236
1134.00,0.1238
1133.00,0.1241
1132.00,0.1244
1131.00,0.1247
1130.00,0.1249
1129.00,0.1253
1128.00,0.1257
1127.00,0.1261
1126.00,0.1266
1125.00,0.1271
1124.00,0.1277
1123.00,0.1284
1122.00,0.1290
1121.00,0.1297
1120.00,0.1303
1119.00,0.1310
1118.00,0.1318
1117.00,0.1326
1116.00,0.1334
1115.00,0.1340
1114.00,0.1345
1113.00,0.1350
1112.00,0.1355
1111.00,0.1360
1110.00,0.1365
1109.00,0.1370
1108.00,0.1375
1107.00,0.1382
1106.00,0.1388
1105.00,0.1395
1104.00,0.1401
1103.00,0.1406
1102.00,0.1410
1101.00,0.1414
1100.00,0.1418
1099.00,0.1422
1098.00,0.1426
1097.00,0.1430
1096.00,0.1436
1095.00,0.1441
1094.00,0.1446
1093.00,0.1452
1092.00,0.1459
1091.00,0.1466
1090.00,0.1473
1089.00,0.1479
1088.00,0.1486
1087.00,0.1491
1086.00,0.1496
1085.00,0.1502
1084.00,0.1509
1083.00,0.1516
1082.00,0.1522
1081.00,0.1528
1080.00,0.1534
1079.00,0.1540
1078.00,0.1544
1077.00,0.1548
1076.00,0.1553
1075.00,0.1557
1074.00,0.1560
1073.00,0.1563
1072.00,0.1566
1071.00,0.1567
1070.00,0.1569
1069.00,0.1572
1068.00,0.1575
1067.00,0.1578
1066.00,0.1581
1065.00,0.1585
1064.00,0.1589
1063.00,0.1594
1062.00,0.1600
1061.00,0.1605
1060.00,0.1612
1059.00,0.1617
1058.00,0.1620
1057.00,0.1624
1056.00,0.1627
1055.00,0.1631
1054.00,0.1634
1053.00,0.1638
1052.00,0.1644
1051.00,0.1650
1050.00,0.1655
1049.00,0.1660
1048.00,0.1663
1047.00,0.1666
1046.00,0.1667
1045.00,0.1670
1044.00,0.1674
1043.00,0.1678
1042.00,0.1683
1041.00,0.1687
1040.00,0.1691
1039.00,0.1695
1038.00,0.1700
1037.00,0.1704
1036.00,0.1709
1035.00,0.1713
1034.00,0.1715
1033.00,0.1717
1032.00,0.1716
1031.00,0.1713
1030.00,0.1708
1029.00,0.1702
1028.00,0.1695
1027.00,0.1687
1026.00,0.1679
1025.00,0.1670
1024.00,0.1662
1023.00,0.1654
1022.00,0.1647
1021.00,0.1640
1020.00,0.1633
1019.00,0.1625
1018.00,0.1617
1017.00,0.1611
1016.00,0.1605
1015.00,0.1600
1014.00,0.1595
1013.00,0.1589
1012.00,0.1584
1011.00,0.1579
1010.00,0.1574
1009.00,0.1569
1008.00,0.1563
1007.00,0.1555
1006.00,0.1546
1005.00,0.1538
1004.00,0.1530
1003.00,0.1522
1002.00,0.1513
1001.00,0.1504
1000.00,0.1494
999.00,0.1483
998.00,0.1471
997.00,0.1459
996.00,0.1447
995.00,0.1436
994.00,0.1424
993.00,0.1413
992.00,0.1402
991.00,0.1392
990.00,0.1382
989.00,0.1372
988.00,0.1363
987.00,0.1355
986.00,0.1347
985.00,0.1339
984.00,0.1331
983.00,0.1323
982.00,0.1316
981.00,0.1309
980.00,0.1302
979.00,0.1295
978.00,0.1288
977.00,0.1280
976.00,0.1273
975.00,0.1266
974.00,0.1257
973.00,0.1249
972.00,0.1240
971.00,0.1232
970.00,0.1225
969.00,0.1219
968.00,0.1212
967.00,0.1206
966.00,0.1199
965.00,0.1192
964.00,0.1184
963.00,0.1177
962.00,0.1169
961.00,0.1163
960.00,0.1157
959.00,0.1152
958.00,0.1146
957.00,0.1141
956.00,0.1135
955.00,0.1130
954.00,0.1126
953.00,0.1122
952.00,0.1119
951.00,0.1116
950.00,0.1113
949.00,0.1110
948.00,0.1108
947.00,0.1106
946.00,0.1102
945.00,0.1099
944.00,0.1096
943.00,0.1093
942.00,0.1090
941.00,0.1087
940.00,0.1084
939.00,0.1081
938.00,0.1079
937.00,0.1077
936.00,0.1074
935.00,0.1072
934.00,0.1070
933.00,0.1068
932.00,0.1066
931.00,0.1062
930.00,0.1059
929.00,0.1056
928.00,0.1056
927.00,0.1057
926.00,0.1058
925.00,0.1059
924.00,0.1060
923.00,0.1061
922.00,0.1063
921.00,0.1065
920.00,0.1066
919.00,0.1069
918.00,0.1072
917.00,0.1076
916.00,0.1080
915.00,0.1081
914.00,0.1082
913.00,0.1081
912.00,0.1081
911.00,0.1080
910.00,0.1079
909.00,0.1077
908.00,0.1075
907.00,0.1073
906.00,0.1072
905.00,0.1071
904.00,0.1070
903.00,0.1069
902.00,0.1069
901.00,0.1069
900.00,0.1070
899.00,0.1071
898.00,0.1071
897.00,0.1071
896.00,0.1070
895.00,0.1069
894.00,0.1067
893.00,0.1064
892.00,0.1062
891.00,0.1060
890.00,0.1059
889.00,0.1058
888.00,0.1057
887.00,0.1055
886.00,0.1054
885.00,0.1051
884.00,0.1048
883.00,0.1043
882.00,0.1039
881.00,0.1038
880.00,0.1038
879.00,0.1038
878.00,0.1037
877.00,0.1037
876.00,0.1038
875.00,0.1037
874.00,0.1035
873.00,0.1034
872.00,0.1034
871.00,0.1035
870.00,0.1036
869.00,0.1035
868.00,0.1033
867.00,0.1031
866.00,0.1028
865.00,0.1026
864.00,0.1026
863.00,0.1026
862.00,0.1027
861.00,0.1027
860.00,0.1028
859.00,0.1028
858.00,0.1027
857.00,0.1026
856.00,0.1025
855.00,0.1024
854.00,0.1025
853.00,0.1026
852.00,0.1027
851.00,0.1029
850.00,0.1032
849.00,0.1037
848.00,0.1041
847.00,0.1043
846.00,0.1043
845.00,0.1044
844.00,0.1047
843.00,0.1052
842.00,0.1055
841.00,0.1059
840.00,0.1063
839.00,0.1068
838.00,0.1074
837.00,0.1078
836.00,0.1080
835.00,0.1081
834.00,0.1082
833.00,0.1084
832.00,0.1088
831.00,0.1093
830.00,0.1096
829.00,0.1099
828.00,0.1103
827.00,0.1105
826.00,0.1107
825.00,0.1110
824.00,0.1115
823.00,0.1122
822.00,0.1129
821.00,0.1133
820.00,0.1137
819.00,0.1139
818.00,0.1142
817.00,0.1145
816.00,0.1149
815.00,0.1153
814.00,0.1158
813.00,0.1163
812.00,0.1166
811.00,0.1166
810.00,0.1166
809.00,0.1167
808.00,0.1169
807.00,0.1174
806.00,0.1180
805.00,0.1187
804.00,0.1195
803.00,0.1201
802.00,0.1205
801.00,0.1207
800.00,0.1209
799.00,0.1211
798.00,0.1212
797.00,0.1214
796.00,0.1217
795.00,0.1218
794.00,0.1219
793.00,0.1219
792.00,0.1220
791.00,0.1222
790.00,0.1225
789.00,0.1227
788.00,0.1229
787.00,0.1231
786.00,0.1234
785.00,0.1236
784.00,0.1238
783.00,0.1240
782.00,0.1244
781.00,0.1250
780.00,0.1257
779.00,0.1261
778.00,0.1262
777.00,0.1261
776.00,0.1262
775.00,0.1263
774.00,0.1264
773.00,0.1265
772.00,0.1267
771.00,0.1268
770.00,0.1269
769.00,0.1270
768.00,0.1271
767.00,0.1273
766.00,0.1276
765.00,0.1278
764.00,0.1279
763.00,0.1279
762.00,0.1280
761.00,0.1283
760.00,0.1287
759.00,0.1291
758.00,0.1296
757.00,0.1300
756.00,0.1305
755.00,0.1307
754.00,0.1307
753.00,0.1306
752.00,0.1305
751.00,0.1304
750.00,0.1304
749.00,0.1307
748.00,0.1313
747.00,0.1316
746.00,0.1316
745.00,0.1315
744.00,0.1315
743.00,0.1316
742.00,0.1317
741.00,0.1320
740.00,0.1323
739.00,0.1325
738.00,0.1327
737.00,0.1329
736.00,0.1330
735.00,0.1330
734.00,0.1332
733.00,0.1336
732.00,0.1342
731.00,0.1345
730.00,0.1346
729.00,0.1349
728.00,0.1354
727.00,0.1358
726.00,0.1360
725.00,0.1362
724.00,0.1365
723.00,0.1369
722.00,0.1372
721.00,0.1373
720.00,0.1374
719.00,0.1375
718.00,0.1377
717.00,0.1380
716.00,0.1385
715.00,0.1391
714.00,0.1397
713.00,0.1402
712.00,0.1407
711.00,0.1410
710.00,0.1413
709.00,0.1417
708.00,0.1424
707.00,0.1432
706.00,0.1437
705.00,0.1442
704.00,0.1448
703.00,0.1453
702.00,0.1458
701.00,0.1462
700.00,0.1468
699.00,0.1475
698.00,0.1480
697.00,0.1484
696.00,0.1489
695.00,0.1493
694.00,0.1496
693.00,0.1497
692.00,0.1499
691.00,0.1501
690.00,0.1503
689.00,0.1504
688.00,0.1505
687.00,0.1507
686.00,0.1511
685.00,0.1516
684.00,0.1521
683.00,0.1525
682.00,0.1527
681.00,0.1532
680.00,0.1537
679.00,0.1540
678.00,0.1541
677.00,0.1543
676.00,0.1547
675.00,0.1552
674.00,0.1555
673.00,0.1556
672.00,0.1556
671.00,0.1554
670.00,0.1549
669.00,0.1546
668.00,0.1553
667.00,0.1565
666.00,0.1574
665.00,0.1577
664.00,0.1578
663.00,0.1577
662.00,0.1576
661.00,0.1579
660.00,0.1585
659.00,0.1593
658.00,0.1600
657.00,0.1604
656.00,0.1604
655.00,0.1603
654.00,0.1605
653.00,0.1615
652.00,0.1630
651.00,0.1641
650.00,0.1645
