Created as New Dataset,Sample 002 By Administrator Date Monday, March 20 2023
cm-1,A
4000.00,0.0337
3999.00,0.0337
3998.00,0.0337
3997.00,0.0337
3996.00,0.0337
3995.00,0.0337
3994.00,0.0337
3993.00,0.0337
3992.00,0.0338
3991.00,0.0338
3990.00,0.0338
3989.00,0.0338
3988.00,0.0337
3987.00,0.0337
3986.00,0.0337
3985.00,0.0337
3984.00,0.0337
3983.00,0.0337
3982.00,0.0337
3981.00,0.0337
3980.00,0.0337
3979.00,0.0337
3978.00,0.0337
3977.00,0.0337
3976.00,0.0337
3975.00,0.0337
3974.00,0.0337
3973.00,0.0337
3972.00,0.0337
3971.00,0.0337
3970.00,0.0337
3969.00,0.0337
3968.00,0.0337
3967.00,0.0337
3966.00,0.0337
3965.00,0.0337
3964.00,0.0337
3963.00,0.0337
3962.00,0.0337
3961.00,0.0337
3960.00,0.0337
3959.00,0.0337
3958.00,0.0337
3957.00,0.0337
3956.00,0.0337
3955.00,0.0337
3954.00,0.0337
3953.00,0.0337
3952.00,0.0336
3951.00,0.0336
3950.00,0.0336
3949.00,0.0336
3948.00,0.0336
3947.00,0.0336
3946.00,0.0336
3945.00,0.0336
3944.00,0.0336
3943.00,0.0336
3942.00,0.0336
3941.00,0.0336
3940.00,0.0336
3939.00,0.0336
3938.00,0.0336
3937.00,0.0336
3936.00,0.0336
3935.00,0.0336
3934.00,0.0336
3933.00,0.0337
3932.00,0.0336
3931.00,0.0336
3930.00,0.0336
3929.00,0.0336
3928.00,0.0336
3927.00,0.0336
3926.00,0.0336
3925.00,0.0336
3924.00,0.0336
3923.00,0.0336
3922.00,0.0336
3921.00,0.0336
3920.00,0.0336
3919.00,0.0336
3918.00,0.0336
3917.00,0.0336
3916.00,0.0335
3915.00,0.0335
3914.00,0.0335
3913.00,0.0335
3912.00,0.0335
3911.00,0.0335
3910.00,0.0335
3909.00,0.0335
3908.00,0.0335
3907.00,0.0335
3906.00,0.0335
3905.00,0.0335
3904.00,0.0335
3903.00,0.0335
3902.00,0.0335
3901.00,0.0336
3900.00,0.0336
3899.00,0.0336
3898.00,0.0336
3897.00,0.0335
3896.00,0.0335
3895.00,0.0335
3894.00,0.0335
3893.00,0.0335
3892.00,0.0335
3891.00,0.0334
3890.00,0.0334
3889.00,0.0334
3888.00,0.0334
3887.00,0.0335
3886.00,0.0335
3885.00,0.0335
3884.00,0.0335
3883.00,0.0335
3882.00,0.0335
3881.00,0.0335
3880.00,0.0334
3879.00,0.0334
3878.00,0.0334
3877.00,0.0334
3876.00,0.0334
3875.00,0.0334
3874.00,0.0334
3873.00,0.0334
3872.00,0.0334
3871.00,0.0334
3870.00,0.0334
3869.00,0.0334
3868.00,0.0334
3867.00,0.0335
3866.00,0.0335
3865.00,0.0335
3864.00,0.0335
3863.00,0.0335
3862.00,0.0334
3861.00,0.0334
3860.00,0.0334
3859.00,0.0334
3858.00,0.0333
3857.00,0.0333
3856.00,0.0332
3855.00,0.0333
3854.00,0.0333
3853.00,0.0333
3852.00,0.0333
3851.00,0.0334
3850.00,0.0334
3849.00,0.0334
3848.00,0.0334
3847.00,0.0333
3846.00,0.0333
3845.00,0.0333
3844.00,0.0333
3843.00,0.0332
3842.00,0.0333
3841.00,0.0333
3840.00,0.0333
3839.00,0.0333
3838.00,0.0333
3837.00,0.0333
3836.00,0.0333
3835.00,0.0333
3834.00,0.0333
3833.00,0.0333
3832.00,0.0333
3831.00,0.0333
3830.00,0.0333
3829.00,0.0333
3828.00,0.0333
3827.00,0.0332
3826.00,0.0332
3825.00,0.0331
3824.00,0.0331
3823.00,0.0332
3822.00,0.0332
3821.00,0.0332
3820.00,0.0332
3819.00,0.0332
3818.00,0.0332
3817.00,0.0332
3816.00,0.0332
3815.00,0.0332
3814.00,0.0332
3813.00,0.0332
3812.00,0.0331
3811.00,0.0331
3810.00,0.0331
3809.00,0.0331
3808.00,0.0331
3807.00,0.0331
3806.00,0.0330
3805.00,0.0330
3804.00,0.0330
3803.00,0.0331
3802.00,0.0331
3801.00,0.0330
3800.00,0.0331
3799.00,0.0331
3798.00,0.0331
3797.00,0.0331
3796.00,0.0331
3795.00,0.0330
3794.00,0.0330
3793.00,0.0330
3792.00,0.0330
3791.00,0.0330
3790.00,0.0330
3789.00,0.0329
3788.00,0.0329
3787.00,0.0329
3786.00,0.0329
3785.00,0.0329
3784.00,0.0329
3783.00,0.0329
3782.00,0.0329
3781.00,0.0329
3780.00,0.0329
3779.00,0.0329
3778.00,0.0329
3777.00,0.0329
3776.00,0.0329
3775.00,0.0329
3774.00,0.0329
3773.00,0.0328
3772.00,0.0328
3771.00,0.0328
3770.00,0.0328
3769.00,0.0328
3768.00,0.0328
3767.00,0.0328
3766.00,0.0328
3765.00,0.0328
3764.00,0.0328
3763.00,0.0327
3762.00,0.0327
3761.00,0.0327
3760.00,0.0327
3759.00,0.0327
3758.00,0.0327
3757.00,0.0327
3756.00,0.0327
3755.00,0.0327
3754.00,0.0327
3753.00,0.0327
3752.00,0.0327
3751.00,0.0328
3750.00,0.0327
3749.00,0.0327
3748.00,0.0327
3747.00,0.0327
3746.00,0.0327
3745.00,0.0327
3744.00,0.0326
3743.00,0.0326
3742.00,0.0326
3741.00,0.0326
3740.00,0.0325
3739.00,0.0325
3738.00,0.0324
3737.00,0.0324
3736.00,0.0324
3735.00,0.0324
3734.00,0.0323
3733.00,0.0323
3732.00,0.0323
3731.00,0.0323
3730.00,0.0323
3729.00,0.0323
3728.00,0.0323
3727.00,0.0322
3726.00,0.0322
3725.00,0.0322
3724.00,0.0321
3723.00,0.0321
3722.00,0.0321
3721.00,0.0321
3720.00,0.0321
3719.00,0.0320
3718.00,0.0320
3717.00,0.0320
3716.00,0.0321
3715.00,0.0321
3714.00,0.0321
3713.00,0.0321
3712.00,0.0321
3711.00,0.0321
3710.00,0.0320
3709.00,0.0320
3708.00,0.0320
3707.00,0.0320
3706.00,0.0320
3705.00,0.0319
3704.00,0.0319
3703.00,0.0319
3702.00,0.0319
3701.00,0.0319
3700.00,0.0319
3699.00,0.0320
3698.00,0.0320
3697.00,0.0319
3696.00,0.0319
3695.00,0.0319
3694.00,0.0319
3693.00,0.0318
3692.00,0.0318
3691.00,0.0318
3690.00,0.0318
3689.00,0.0318
3688.00,0.0318
3687.00,0.0318
3686.00,0.0318
3685.00,0.0318
3684.00,0.0318
3683.00,0.0317
3682.00,0.0317
3681.00,0.0317
3680.00,0.0316
3679.00,0.0316
3678.00,0.0316
3677.00,0.0317
3676.00,0.0317
3675.00,0.0316
3674.00,0.0317
3673.00,0.0317
3672.00,0.0318
3671.00,0.0318
3670.00,0.0318
3669.00,0.0318
3668.00,0.0318
3667.00,0.0319
3666.00,0.0319
3665.00,0.0319
3664.00,0.0319
3663.00,0.0319
3662.00,0.0319
3661.00,0.0320
3660.00,0.0320
3659.00,0.0320
3658.00,0.0321
3657.00,0.0321
3656.00,0.0322
3655.00,0.0322
3654.00,0.0323
3653.00,0.0324
3652.00,0.0324
3651.00,0.0325
3650.00,0.0326
3649.00,0.0326
3648.00,0.0327
3647.00,0.0327
3646.00,0.0327
3645.00,0.0328
3644.00,0.0328
3643.00,0.0328
3642.00,0.0328
3641.00,0.0329
3640.00,0.0329
3639.00,0.0329
3638.00,0.0330
3637.00,0.0330
3636.00,0.0331
3635.00,0.0331
3634.00,0.0331
3633.00,0.0331
3632.00,0.0331
3631.00,0.0332
3630.00,0.0333
3629.00,0.0333
3628.00,0.0334
3627.00,0.0334
3626.00,0.0335
3625.00,0.0335
3624.00,0.0336
3623.00,0.0336
3622.00,0.0337
3621.00,0.0337
3620.00,0.0338
3619.00,0.0338
3618.00,0.0338
3617.00,0.0339
3616.00,0.0339
3615.00,0.0340
3614.00,0.0340
3613.00,0.0341
3612.00,0.0341
3611.00,0.0342
3610.00,0.0343
3609.00,0.0343
3608.00,0.0343
3607.00,0.0343
3606.00,0.0343
3605.00,0.0343
3604.00,0.0344
3603.00,0.0344
3602.00,0.0345
3601.00,0.0345
3600.00,0.0345
3599.00,0.0346
3598.00,0.0346
3597.00,0.0346
3596.00,0.0347
3595.00,0.0347
3594.00,0.0348
3593.00,0.0348
3592.00,0.0348
3591.00,0.0349
3590.00,0.0349
3589.00,0.0350
3588.00,0.0350
3587.00,0.0351
3586.00,0.0351
3585.00,0.0351
3584.00,0.0352
3583.00,0.0352
3582.00,0.0352
3581.00,0.0353
3580.00,0.0353
3579.00,0.0353
3578.00,0.0354
3577.00,0.0355
3576.00,0.0355
3575.00,0.0356
3574.00,0.0356
3573.00,0.0356
3572.00,0.0357
3571.00,0.0357
3570.00,0.0357
3569.00,0.0358
3568.00,0.0359
3567.00,0.0360
3566.00,0.0360
3565.00,0.0361
3564.00,0.0362
3563.00,0.0362
3562.00,0.0362
3561.00,0.0363
3560.00,0.0363
3559.00,0.0363
3558.00,0.0364
3557.00,0.0364
3556.00,0.0365
3555.00,0.0365
3554.00,0.0366
3553.00,0.0367
3552.00,0.0367
3551.00,0.0367
3550.00,0.0368
3549.00,0.0369
3548.00,0.0369
3547.00,0.0370
3546.00,0.0371
3545.00,0.0371
3544.00,0.0372
3543.00,0.0372
3542.00,0.0372
3541.00,0.0373
3540.00,0.0373
3539.00,0.0373
3538.00,0.0374
3537.00,0.0374
3536.00,0.0375
3535.00,0.0375
3534.00,0.0375
3533.00,0.0376
3532.00,0.0377
3531.00,0.0377
3530.00,0.0378
3529.00,0.0378
3528.00,0.0379
3527.00,0.0380
3526.00,0.0380
3525.00,0.0381
3524.00,0.0382
3523.00,0.0382
3522.00,0.0382
3521.00,0.0382
3520.00,0.0382
3519.00,0.0383
3518.00,0.0384
3517.00,0.0384
3516.00,0.0385
3515.00,0.0385
3514.00,0.0385
3513.00,0.0386
3512.00,0.0386
3511.00,0.0387
3510.00,0.0387
3509.00,0.0388
3508.00,0.0388
3507.00,0.0389
3506.00,0.0389
3505.00,0.0390
3504.00,0.0391
3503.00,0.0391
3502.00,0.0391
3501.00,0.0392
3500.00,0.0392
3499.00,0.0393
3498.00,0.0394
3497.00,0.0394
3496.00,0.0395
3495.00,0.0395
3494.00,0.0395
3493.00,0.0396
3492.00,0.0396
3491.00,0.0397
3490.00,0.0397
3489.00,0.0398
3488.00,0.0398
3487.00,0.0399
3486.00,0.0399
3485.00,0.0399
3484.00,0.0400
3483.00,0.0400
3482.00,0.0401
3481.00,0.0401
3480.00,0.0402
3479.00,0.0402
3478.00,0.0403
3477.00,0.0404
3476.00,0.0404
3475.00,0.0405
3474.00,0.0405
3473.00,0.0405
3472.00,0.0406
3471.00,0.0406
3470.00,0.0407
3469.00,0.0407
3468.00,0.0408
3467.00,0.0408
3466.00,0.0409
3465.00,0.0409
3464.00,0.0410
3463.00,0.0410
3462.00,0.0411
3461.00,0.0411
3460.00,0.0411
3459.00,0.0412
3458.00,0.0412
3457.00,0.0412
3456.00,0.0413
3455.00,0.0413
3454.00,0.0414
3453.00,0.0414
3452.00,0.0415
3451.00,0.0415
3450.00,0.0416
3449.00,0.0416
3448.00,0.0416
3447.00,0.0417
3446.00,0.0417
3445.00,0.0418
3444.00,0.0419
3443.00,0.0419
3442.00,0.0420
3441.00,0.0420
3440.00,0.0420
3439.00,0.0421
3438.00,0.0421
3437.00,0.0421
3436.00,0.0422
3435.00,0.0422
3434.00,0.0422
3433.00,0.0423
3432.00,0.0423
3431.00,0.0424
3430.00,0.0424
3429.00,0.0425
3428.00,0.0425
3427.00,0.0426
3426.00,0.0426
3425.00,0.0426
3424.00,0.0427
3423.00,0.0427
3422.00,0.0428
3421.00,0.0428
3420.00,0.0428
3419.00,0.0429
3418.00,0.0429
3417.00,0.0429
3416.00,0.0430
3415.00,0.0430
3414.00,0.0431
3413.00,0.0431
3412.00,0.0431
3411.00,0.0432
3410.00,0.0432
3409.00,0.0432
3408.00,0.0433
3407.00,0.0433
3406.00,0.0433
3405.00,0.0433
3404.00,0.0434
3403.00,0.0434
3402.00,0.0435
3401.00,0.0435
3400.00,0.0435
3399.00,0.0436
3398.00,0.0436
3397.00,0.0436
3396.00,0.0437
3395.00,0.0437
3394.00,0.0437
3393.00,0.0438
3392.00,0.0438
3391.00,0.0438
3390.00,0.0438
3389.00,0.0439
3388.00,0.0439
3387.00,0.0439
3386.00,0.0440
3385.00,0.0440
3384.00,0.0440
3383.00,0.0441
3382.00,0.0441
3381.00,0.0441
3380.00,0.0441
3379.00,0.0441
3378.00,0.0442
3377.00,0.0442
3376.00,0.0442
3375.00,0.0442
3374.00,0.0442
3373.00,0.0443
3372.00,0.0443
3371.00,0.0443
3370.00,0.0443
3369.00,0.0444
3368.00,0.0444
3367.00,0.0444
3366.00,0.0445
3365.00,0.0445
3364.00,0.0445
3363.00,0.0445
3362.00,0.0445
3361.00,0.0445
3360.00,0.0446
3359.00,0.0446
3358.00,0.0446
3357.00,0.0447
3356.00,0.0447
3355.00,0.0447
3354.00,0.0447
3353.00,0.0447
3352.00,0.0447
3351.00,0.0447
3350.00,0.0447
3349.00,0.0448
3348.00,0.0448
3347.00,0.0448
3346.00,0.0448
3345.00,0.0448
3344.00,0.0448
3343.00,0.0449
3342.00,0.0449
3341.00,0.0449
3340.00,0.0449
3339.00,0.0449
3338.00,0.0449
3337.00,0.0449
3336.00,0.0449
3335.00,0.0450
3334.00,0.0450
3333.00,0.0450
3332.00,0.0450
3331.00,0.0450
3330.00,0.0450
3329.00,0.0450
3328.00,0.0450
3327.00,0.0450
3326.00,0.0450
3325.00,0.0450
3324.00,0.0451
3323.00,0.0451
3322.00,0.0451
3321.00,0.0451
3320.00,0.0451
3319.00,0.0452
3318.00,0.0452
3317.00,0.0452
3316.00,0.0452
3315.00,0.0452
3314.00,0.0452
3313.00,0.0452
3312.00,0.0452
3311.00,0.0452
3310.00,0.0452
3309.00,0.0452
3308.00,0.0452
3307.00,0.0452
3306.00,0.0452
3305.00,0.0452
3304.00,0.0453
3303.00,0.0453
3302.00,0.0453
3301.00,0.0453
3300.00,0.0453
3299.00,0.0453
3298.00,0.0453
3297.00,0.0453
3296.00,0.0453
3295.00,0.0454
3294.00,0.0454
3293.00,0.0454
3292.00,0.0455
3291.00,0.0455
3290.00,0.0455
3289.00,0.0455
3288.00,0.0455
3287.00,0.0455
3286.00,0.0455
3285.00,0.0455
3284.00,0.0455
3283.00,0.0455
3282.00,0.0455
3281.00,0.0455
3280.00,0.0455
3279.00,0.0455
3278.00,0.0455
3277.00,0.0455
3276.00,0.0455
3275.00,0.0455
3274.00,0.0455
3273.00,0.0455
3272.00,0.0454
3271.00,0.0455
3270.00,0.0455
3269.00,0.0455
3268.00,0.0455
3267.00,0.0455
3266.00,0.0455
3265.00,0.0455
3264.00,0.0455
3263.00,0.0455
3262.00,0.0455
3261.00,0.0455
3260.00,0.0455
3259.00,0.0455
3258.00,0.0455
3257.00,0.0454
3256.00,0.0454
3255.00,0.0454
3254.00,0.0454
3253.00,0.0454
3252.00,0.0454
3251.00,0.0454
3250.00,0.0454
3249.00,0.0454
3248.00,0.0453
3247.00,0.0453
3246.00,0.0453
3245.00,0.0454
3244.00,0.0454
3243.00,0.0454
3242.00,0.0454
3241.00,0.0454
3240.00,0.0454
3239.00,0.0453
3238.00,0.0453
3237.00,0.0452
3236.00,0.0452
3235.00,0.0452
3234.00,0.0451
3233.00,0.0452
3232.00,0.0452
3231.00,0.0452
3230.00,0.0452
3229.00,0.0452
3228.00,0.0453
3227.00,0.0453
3226.00,0.0452
3225.00,0.0452
3224.00,0.0452
3223.00,0.0452
3222.00,0.0452
3221.00,0.0452
3220.00,0.0452
3219.00,0.0452
3218.00,0.0452
3217.00,0.0452
3216.00,0.0451
3215.00,0.0451
3214.00,0.0451
3213.00,0.0451
3212.00,0.0451
3211.00,0.0451
3210.00,0.0451
3209.00,0.0451
3208.00,0.0451
3207.00,0.0451
3206.00,0.0450
3205.00,0.0450
3204.00,0.0450
3203.00,0.0450
3202.00,0.0450
3201.00,0.0451
3200.00,0.0450
3199.00,0.0450
3198.00,0.0450
3197.00,0.0450
3196.00,0.0450
3195.00,0.0449
3194.00,0.0449
3193.00,0.0449
3192.00,0.0449
3191.00,0.0449
3190.00,0.0448
3189.00,0.0448
3188.00,0.0448
3187.00,0.0448
3186.00,0.0448
3185.00,0.0448
3184.00,0.0447
3183.00,0.0447
3182.00,0.0447
3181.00,0.0447
3180.00,0.0447
3179.00,0.0447
3178.00,0.0447
3177.00,0.0446
3176.00,0.0446
3175.00,0.0446
3174.00,0.0446
3173.00,0.0445
3172.00,0.0445
3171.00,0.0445
3170.00,0.0445
3169.00,0.0445
3168.00,0.0445
3167.00,0.0444
3166.00,0.0444
3165.00,0.0444
3164.00,0.0444
3163.00,0.0443
3162.00,0.0443
3161.00,0.0443
3160.00,0.0443
3159.00,0.0442
3158.00,0.0442
3157.00,0.0441
3156.00,0.0440
3155.00,0.0440
3154.00,0.0439
3153.00,0.0439
3152.00,0.0439
3151.00,0.0439
3150.00,0.0439
3149.00,0.0440
3148.00,0.0440
3147.00,0.0440
3146.00,0.0440
3145.00,0.0439
3144.00,0.0439
3143.00,0.0438
3142.00,0.0438
3141.00,0.0437
3140.00,0.0437
3139.00,0.0437
3138.00,0.0437
3137.00,0.0437
3136.00,0.0437
3135.00,0.0437
3134.00,0.0437
3133.00,0.0436
3132.00,0.0436
3131.00,0.0436
3130.00,0.0436
3129.00,0.0435
3128.00,0.0435
3127.00,0.0435
3126.00,0.0435
3125.00,0.0435
3124.00,0.0434
3123.00,0.0433
3122.00,0.0433
3121.00,0.0432
3120.00,0.0432
3119.00,0.0432
3118.00,0.0432
3117.00,0.0432
3116.00,0.0432
3115.00,0.0432
3114.00,0.0432
3113.00,0.0432
3112.00,0.0432
3111.00,0.0432
3110.00,0.0432
3109.00,0.0431
3108.00,0.0432
3107.00,0.0432
3106.00,0.0432
3105.00,0.0432
3104.00,0.0432
3103.00,0.0432
3102.00,0.0431
3101.00,0.0431
3100.00,0.0431
3099.00,0.0431
3098.00,0.0431
3097.00,0.0431
3096.00,0.0431
3095.00,0.0431
3094.00,0.0431
3093.00,0.0430
3092.00,0.0430
3091.00,0.0429
3090.00,0.0429
3089.00,0.0429
3088.00,0.0429
3087.00,0.0429
3086.00,0.0429
3085.00,0.0428
3084.00,0.0428
3083.00,0.0428
3082.00,0.0428
3081.00,0.0427
3080.00,0.0427
3079.00,0.0427
3078.00,0.0428
3077.00,0.0428
3076.00,0.0428
3075.00,0.0429
3074.00,0.0429
3073.00,0.0428
3072.00,0.0428
3071.00,0.0428
3070.00,0.0427
3069.00,0.0427
3068.00,0.0427
3067.00,0.0427
3066.00,0.0427
3065.00,0.0427
3064.00,0.0427
3063.00,0.0427
3062.00,0.0427
3061.00,0.0427
3060.00,0.0427
3059.00,0.0426
3058.00,0.0426
3057.00,0.0426
3056.00,0.0425
3055.00,0.0425
3054.00,0.0425
3053.00,0.0425
3052.00,0.0425
3051.00,0.0425
3050.00,0.0425
3049.00,0.0424
3048.00,0.0424
3047.00,0.0424
3046.00,0.0423
3045.00,0.0423
3044.00,0.0423
3043.00,0.0422
3042.00,0.0422
3041.00,0.0422
3040.00,0.0422
3039.00,0.0422
3038.00,0.0422
3037.00,0.0422
3036.00,0.0421
3035.00,0.0421
3034.00,0.0421
3033.00,0.0421
3032.00,0.0421
3031.00,0.0420
3030.00,0.0420
3029.00,0.0420
3028.00,0.0420
3027.00,0.0420
3026.00,0.0419
3025.00,0.0419
3024.00,0.0419
3023.00,0.0419
3022.00,0.0418
3021.00,0.0418
3020.00,0.0418
3019.00,0.0417
3018.00,0.0417
3017.00,0.0417
3016.00,0.0416
3015.00,0.0416
3014.00,0.0416
3013.00,0.0416
3012.00,0.0416
3011.00,0.0416
3010.00,0.0416
3009.00,0.0416
3008.00,0.0416
3007.00,0.0416
3006.00,0.0416
3005.00,0.0416
3004.00,0.0416
3003.00,0.0416
3002.00,0.0416
3001.00,0.0415
3000.00,0.0415
2999.00,0.0415
2998.00,0.0415
2997.00,0.0415
2996.00,0.0415
2995.00,0.0415
2994.00,0.0415
2993.00,0.0415
2992.00,0.0415
2991.00,0.0415
2990.00,0.0415
2989.00,0.0415
2988.00,0.0416
2987.00,0.0416
2986.00,0.0416
2985.00,0.0416
2984.00,0.0416
2983.00,0.0416
2982.00,0.0416
2981.00,0.0417
2980.00,0.0417
2979.00,0.0417
2978.00,0.0417
2977.00,0.0417
2976.00,0.0417
2975.00,0.0417
2974.00,0.0417
2973.00,0.0418
2972.00,0.0418
2971.00,0.0418
2970.00,0.0418
2969.00,0.0419
2968.00,0.0419
2967.00,0.0419
2966.00,0.0419
2965.00,0.0419
2964.00,0.0420
2963.00,0.0420
2962.00,0.0420
2961.00,0.0421
2960.00,0.0421
2959.00,0.0421
2958.00,0.0422
2957.00,0.0422
2956.00,0.0422
2955.00,0.0422
2954.00,0.0422
2953.00,0.0423
2952.00,0.0423
2951.00,0.0424
2950.00,0.0424
2949.00,0.0424
2948.00,0.0424
2947.00,0.0425
2946.00,0.0425
2945.00,0.0426
2944.00,0.0427
2943.00,0.0428
2942.00,0.0429
2941.00,0.0429
2940.00,0.0430
2939.00,0.0431
2938.00,0.0432
2937.00,0.0433
2936.00,0.0434
2935.00,0.0434
2934.00,0.0435
2933.00,0.0435
2932.00,0.0436
2931.00,0.0436
2930.00,0.0437
2929.00,0.0438
2928.00,0.0438
2927.00,0.0439
2926.00,0.0440
2925.00,0.0440
2924.00,0.0440
2923.00,0.0441
2922.00,0.0441
2921.00,0.0440
2920.00,0.0440
2919.00,0.0439
2918.00,0.0439
2917.00,0.0438
2916.00,0.0437
2915.00,0.0436
2914.00,0.0435
2913.00,0.0435
2912.00,0.0434
2911.00,0.0433
2910.00,0.0432
2909.00,0.0431
2908.00,0.0431
2907.00,0.0430
2906.00,0.0429
2905.00,0.0429
2904.00,0.0429
2903.00,0.0428
2902.00,0.0428
2901.00,0.0427
2900.00,0.0427
2899.00,0.0426
2898.00,0.0426
2897.00,0.0425
2896.00,0.0425
2895.00,0.0424
2894.00,0.0424
2893.00,0.0424
2892.00,0.0423
2891.00,0.0423
2890.00,0.0423
2889.00,0.0423
2888.00,0.0422
2887.00,0.0422
2886.00,0.0422
2885.00,0.0421
2884.00,0.0421
2883.00,0.0421
2882.00,0.0420
2881.00,0.0420
2880.00,0.0420
2879.00,0.0420
2878.00,0.0419
2877.00,0.0419
2876.00,0.0419
2875.00,0.0419
2874.00,0.0419
2873.00,0.0419
2872.00,0.0419
2871.00,0.0419
2870.00,0.0420
2869.00,0.0420
2868.00,0.0420
2867.00,0.0420
2866.00,0.0420
2865.00,0.0421
2864.00,0.0421
2863.00,0.0421
2862.00,0.0422
2861.00,0.0422
2860.00,0.0423
2859.00,0.0423
2858.00,0.0424
2857.00,0.0425
2856.00,0.0425
2855.00,0.0426
2854.00,0.0427
2853.00,0.0427
2852.00,0.0426
2851.00,0.0426
2850.00,0.0425
2849.00,0.0424
2848.00,0.0423
2847.00,0.0422
2846.00,0.0421
2845.00,0.0420
2844.00,0.0418
2843.00,0.0417
2842.00,0.0416
2841.00,0.0415
2840.00,0.0414
2839.00,0.0413
2838.00,0.0412
2837.00,0.0412
2836.00,0.0411
2835.00,0.0411
2834.00,0.0410
2833.00,0.0410
2832.00,0.0410
2831.00,0.0410
2830.00,0.0409
2829.00,0.0409
2828.00,0.0409
2827.00,0.0408
2826.00,0.0408
2825.00,0.0408
2824.00,0.0407
2823.00,0.0407
2822.00,0.0407
2821.00,0.0407
2820.00,0.0407
2819.00,0.0406
2818.00,0.0406
2817.00,0.0406
2816.00,0.0406
2815.00,0.0405
2814.00,0.0405
2813.00,0.0405
2812.00,0.0405
2811.00,0.0405
2810.00,0.0405
2809.00,0.0404
2808.00,0.0404
2807.00,0.0404
2806.00,0.0404
2805.00,0.0404
2804.00,0.0404
2803.00,0.0404
2802.00,0.0404
2801.00,0.0403
2800.00,0.0403
2799.00,0.0403
2798.00,0.0403
2797.00,0.0403
2796.00,0.0403
2795.00,0.0402
2794.00,0.0402
2793.00,0.0402
2792.00,0.0402
2791.00,0.0401
2790.00,0.0401
2789.00,0.0401
2788.00,0.0401
2787.00,0.0401
2786.00,0.0401
2785.00,0.0401
2784.00,0.0401
2783.00,0.0401
2782.00,0.0401
2781.00,0.0401
2780.00,0.0401
2779.00,0.0400
2778.00,0.0400
2777.00,0.0400
2776.00,0.0400
2775.00,0.0399
2774.00,0.0399
2773.00,0.0399
2772.00,0.0399
2771.00,0.0399
2770.00,0.0400
2769.00,0.0400
2768.00,0.0400
2767.00,0.0399
2766.00,0.0399
2765.00,0.0399
2764.00,0.0399
2763.00,0.0399
2762.00,0.0399
2761.00,0.0399
2760.00,0.0398
2759.00,0.0398
2758.00,0.0398
2757.00,0.0398
2756.00,0.0398
2755.00,0.0398
2754.00,0.0398
2753.00,0.0398
2752.00,0.0398
2751.00,0.0398
2750.00,0.0397
2749.00,0.0397
2748.00,0.0397
2747.00,0.0397
2746.00,0.0397
2745.00,0.0397
2744.00,0.0397
2743.00,0.0397
2742.00,0.0397
2741.00,0.0397
2740.00,0.0397
2739.00,0.0397
2738.00,0.0397
2737.00,0.0397
2736.00,0.0397
2735.00,0.0397
2734.00,0.0397
2733.00,0.0397
2732.00,0.0396
2731.00,0.0396
2730.00,0.0396
2729.00,0.0396
2728.00,0.0395
2727.00,0.0395
2726.00,0.0395
2725.00,0.0396
2724.00,0.0396
2723.00,0.0396
2722.00,0.0395
2721.00,0.0395
2720.00,0.0395
2719.00,0.0395
2718.00,0.0395
2717.00,0.0395
2716.00,0.0395
2715.00,0.0395
2714.00,0.0395
2713.00,0.0395
2712.00,0.0395
2711.00,0.0395
2710.00,0.0394
2709.00,0.0394
2708.00,0.0394
2707.00,0.0394
2706.00,0.0394
2705.00,0.0394
2704.00,0.0394
2703.00,0.0394
2702.00,0.0394
2701.00,0.0394
2700.00,0.0394
2699.00,0.0394
2698.00,0.0394
2697.00,0.0393
2696.00,0.0393
2695.00,0.0393
2694.00,0.0393
2693.00,0.0393
2692.00,0.0393
2691.00,0.0393
2690.00,0.0393
2689.00,0.0393
2688.00,0.0393
2687.00,0.0393
2686.00,0.0392
2685.00,0.0392
2684.00,0.0392
2683.00,0.0392
2682.00,0.0392
2681.00,0.0392
2680.00,0.0392
2679.00,0.0392
2678.00,0.0392
2677.00,0.0392
2676.00,0.0392
2675.00,0.0392
2674.00,0.0392
2673.00,0.0392
2672.00,0.0392
2671.00,0.0392
2670.00,0.0392
2669.00,0.0392
2668.00,0.0392
2667.00,0.0392
2666.00,0.0392
2665.00,0.0393
2664.00,0.0393
2663.00,0.0394
2662.00,0.0394
2661.00,0.0394
2660.00,0.0395
2659.00,0.0395
2658.00,0.0395
2657.00,0.0395
2656.00,0.0395
2655.00,0.0395
2654.00,0.0395
2653.00,0.0395
2652.00,0.0395
2651.00,0.0395
2650.00,0.0395
2649.00,0.0395
2648.00,0.0395
2647.00,0.0395
2646.00,0.0395
2645.00,0.0395
2644.00,0.0395
2643.00,0.0395
2642.00,0.0395
2641.00,0.0394
2640.00,0.0394
2639.00,0.0394
2638.00,0.0394
2637.00,0.0394
2636.00,0.0394
2635.00,0.0394
2634.00,0.0393
2633.00,0.0393
2632.00,0.0393
2631.00,0.0393
2630.00,0.0393
2629.00,0.0393
2628.00,0.0393
2627.00,0.0393
2626.00,0.0393
2625.00,0.0392
2624.00,0.0392
2623.00,0.0392
2622.00,0.0392
2621.00,0.0392
2620.00,0.0392
2619.00,0.0392
2618.00,0.0392
2617.00,0.0392
2616.00,0.0392
2615.00,0.0391
2614.00,0.0391
2613.00,0.0391
2612.00,0.0391
2611.00,0.0390
2610.00,0.0390
2609.00,0.0390
2608.00,0.0390
2607.00,0.0390
2606.00,0.0390
2605.00,0.0390
2604.00,0.0390
2603.00,0.0390
2602.00,0.0390
2601.00,0.0390
2600.00,0.0390
2599.00,0.0389
2598.00,0.0389
2597.00,0.0389
2596.00,0.0389
2595.00,0.0389
2594.00,0.0389
2593.00,0.0389
2592.00,0.0389
2591.00,0.0389
2590.00,0.0389
2589.00,0.0389
2588.00,0.0388
2587.00,0.0388
2586.00,0.0388
2585.00,0.0387
2584.00,0.0387
2583.00,0.0387
2582.00,0.0387
2581.00,0.0387
2580.00,0.0387
2579.00,0.0387
2578.00,0.0387
2577.00,0.0386
2576.00,0.0386
2575.00,0.0386
2574.00,0.0386
2573.00,0.0386
2572.00,0.0386
2571.00,0.0386
2570.00,0.0386
2569.00,0.0386
2568.00,0.0386
2567.00,0.0386
2566.00,0.0386
2565.00,0.0386
2564.00,0.0386
2563.00,0.0385
2562.00,0.0385
2561.00,0.0385
2560.00,0.0385
2559.00,0.0385
2558.00,0.0385
2557.00,0.0385
2556.00,0.0385
2555.00,0.0385
2554.00,0.0385
2553.00,0.0385
2552.00,0.0385
2551.00,0.0384
2550.00,0.0384
2549.00,0.0384
2548.00,0.0384
2547.00,0.0384
2546.00,0.0384
2545.00,0.0384
2544.00,0.0384
2543.00,0.0384
2542.00,0.0384
2541.00,0.0384
2540.00,0.0383
2539.00,0.0383
2538.00,0.0383
2537.00,0.0383
2536.00,0.0383
2535.00,0.0383
2534.00,0.0383
2533.00,0.0383
2532.00,0.0383
2531.00,0.0382
2530.00,0.0382
2529.00,0.0382
2528.00,0.0382
2527.00,0.0382
2526.00,0.0382
2525.00,0.0382
2524.00,0.0382
2523.00,0.0382
2522.00,0.0382
2521.00,0.0382
2520.00,0.0382
2519.00,0.0382
2518.00,0.0382
2517.00,0.0382
2516.00,0.0382
2515.00,0.0381
2514.00,0.0381
2513.00,0.0381
2512.00,0.0381
2511.00,0.0381
2510.00,0.0381
2509.00,0.0381
2508.00,0.0381
2507.00,0.0380
2506.00,0.0380
2505.00,0.0380
2504.00,0.0380
2503.00,0.0380
2502.00,0.0381
2501.00,0.0381
2500.00,0.0381
2499.00,0.0381
2498.00,0.0380
2497.00,0.0380
2496.00,0.0380
2495.00,0.0380
2494.00,0.0380
2493.00,0.0379
2492.00,0.0379
2491.00,0.0379
2490.00,0.0379
2489.00,0.0379
2488.00,0.0379
2487.00,0.0379
2486.00,0.0379
2485.00,0.0379
2484.00,0.0379
2483.00,0.0378
2482.00,0.0378
2481.00,0.0379
2480.00,0.0379
2479.00,0.0379
2478.00,0.0379
2477.00,0.0379
2476.00,0.0378
2475.00,0.0378
2474.00,0.0378
2473.00,0.0378
2472.00,0.0379
2471.00,0.0379
2470.00,0.0379
2469.00,0.0379
2468.00,0.0379
2467.00,0.0378
2466.00,0.0378
2465.00,0.0378
2464.00,0.0378
2463.00,0.0378
2462.00,0.0378
2461.00,0.0378
2460.00,0.0378
2459.00,0.0379
2458.00,0.0379
2457.00,0.0379
2456.00,0.0379
2455.00,0.0378
2454.00,0.0378
2453.00,0.0378
2452.00,0.0378
2451.00,0.0378
2450.00,0.0378
2449.00,0.0378
2448.00,0.0378
2447.00,0.0378
2446.00,0.0378
2445.00,0.0377
2444.00,0.0377
2443.00,0.0377
2442.00,0.0377
2441.00,0.0376
2440.00,0.0376
2439.00,0.0376
2438.00,0.0376
2437.00,0.0376
2436.00,0.0376
2435.00,0.0376
2434.00,0.0376
2433.00,0.0375
2432.00,0.0375
2431.00,0.0375
2430.00,0.0375
2429.00,0.0375
2428.00,0.0374
2427.00,0.0374
2426.00,0.0374
2425.00,0.0374
2424.00,0.0374
2423.00,0.0374
2422.00,0.0374
2421.00,0.0374
2420.00,0.0373
2419.00,0.0373
2418.00,0.0373
2417.00,0.0373
2416.00,0.0373
2415.00,0.0373
2414.00,0.0373
2413.00,0.0373
2412.00,0.0373
2411.00,0.0373
2410.00,0.0373
2409.00,0.0372
2408.00,0.0372
2407.00,0.0371
2406.00,0.0371
2405.00,0.0371
2404.00,0.0371
2403.00,0.0371
2402.00,0.0371
2401.00,0.0371
2400.00,0.0371
2399.00,0.0371
2398.00,0.0371
2397.00,0.0370
2396.00,0.0370
2395.00,0.0370
2394.00,0.0370
2393.00,0.0370
2392.00,0.0370
2391.00,0.0370
2390.00,0.0370
2389.00,0.0370
2388.00,0.0369
2387.00,0.0369
2386.00,0.0369
2385.00,0.0368
2384.00,0.0367
2383.00,0.0367
2382.00,0.0366
2381.00,0.0365
2380.00,0.0365
2379.00,0.0364
2378.00,0.0364
2377.00,0.0364
2376.00,0.0365
2375.00,0.0365
2374.00,0.0365
2373.00,0.0365
2372.00,0.0364
2371.00,0.0364
2370.00,0.0364
2369.00,0.0364
2368.00,0.0363
2367.00,0.0363
2366.00,0.0363
2365.00,0.0363
2364.00,0.0363
2363.00,0.0363
2362.00,0.0363
2361.00,0.0363
2360.00,0.0363
2359.00,0.0364
2358.00,0.0364
2357.00,0.0364
2356.00,0.0364
2355.00,0.0364
2354.00,0.0365
2353.00,0.0366
2352.00,0.0366
2351.00,0.0365
2350.00,0.0364
2349.00,0.0364
2348.00,0.0364
2347.00,0.0365
2346.00,0.0365
2345.00,0.0365
2344.00,0.0364
2343.00,0.0364
2342.00,0.0364
2341.00,0.0364
2340.00,0.0365
2339.00,0.0366
2338.00,0.0367
2337.00,0.0367
2336.00,0.0368
2335.00,0.0368
2334.00,0.0368
2333.00,0.0368
2332.00,0.0368
2331.00,0.0368
2330.00,0.0368
2329.00,0.0369
2328.00,0.0371
2327.00,0.0374
2326.00,0.0377
2325.00,0.0379
2324.00,0.0379
2323.00,0.0377
2322.00,0.0376
2321.00,0.0374
2320.00,0.0373
2319.00,0.0372
2318.00,0.0372
2317.00,0.0371
2316.00,0.0371
2315.00,0.0371
2314.00,0.0370
2313.00,0.0370
2312.00,0.0369
2311.00,0.0368
2310.00,0.0367
2309.00,0.0366
2308.00,0.0366
2307.00,0.0366
2306.00,0.0366
2305.00,0.0366
2304.00,0.0366
2303.00,0.0366
2302.00,0.0367
2301.00,0.0367
2300.00,0.0367
2299.00,0.0367
2298.00,0.0368
2297.00,0.0368
2296.00,0.0369
2295.00,0.0369
2294.00,0.0370
2293.00,0.0371
2292.00,0.0371
2291.00,0.0372
2290.00,0.0373
2289.00,0.0374
2288.00,0.0374
2287.00,0.0375
2286.00,0.0374
2285.00,0.0374
2284.00,0.0373
2283.00,0.0372
2282.00,0.0372
2281.00,0.0371
2280.00,0.0371
2279.00,0.0371
2278.00,0.0371
2277.00,0.0370
2276.00,0.0370
2275.00,0.0370
2274.00,0.0369
2273.00,0.0369
2272.00,0.0369
2271.00,0.0368
2270.00,0.0368
2269.00,0.0368
2268.00,0.0367
2267.00,0.0366
2266.00,0.0365
2265.00,0.0365
2264.00,0.0365
2263.00,0.0365
2262.00,0.0365
2261.00,0.0366
2260.00,0.0366
2259.00,0.0366
2258.00,0.0366
2257.00,0.0366
2256.00,0.0365
2255.00,0.0364
2254.00,0.0363
2253.00,0.0364
2252.00,0.0365
2251.00,0.0365
2250.00,0.0365
2249.00,0.0365
2248.00,0.0364
2247.00,0.0364
2246.00,0.0364
2245.00,0.0364
2244.00,0.0365
2243.00,0.0365
2242.00,0.0365
2241.00,0.0365
2240.00,0.0364
2239.00,0.0364
2238.00,0.0364
2237.00,0.0364
2236.00,0.0364
2235.00,0.0365
2234.00,0.0365
2233.00,0.0365
2232.00,0.0365
2231.00,0.0364
2230.00,0.0364
2229.00,0.0364
2228.00,0.0364
2227.00,0.0363
2226.00,0.0363
2225.00,0.0362
2224.00,0.0362
2223.00,0.0362
2222.00,0.0363
2221.00,0.0363
2220.00,0.0363
2219.00,0.0362
2218.00,0.0362
2217.00,0.0361
2216.00,0.0361
2215.00,0.0361
2214.00,0.0362
2213.00,0.0363
2212.00,0.0363
2211.00,0.0363
2210.00,0.0362
2209.00,0.0362
2208.00,0.0362
2207.00,0.0362
2206.00,0.0362
2205.00,0.0362
2204.00,0.0362
2203.00,0.0362
2202.00,0.0361
2201.00,0.0361
2200.00,0.0361
2199.00,0.0362
2198.00,0.0362
2197.00,0.0362
2196.00,0.0362
2195.00,0.0362
2194.00,0.0362
2193.00,0.0362
2192.00,0.0362
2191.00,0.0361
2190.00,0.0361
2189.00,0.0362
2188.00,0.0363
2187.00,0.0363
2186.00,0.0362
2185.00,0.0360
2184.00,0.0358
2183.00,0.0355
2182.00,0.0354
2181.00,0.0354
2180.00,0.0355
2179.00,0.0356
2178.00,0.0356
2177.00,0.0354
2176.00,0.0353
2175.00,0.0353
2174.00,0.0353
2173.00,0.0355
2172.00,0.0357
2171.00,0.0359
2170.00,0.0362
2169.00,0.0363
2168.00,0.0363
2167.00,0.0362
2166.00,0.0361
2165.00,0.0361
2164.00,0.0363
2163.00,0.0364
2162.00,0.0361
2161.00,0.0354
2160.00,0.0343
2159.00,0.0332
2158.00,0.0325
2157.00,0.0324
2156.00,0.0325
2155.00,0.0328
2154.00,0.0331
2153.00,0.0334
2152.00,0.0337
2151.00,0.0338
2150.00,0.0338
2149.00,0.0338
2148.00,0.0338
2147.00,0.0337
2146.00,0.0337
2145.00,0.0338
2144.00,0.0338
2143.00,0.0339
2142.00,0.0339
2141.00,0.0338
2140.00,0.0338
2139.00,0.0337
2138.00,0.0336
2137.00,0.0335
2136.00,0.0334
2135.00,0.0333
2134.00,0.0333
2133.00,0.0334
2132.00,0.0336
2131.00,0.0337
2130.00,0.0338
2129.00,0.0339
2128.00,0.0341
2127.00,0.0342
2126.00,0.0344
2125.00,0.0345
2124.00,0.0345
2123.00,0.0346
2122.00,0.0346
2121.00,0.0347
2120.00,0.0348
2119.00,0.0349
2118.00,0.0350
2117.00,0.0351
2116.00,0.0352
2115.00,0.0353
2114.00,0.0353
2113.00,0.0353
2112.00,0.0353
2111.00,0.0352
2110.00,0.0352
2109.00,0.0351
2108.00,0.0350
2107.00,0.0350
2106.00,0.0349
2105.00,0.0350
2104.00,0.0350
2103.00,0.0350
2102.00,0.0350
2101.00,0.0350
2100.00,0.0350
2099.00,0.0350
2098.00,0.0350
2097.00,0.0348
2096.00,0.0347
2095.00,0.0345
2094.00,0.0344
2093.00,0.0344
2092.00,0.0345
2091.00,0.0346
2090.00,0.0347
2089.00,0.0348
2088.00,0.0348
2087.00,0.0348
2086.00,0.0348
2085.00,0.0348
2084.00,0.0348
2083.00,0.0348
2082.00,0.0349
2081.00,0.0349
2080.00,0.0349
2079.00,0.0349
2078.00,0.0348
2077.00,0.0347
2076.00,0.0345
2075.00,0.0344
2074.00,0.0344
2073.00,0.0344
2072.00,0.0345
2071.00,0.0346
2070.00,0.0346
2069.00,0.0346
2068.00,0.0345
2067.00,0.0344
2066.00,0.0343
2065.00,0.0342
2064.00,0.0342
2063.00,0.0343
2062.00,0.0343
2061.00,0.0343
2060.00,0.0344
2059.00,0.0344
2058.00,0.0344
2057.00,0.0344
2056.00,0.0344
2055.00,0.0344
2054.00,0.0345
2053.00,0.0348
2052.00,0.0351
2051.00,0.0352
2050.00,0.0349
2049.00,0.0345
2048.00,0.0342
2047.00,0.0340
2046.00,0.0339
2045.00,0.0339
2044.00,0.0339
2043.00,0.0340
2042.00,0.0341
2041.00,0.0342
2040.00,0.0342
2039.00,0.0342
2038.00,0.0340
2037.00,0.0338
2036.00,0.0336
2035.00,0.0333
2034.00,0.0331
2033.00,0.0331
2032.00,0.0331
2031.00,0.0332
2030.00,0.0332
2029.00,0.0332
2028.00,0.0332
2027.00,0.0331
2026.00,0.0330
2025.00,0.0330
2024.00,0.0329
2023.00,0.0328
2022.00,0.0328
2021.00,0.0328
2020.00,0.0329
2019.00,0.0329
2018.00,0.0329
2017.00,0.0328
2016.00,0.0328
2015.00,0.0328
2014.00,0.0328
2013.00,0.0328
2012.00,0.0329
2011.00,0.0328
2010.00,0.0328
2009.00,0.0327
2008.00,0.0325
2007.00,0.0323
2006.00,0.0322
2005.00,0.0323
2004.00,0.0325
2003.00,0.0327
2002.00,0.0327
2001.00,0.0328
2000.00,0.0329
1999.00,0.0330
1998.00,0.0331
1997.00,0.0332
1996.00,0.0333
1995.00,0.0333
1994.00,0.0333
1993.00,0.0333
1992.00,0.0334
1991.00,0.0333
1990.00,0.0333
1989.00,0.0333
1988.00,0.0333
1987.00,0.0335
1986.00,0.0336
1985.00,0.0337
1984.00,0.0338
1983.00,0.0339
1982.00,0.0340
1981.00,0.0341
1980.00,0.0339
1979.00,0.0334
1978.00,0.0329
1977.00,0.0325
1976.00,0.0323
1975.00,0.0322
1974.00,0.0321
1973.00,0.0321
1972.00,0.0321
1971.00,0.0320
1970.00,0.0319
1969.00,0.0318
1968.00,0.0318
1967.00,0.0318
1966.00,0.0318
1965.00,0.0319
1964.00,0.0320
1963.00,0.0320
1962.00,0.0319
1961.00,0.0318
1960.00,0.0317
1959.00,0.0317
1958.00,0.0317
1957.00,0.0318
1956.00,0.0319
1955.00,0.0320
1954.00,0.0320
1953.00,0.0320
1952.00,0.0320
1951.00,0.0319
1950.00,0.0319
1949.00,0.0319
1948.00,0.0320
1947.00,0.0320
1946.00,0.0320
1945.00,0.0320
1944.00,0.0319
1943.00,0.0319
1942.00,0.0318
1941.00,0.0318
1940.00,0.0318
1939.00,0.0318
1938.00,0.0319
1937.00,0.0319
1936.00,0.0321
1935.00,0.0321
1934.00,0.0321
1933.00,0.0321
1932.00,0.0321
1931.00,0.0320
1930.00,0.0320
1929.00,0.0319
1928.00,0.0319
1927.00,0.0319
1926.00,0.0319
1925.00,0.0320
1924.00,0.0320
1923.00,0.0320
1922.00,0.0320
1921.00,0.0321
1920.00,0.0321
1919.00,0.0321
1918.00,0.0320
1917.00,0.0320
1916.00,0.0320
1915.00,0.0320
1914.00,0.0320
1913.00,0.0320
1912.00,0.0320
1911.00,0.0319
1910.00,0.0319
1909.00,0.0319
1908.00,0.0319
1907.00,0.0318
1906.00,0.0318
1905.00,0.0318
1904.00,0.0317
1903.00,0.0317
1902.00,0.0318
1901.00,0.0318
1900.00,0.0318
1899.00,0.0319
1898.00,0.0319
1897.00,0.0318
1896.00,0.0318
1895.00,0.0318
1894.00,0.0317
1893.00,0.0317
1892.00,0.0317
1891.00,0.0317
1890.00,0.0316
1889.00,0.0315
1888.00,0.0315
1887.00,0.0315
1886.00,0.0315
1885.00,0.0316
1884.00,0.0316
1883.00,0.0315
1882.00,0.0315
1881.00,0.0315
1880.00,0.0315
1879.00,0.0314
1878.00,0.0314
1877.00,0.0314
1876.00,0.0314
1875.00,0.0313
1874.00,0.0313
1873.00,0.0313
1872.00,0.0313
1871.00,0.0313
1870.00,0.0312
1869.00,0.0310
1868.00,0.0309
1867.00,0.0308
1866.00,0.0307
1865.00,0.0308
1864.00,0.0308
1863.00,0.0308
1862.00,0.0308
1861.00,0.0308
1860.00,0.0308
1859.00,0.0308
1858.00,0.0308
1857.00,0.0308
1856.00,0.0307
1855.00,0.0307
1854.00,0.0306
1853.00,0.0306
1852.00,0.0305
1851.00,0.0305
1850.00,0.0305
1849.00,0.0305
1848.00,0.0305
1847.00,0.0305
1846.00,0.0304
1845.00,0.0304
1844.00,0.0303
1843.00,0.0302
1842.00,0.0301
1841.00,0.0302
1840.00,0.0302
1839.00,0.0302
1838.00,0.0302
1837.00,0.0302
1836.00,0.0302
1835.00,0.0301
1834.00,0.0301
1833.00,0.0300
1832.00,0.0300
1831.00,0.0299
1830.00,0.0298
1829.00,0.0298
1828.00,0.0298
1827.00,0.0298
1826.00,0.0298
1825.00,0.0298
1824.00,0.0298
1823.00,0.0297
1822.00,0.0297
1821.00,0.0297
1820.00,0.0296
1819.00,0.0295
1818.00,0.0294
1817.00,0.0294
1816.00,0.0294
1815.00,0.0294
1814.00,0.0294
1813.00,0.0295
1812.00,0.0295
1811.00,0.0294
1810.00,0.0294
1809.00,0.0293
1808.00,0.0294
1807.00,0.0294
1806.00,0.0294
1805.00,0.0294
1804.00,0.0294
1803.00,0.0294
1802.00,0.0294
1801.00,0.0293
1800.00,0.0292
1799.00,0.0292
1798.00,0.0292
1797.00,0.0292
1796.00,0.0293
1795.00,0.0293
1794.00,0.0293
1793.00,0.0293
1792.00,0.0292
1791.00,0.0292
1790.00,0.0292
1789.00,0.0293
1788.00,0.0294
1787.00,0.0295
1786.00,0.0295
1785.00,0.0295
1784.00,0.0296
1783.00,0.0296
1782.00,0.0297
1781.00,0.0297
1780.00,0.0298
1779.00,0.0298
1778.00,0.0299
1777.00,0.0300
1776.00,0.0301
1775.00,0.0301
1774.00,0.0302
1773.00,0.0302
1772.00,0.0301
1771.00,0.0301
1770.00,0.0302
1769.00,0.0304
1768.00,0.0306
1767.00,0.0307
1766.00,0.0307
1765.00,0.0308
1764.00,0.0309
1763.00,0.0310
1762.00,0.0310
1761.00,0.0310
1760.00,0.0310
1759.00,0.0312
1758.00,0.0313
1757.00,0.0314
1756.00,0.0314
1755.00,0.0315
1754.00,0.0317
1753.00,0.0319
1752.00,0.0321
1751.00,0.0322
1750.00,0.0322
1749.00,0.0323
1748.00,0.0325
1747.00,0.0328
1746.00,0.0331
1745.00,0.0334
1744.00,0.0337
1743.00,0.0339
1742.00,0.0342
1741.00,0.0345
1740.00,0.0348
1739.00,0.0351
1738.00,0.0354
1737.00,0.0357
1736.00,0.0361
1735.00,0.0365
1734.00,0.0369
1733.00,0.0371
1732.00,0.0373
1731.00,0.0376
1730.00,0.0379
1729.00,0.0382
1728.00,0.0384
1727.00,0.0387
1726.00,0.0389
1725.00,0.0392
1724.00,0.0394
1723.00,0.0396
1722.00,0.0397
1721.00,0.0398
1720.00,0.0399
1719.00,0.0401
1718.00,0.0403
1717.00,0.0405
1716.00,0.0406
1715.00,0.0407
1714.00,0.0408
1713.00,0.0410
1712.00,0.0412
1711.00,0.0414
1710.00,0.0415
1709.00,0.0416
1708.00,0.0417
1707.00,0.0418
1706.00,0.0419
1705.00,0.0419
1704.00,0.0420
1703.00,0.0421
1702.00,0.0421
1701.00,0.0422
1700.00,0.0422
1699.00,0.0422
1698.00,0.0424
1697.00,0.0427
1696.00,0.0429
1695.00,0.0429
1694.00,0.0430
1693.00,0.0431
1692.00,0.0433
1691.00,0.0435
1690.00,0.0436
1689.00,0.0437
1688.00,0.0437
1687.00,0.0438
1686.00,0.0439
1685.00,0.0440
1684.00,0.0441
1683.00,0.0441
1682.00,0.0443
1681.00,0.0447
1680.00,0.0450
1679.00,0.0452
1678.00,0.0454
1677.00,0.0456
1676.00,0.0457
1675.00,0.0459
1674.00,0.0461
1673.00,0.0463
1672.00,0.0466
1671.00,0.0469
1670.00,0.0473
1669.00,0.0476
1668.00,0.0479
1667.00,0.0481
1666.00,0.0484
1665.00,0.0487
1664.00,0.0490
1663.00,0.0493
1662.00,0.0496
1661.00,0.0499
1660.00,0.0502
1659.00,0.0506
1658.00,0.0508
1657.00,0.0510
1656.00,0.0511
1655.00,0.0512
1654.00,0.0515
1653.00,0.0521
1652.00,0.0523
1651.00,0.0524
1650.00,0.0526
1649.00,0.0528
1648.00,0.0531
1647.00,0.0536
1646.00,0.0540
1645.00,0.0542
1644.00,0.0544
1643.00,0.0547
1642.00,0.0550
1641.00,0.0552
1640.00,0.0554
1639.00,0.0556
1638.00,0.0557
1637.00,0.0559
1636.00,0.0563
1635.00,0.0567
1634.00,0.0569
1633.00,0.0572
1632.00,0.0575
1631.00,0.0577
1630.00,0.0580
1629.00,0.0583
1628.00,0.0586
1627.00,0.0588
1626.00,0.0590
1625.00,0.0593
1624.00,0.0596
1623.00,0.0599
1622.00,0.0601
1621.00,0.0602
1620.00,0.0604
1619.00,0.0606
1618.00,0.0608
1617.00,0.0611
1616.00,0.0614
1615.00,0.0615
1614.00,0.0616
1613.00,0.0618
1612.00,0.0620
1611.00,0.0622
1610.00,0.0624
1609.00,0.0626
1608.00,0.0628
1607.00,0.0630
1606.00,0.0632
1605.00,0.0634
1604.00,0.0637
1603.00,0.0640
1602.00,0.0643
1601.00,0.0645
1600.00,0.0647
1599.00,0.0648
1598.00,0.0649
1597.00,0.0650
1596.00,0.0651
1595.00,0.0653
1594.00,0.0654
1593.00,0.0654
1592.00,0.0654
1591.00,0.0655
1590.00,0.0655
1589.00,0.0655
1588.00,0.0655
1587.00,0.0656
1586.00,0.0657
1585.00,0.0657
1584.00,0.0658
1583.00,0.0659
1582.00,0.0659
1581.00,0.0659
1580.00,0.0659
1579.00,0.0659
1578.00,0.0659
1577.00,0.0660
1576.00,0.0662
1575.00,0.0662
1574.00,0.0661
1573.00,0.0660
1572.00,0.0659
1571.00,0.0659
1570.00,0.0660
1569.00,0.0660
1568.00,0.0660
1567.00,0.0660
1566.00,0.0661
1565.00,0.0661
1564.00,0.0661
1563.00,0.0661
1562.00,0.0659
1561.00,0.0656
1560.00,0.0655
1559.00,0.0657
1558.00,0.0656
1557.00,0.0655
1556.00,0.0655
1555.00,0.0656
1554.00,0.0655
1553.00,0.0654
1552.00,0.0653
1551.00,0.0653
1550.00,0.0653
1549.00,0.0652
1548.00,0.0650
1547.00,0.0647
1546.00,0.0644
1545.00,0.0640
1544.00,0.0636
1543.00,0.0632
1542.00,0.0628
1541.00,0.0625
1540.00,0.0624
1539.00,0.0622
1538.00,0.0620
1537.00,0.0618
1536.00,0.0616
1535.00,0.0613
1534.00,0.0611
1533.00,0.0609
1532.00,0.0607
1531.00,0.0606
1530.00,0.0604
1529.00,0.0603
1528.00,0.0601
1527.00,0.0598
1526.00,0.0595
1525.00,0.0591
1524.00,0.0588
1523.00,0.0586
1522.00,0.0584
1521.00,0.0583
1520.00,0.0580
1519.00,0.0578
1518.00,0.0576
1517.00,0.0575
1516.00,0.0573
1515.00,0.0572
1514.00,0.0570
1513.00,0.0568
1512.00,0.0567
1511.00,0.0564
1510.00,0.0561
1509.00,0.0558
1508.00,0.0557
1507.00,0.0556
1506.00,0.0553
1505.00,0.0550
1504.00,0.0550
1503.00,0.0549
1502.00,0.0548
1501.00,0.0546
1500.00,0.0544
1499.00,0.0542
1498.00,0.0541
1497.00,0.0541
1496.00,0.0540
1495.00,0.0539
1494.00,0.0538
1493.00,0.0537
1492.00,0.0536
1491.00,0.0535
1490.00,0.0534
1489.00,0.0533
1488.00,0.0533
1487.00,0.0532
1486.00,0.0532
1485.00,0.0532
1484.00,0.0532
1483.00,0.0532
1482.00,0.0532
1481.00,0.0532
1480.00,0.0532
1479.00,0.0532
1478.00,0.0532
1477.00,0.0533
1476.00,0.0533
1475.00,0.0534
1474.00,0.0535
1473.00,0.0538
1472.00,0.0540
1471.00,0.0542
1470.00,0.0543
1469.00,0.0545
1468.00,0.0546
1467.00,0.0547
1466.00,0.0549
1465.00,0.0550
1464.00,0.0551
1463.00,0.0552
1462.00,0.0553
1461.00,0.0553
1460.00,0.0553
1459.00,0.0553
1458.00,0.0555
1457.00,0.0558
1456.00,0.0559
1455.00,0.0560
1454.00,0.0561
1453.00,0.0562
1452.00,0.0562
1451.00,0.0563
1450.00,0.0563
1449.00,0.0564
1448.00,0.0565
1447.00,0.0565
1446.00,0.0566
1445.00,0.0566
1444.00,0.0567
1443.00,0.0568
1442.00,0.0569
1441.00,0.0569
1440.00,0.0570
1439.00,0.0570
1438.00,0.0570
1437.00,0.0571
1436.00,0.0573
1435.00,0.0574
1434.00,0.0575
1433.00,0.0575
1432.00,0.0576
1431.00,0.0577
1430.00,0.0578
1429.00,0.0579
1428.00,0.0580
1427.00,0.0581
1426.00,0.0582
1425.00,0.0584
1424.00,0.0585
1423.00,0.0587
1422.00,0.0587
1421.00,0.0588
1420.00,0.0589
1419.00,0.0592
1418.00,0.0594
1417.00,0.0595
1416.00,0.0597
1415.00,0.0598
1414.00,0.0599
1413.00,0.0600
1412.00,0.0601
1411.00,0.0603
1410.00,0.0604
1409.00,0.0605
1408.00,0.0606
1407.00,0.0607
1406.00,0.0608
1405.00,0.0610
1404.00,0.0613
1403.00,0.0614
1402.00,0.0615
1401.00,0.0616
1400.00,0.0617
1399.00,0.0618
1398.00,0.0620
1397.00,0.0621
1396.00,0.0623
1395.00,0.0625
1394.00,0.0626
1393.00,0.0628
1392.00,0.0629
1391.00,0.0630
1390.00,0.0631
1389.00,0.0632
1388.00,0.0634
1387.00,0.0636
1386.00,0.0637
1385.00,0.0639
1384.00,0.0640
1383.00,0.0641
1382.00,0.0642
1381.00,0.0643
1380.00,0.0644
1379.00,0.0645
1378.00,0.0646
1377.00,0.0646
1376.00,0.0646
1375.00,0.0647
1374.00,0.0648
1373.00,0.0649
1372.00,0.0649
1371.00,0.0649
1370.00,0.0649
1369.00,0.0650
1368.00,0.0650
1367.00,0.0650
1366.00,0.0649
1365.00,0.0649
1364.00,0.0649
1363.00,0.0650
1362.00,0.0650
1361.00,0.0650
1360.00,0.0649
1359.00,0.0649
1358.00,0.0649
1357.00,0.0649
1356.00,0.0649
1355.00,0.0649
1354.00,0.0648
1353.00,0.0648
1352.00,0.0648
1351.00,0.0647
1350.00,0.0647
1349.00,0.0646
1348.00,0.0646
1347.00,0.0645
1346.00,0.0645
1345.00,0.0645
1344.00,0.0645
1343.00,0.0645
1342.00,0.0644
1341.00,0.0645
1340.00,0.0645
1339.00,0.0645
1338.00,0.0645
1337.00,0.0645
1336.00,0.0645
1335.00,0.0644
1334.00,0.0644
1333.00,0.0644
1332.00,0.0645
1331.00,0.0645
1330.00,0.0645
1329.00,0.0646
1328.00,0.0646
1327.00,0.0647
1326.00,0.0647
1325.00,0.0647
1324.00,0.0648
1323.00,0.0648
1322.00,0.0648
1321.00,0.0648
1320.00,0.0648
1319.00,0.0648
1318.00,0.0648
1317.00,0.0648
1316.00,0.0648
1315.00,0.0648
1314.00,0.0647
1313.00,0.0647
1312.00,0.0647
1311.00,0.0647
1310.00,0.0646
1309.00,0.0646
1308.00,0.0647
1307.00,0.0647
1306.00,0.0647
1305.00,0.0647
1304.00,0.0647
1303.00,0.0647
1302.00,0.0647
1301.00,0.0647
1300.00,0.0648
1299.00,0.0648
1298.00,0.0648
1297.00,0.0649
1296.00,0.0650
1295.00,0.0650
1294.00,0.0650
1293.00,0.0651
1292.00,0.0651
1291.00,0.0652
1290.00,0.0653
1289.00,0.0653
1288.00,0.0654
1287.00,0.0655
1286.00,0.0656
1285.00,0.0657
1284.00,0.0657
1283.00,0.0658
1282.00,0.0659
1281.00,0.0659
1280.00,0.0660
1279.00,0.0661
1278.00,0.0661
1277.00,0.0662
1276.00,0.0663
1275.00,0.0663
1274.00,0.0664
1273.00,0.0665
1272.00,0.0666
1271.00,0.0667
1270.00,0.0668
1269.00,0.0669
1268.00,0.0670
1267.00,0.0671
1266.00,0.0672
1265.00,0.0673
1264.00,0.0674
1263.00,0.0675
1262.00,0.0676
1261.00,0.0677
1260.00,0.0678
1259.00,0.0679
1258.00,0.0680
1257.00,0.0681
1256.00,0.0681
1255.00,0.0682
1254.00,0.0683
1253.00,0.0684
1252.00,0.0685
1251.00,0.0686
1250.00,0.0686
1249.00,0.0687
1248.00,0.0688
1247.00,0.0689
1246.00,0.0690
1245.00,0.0690
1244.00,0.0691
1243.00,0.0692
1242.00,0.0693
1241.00,0.0693
1240.00,0.0694
1239.00,0.0694
1238.00,0.0695
1237.00,0.0696
1236.00,0.0697
1235.00,0.0697
1234.00,0.0698
1233.00,0.0699
1232.00,0.0700
1231.00,0.0700
1230.00,0.0701
1229.00,0.0701
1228.00,0.0702
1227.00,0.0702
1226.00,0.0702
1225.00,0.0703
1224.00,0.0703
1223.00,0.0704
1222.00,0.0704
1221.00,0.0704
1220.00,0.0704
1219.00,0.0704
1218.00,0.0704
1217.00,0.0705
1216.00,0.0705
1215.00,0.0706
1214.00,0.0706
1213.00,0.0707
1212.00,0.0707
1211.00,0.0708
1210.00,0.0708
1209.00,0.0709
1208.00,0.0709
1207.00,0.0710
1206.00,0.0710
1205.00,0.0710
1204.00,0.0710
1203.00,0.0711
1202.00,0.0711
1201.00,0.0711
1200.00,0.0712
1199.00,0.0712
1198.00,0.0713
1197.00,0.0713
1196.00,0.0714
1195.00,0.0714
1194.00,0.0714
1193.00,0.0715
1192.00,0.0715
1191.00,0.0716
1190.00,0.0717
1189.00,0.0717
1188.00,0.0718
1187.00,0.0719
1186.00,0.0719
1185.00,0.0720
1184.00,0.0721
1183.00,0.0722
1182.00,0.0723
1181.00,0.0724
1180.00,0.0725
1179.00,0.0726
1178.00,0.0727
1177.00,0.0728
1176.00,0.0729
1175.00,0.0730
1174.00,0.0731
1173.00,0.0732
1172.00,0.0732
1171.00,0.0734
1170.00,0.0735
1169.00,0.0736
1168.00,0.0737
1167.00,0.0738
1166.00,0.0739
1165.00,0.0740
1164.00,0.0741
1163.00,0.0742
1162.00,0.0742
1161.00,0.0742
1160.00,0.0743
1159.00,0.0744
1158.00,0.0744
1157.00,0.0744
1156.00,0.0745
1155.00,0.0745
1154.00,0.0745
1153.00,0.0745
1152.00,0.0746
1151.00,0.0746
1150.00,0.0746
1149.00,0.0747
1148.00,0.0747
1147.00,0.0747
1146.00,0.0747
1145.00,0.0746
1144.00,0.0746
1143.00,0.0746
1142.00,0.0746
1141.00,0.0747
1140.00,0.0747
1139.00,0.0748
1138.00,0.0749
1137.00,0.0749
1136.00,0.0750
1135.00,0.0751
1134.00,0.0752
1133.00,0.0753
1132.00,0.0754
1131.00,0.0755
1130.00,0.0756
1129.00,0.0757
1128.00,0.0759
1127.00,0.0760
1126.00,0.0761
1125.00,0.0763
1124.00,0.0764
1123.00,0.0766
1122.00,0.0767
1121.00,0.0769
1120.00,0.0772
1119.00,0.0774
1118.00,0.0776
1117.00,0.0778
1116.00,0.0779
1115.00,0.0781
1114.00,0.0783
1113.00,0.0785
1112.00,0.0787
1111.00,0.0789
1110.00,0.0791
1109.00,0.0793
1108.00,0.0795
1107.00,0.0797
1106.00,0.0799
1105.00,0.0801
1104.00,0.0803
1103.00,0.0805
1102.00,0.0806
1101.00,0.0808
1100.00,0.0810
1099.00,0.0812
1098.00,0.0814
1097.00,0.0816
1096.00,0.0817
1095.00,0.0819
1094.00,0.0820
1093.00,0.0822
1092.00,0.0824
1091.00,0.0825
1090.00,0.0827
1089.00,0.0829
1088.00,0.0831
1087.00,0.0833
1086.00,0.0835
1085.00,0.0837
1084.00,0.0839
1083.00,0.0840
1082.00,0.0842
1081.00,0.0844
1080.00,0.0846
1079.00,0.0848
1078.00,0.0849
1077.00,0.0851
1076.00,0.0852
1075.00,0.0853
1074.00,0.0854
1073.00,0.0855
1072.00,0.0856
1071.00,0.0857
1070.00,0.0859
1069.00,0.0861
1068.00,0.0863
1067.00,0.0865
1066.00,0.0865
1065.00,0.0865
1064.00,0.0865
1063.00,0.0865
1062.00,0.0865
1061.00,0.0866
1060.00,0.0867
1059.00,0.0868
1058.00,0.0869
1057.00,0.0870
1056.00,0.0871
1055.00,0.0872
1054.00,0.0873
1053.00,0.0874
1052.00,0.0876
1051.00,0.0877
1050.00,0.0879
1049.00,0.0880
1048.00,0.0882
1047.00,0.0883
1046.00,0.0884
1045.00,0.0884
1044.00,0.0885
1043.00,0.0886
1042.00,0.0887
1041.00,0.0888
1040.00,0.0888
1039.00,0.0889
1038.00,0.0889
1037.00,0.0890
1036.00,0.0890
1035.00,0.0891
1034.00,0.0892
1033.00,0.0892
1032.00,0.0892
1031.00,0.0891
1030.00,0.0890
1029.00,0.0890
1028.00,0.0889
1027.00,0.0888
1026.00,0.0886
1025.00,0.0885
1024.00,0.0883
1023.00,0.0881
1022.00,0.0880
1021.00,0.0878
1020.00,0.0877
1019.00,0.0875
1018.00,0.0873
1017.00,0.0871
1016.00,0.0868
1015.00,0.0866
1014.00,0.0863
1013.00,0.0862
1012.00,0.0860
1011.00,0.0858
1010.00,0.0855
1009.00,0.0852
1008.00,0.0848
1007.00,0.0846
1006.00,0.0843
1005.00,0.0841
1004.00,0.0838
1003.00,0.0836
1002.00,0.0832
1001.00,0.0829
1000.00,0.0826
999.00,0.0823
998.00,0.0820
997.00,0.0817
996.00,0.0814
995.00,0.0811
994.00,0.0808
993.00,0.0804
992.00,0.0801
991.00,0.0798
990.00,0.0795
989.00,0.0792
988.00,0.0790
987.00,0.0787
986.00,0.0784
985.00,0.0782
984.00,0.0779
983.00,0.0777
982.00,0.0775
981.00,0.0773
980.00,0.0770
979.00,0.0767
978.00,0.0764
977.00,0.0761
976.00,0.0759
975.00,0.0757
974.00,0.0755
973.00,0.0753
972.00,0.0751
971.00,0.0748
970.00,0.0746
969.00,0.0745
968.00,0.0743
967.00,0.0741
966.00,0.0738
965.00,0.0736
964.00,0.0734
963.00,0.0732
962.00,0.0730
961.00,0.0729
960.00,0.0728
959.00,0.0726
958.00,0.0724
957.00,0.0722
956.00,0.0720
955.00,0.0718
954.00,0.0716
953.00,0.0714
952.00,0.0712
951.00,0.0711
950.00,0.0709
949.00,0.0708
948.00,0.0707
947.00,0.0706
946.00,0.0705
945.00,0.0703
944.00,0.0702
943.00,0.0701
942.00,0.0700
941.00,0.0699
940.00,0.0698
939.00,0.0698
938.00,0.0697
937.00,0.0696
936.00,0.0696
935.00,0.0695
934.00,0.0694
933.00,0.0693
932.00,0.0693
931.00,0.0693
930.00,0.0693
929.00,0.0693
928.00,0.0693
927.00,0.0693
926.00,0.0693
925.00,0.0694
924.00,0.0694
923.00,0.0694
922.00,0.0694
921.00,0.0694
920.00,0.0694
919.00,0.0695
918.00,0.0696
917.00,0.0697
916.00,0.0698
915.00,0.0699
914.00,0.0700
913.00,0.0701
912.00,0.0701
911.00,0.0701
910.00,0.0702
909.00,0.0702
908.00,0.0703
907.00,0.0703
906.00,0.0703
905.00,0.0704
904.00,0.0705
903.00,0.0706
902.00,0.0706
901.00,0.0706
900.00,0.0706
899.00,0.0707
898.00,0.0707
897.00,0.0708
896.00,0.0708
895.00,0.0709
894.00,0.0709
893.00,0.0710
892.00,0.0710
891.00,0.0710
890.00,0.0710
889.00,0.0709
888.00,0.0709
887.00,0.0710
886.00,0.0710
885.00,0.0711
884.00,0.0712
883.00,0.0713
882.00,0.0713
881.00,0.0713
880.00,0.0713
879.00,0.0712
878.00,0.0712
877.00,0.0711
876.00,0.0710
875.00,0.0709
874.00,0.0709
873.00,0.0709
872.00,0.0709
871.00,0.0708
870.00,0.0707
869.00,0.0706
868.00,0.0704
867.00,0.0703
866.00,0.0702
865.00,0.0701
864.00,0.0701
863.00,0.0700
862.00,0.0699
861.00,0.0698
860.00,0.0698
859.00,0.0698
858.00,0.0697
857.00,0.0697
856.00,0.0697
855.00,0.0696
854.00,0.0697
853.00,0.0697
852.00,0.0698
851.00,0.0700
850.00,0.0701
849.00,0.0703
848.00,0.0704
847.00,0.0705
846.00,0.0706
845.00,0.0708
844.00,0.0710
843.00,0.0713
842.00,0.0715
841.00,0.0717
840.00,0.0719
839.00,0.0720
838.00,0.0722
837.00,0.0724
836.00,0.0726
835.00,0.0729
834.00,0.0733
833.00,0.0735
832.00,0.0738
831.00,0.0740
830.00,0.0741
829.00,0.0743
828.00,0.0745
827.00,0.0747
826.00,0.0748
825.00,0.0750
824.00,0.0752
823.00,0.0753
822.00,0.0756
821.00,0.0758
820.00,0.0760
819.00,0.0762
818.00,0.0763
817.00,0.0764
816.00,0.0765
815.00,0.0766
814.00,0.0767
813.00,0.0768
812.00,0.0769
811.00,0.0771
810.00,0.0772
809.00,0.0773
808.00,0.0775
807.00,0.0776
806.00,0.0777
805.00,0.0779
804.00,0.0780
803.00,0.0781
802.00,0.0782
801.00,0.0784
800.00,0.0786
799.00,0.0788
798.00,0.0789
797.00,0.0790
796.00,0.0790
795.00,0.0791
794.00,0.0791
793.00,0.0791
792.00,0.0791
791.00,0.0791
790.00,0.0792
789.00,0.0793
788.00,0.0794
787.00,0.0796
786.00,0.0798
785.00,0.0799
784.00,0.0800
783.00,0.0801
782.00,0.0801
781.00,0.0801
780.00,0.0802
779.00,0.0803
778.00,0.0804
777.00,0.0806
776.00,0.0808
775.00,0.0809
774.00,0.0810
773.00,0.0812
772.00,0.0813
771.00,0.0814
770.00,0.0816
769.00,0.0817
768.00,0.0819
767.00,0.0821
766.00,0.0823
765.00,0.0825
764.00,0.0827
763.00,0.0828
762.00,0.0829
761.00,0.0830
760.00,0.0831
759.00,0.0832
758.00,0.0834
757.00,0.0835
756.00,0.0836
755.00,0.0837
754.00,0.0839
753.00,0.0841
752.00,0.0843
751.00,0.0843
750.00,0.0843
749.00,0.0843
748.00,0.0844
747.00,0.0844
746.00,0.0844
745.00,0.0844
744.00,0.0844
743.00,0.0845
742.00,0.0845
741.00,0.0846
740.00,0.0846
739.00,0.0846
738.00,0.0845
737.00,0.0844
736.00,0.0844
735.00,0.0845
734.00,0.0845
733.00,0.0845
732.00,0.0846
731.00,0.0848
730.00,0.0849
729.00,0.0849
728.00,0.0850
727.00,0.0851
726.00,0.0853
725.00,0.0855
724.00,0.0857
723.00,0.0858
722.00,0.0860
721.00,0.0863
720.00,0.0866
719.00,0.0869
718.00,0.0871
717.00,0.0872
716.00,0.0874
715.00,0.0875
714.00,0.0875
713.00,0.0874
712.00,0.0872
711.00,0.0871
710.00,0.0870
709.00,0.0871
708.00,0.0873
707.00,0.0875
706.00,0.0877
705.00,0.0879
704.00,0.0880
703.00,0.0880
702.00,0.0880
701.00,0.0880
700.00,0.0881
699.00,0.0882
698.00,0.0883
697.00,0.0884
696.00,0.0886
695.00,0.0888
694.00,0.0890
693.00,0.0892
692.00,0.0892
691.00,0.0892
690.00,0.0893
689.00,0.0894
688.00,0.0897
687.00,0.0899
686.00,0.0901
685.00,0.0902
684.00,0.0902
683.00,0.0903
682.00,0.0904
681.00,0.0905
680.00,0.0907
679.00,0.0907
678.00,0.0908
677.00,0.0910
676.00,0.0912
675.00,0.0914
674.00,0.0915
673.00,0.0915
672.00,0.0916
671.00,0.0915
670.00,0.0916
669.00,0.0921
668.00,0.0929
667.00,0.0936
666.00,0.0937
665.00,0.0933
664.00,0.0931
663.00,0.0931
662.00,0.0932
661.00,0.0933
660.00,0.0933
659.00,0.0934
658.00,0.0935
657.00,0.0937
656.00,0.0940
655.00,0.0942
654.00,0.0944
653.00,0.0945
652.00,0.0946
651.00,0.0948
650.00,0.0949
