Created as New Dataset,Sample 008 By Administrator Date Monday, March 20 2023
cm-1,A
4000.00,0.0109
3999.00,0.0109
3998.00,0.0109
3997.00,0.0109
3996.00,0.0109
3995.00,0.0109
3994.00,0.0109
3993.00,0.0109
3992.00,0.0109
3991.00,0.0109
3990.00,0.0109
3989.00,0.0109
3988.00,0.0109
3987.00,0.0109
3986.00,0.0109
3985.00,0.0109
3984.00,0.0109
3983.00,0.0108
3982.00,0.0109
3981.00,0.0109
3980.00,0.0109
3979.00,0.0109
3978.00,0.0109
3977.00,0.0109
3976.00,0.0109
3975.00,0.0109
3974.00,0.0108
3973.00,0.0108
3972.00,0.0108
3971.00,0.0108
3970.00,0.0108
3969.00,0.0108
3968.00,0.0108
3967.00,0.0108
3966.00,0.0108
3965.00,0.0108
3964.00,0.0108
3963.00,0.0108
3962.00,0.0108
3961.00,0.0108
3960.00,0.0108
3959.00,0.0108
3958.00,0.0108
3957.00,0.0108
3956.00,0.0108
3955.00,0.0108
3954.00,0.0108
3953.00,0.0108
3952.00,0.0108
3951.00,0.0108
3950.00,0.0108
3949.00,0.0108
3948.00,0.0108
3947.00,0.0108
3946.00,0.0108
3945.00,0.0108
3944.00,0.0107
3943.00,0.0107
3942.00,0.0107
3941.00,0.0107
3940.00,0.0108
3939.00,0.0108
3938.00,0.0108
3937.00,0.0108
3936.00,0.0108
3935.00,0.0108
3934.00,0.0108
3933.00,0.0108
3932.00,0.0108
3931.00,0.0108
3930.00,0.0107
3929.00,0.0107
3928.00,0.0107
3927.00,0.0107
3926.00,0.0107
3925.00,0.0106
3924.00,0.0107
3923.00,0.0107
3922.00,0.0107
3921.00,0.0108
3920.00,0.0108
3919.00,0.0108
3918.00,0.0108
3917.00,0.0108
3916.00,0.0107
3915.00,0.0107
3914.00,0.0107
3913.00,0.0106
3912.00,0.0106
3911.00,0.0106
3910.00,0.0106
3909.00,0.0106
3908.00,0.0106
3907.00,0.0106
3906.00,0.0107
3905.00,0.0107
3904.00,0.0108
3903.00,0.0109
3902.00,0.0109
3901.00,0.0108
3900.00,0.0108
3899.00,0.0107
3898.00,0.0107
3897.00,0.0107
3896.00,0.0107
3895.00,0.0107
3894.00,0.0107
3893.00,0.0107
3892.00,0.0106
3891.00,0.0106
3890.00,0.0106
3889.00,0.0106
3888.00,0.0107
3887.00,0.0107
3886.00,0.0107
3885.00,0.0107
3884.00,0.0107
3883.00,0.0106
3882.00,0.0106
3881.00,0.0105
3880.00,0.0105
3879.00,0.0105
3878.00,0.0106
3877.00,0.0106
3876.00,0.0106
3875.00,0.0105
3874.00,0.0105
3873.00,0.0105
3872.00,0.0106
3871.00,0.0107
3870.00,0.0107
3869.00,0.0107
3868.00,0.0107
3867.00,0.0108
3866.00,0.0108
3865.00,0.0108
3864.00,0.0107
3863.00,0.0107
3862.00,0.0107
3861.00,0.0107
3860.00,0.0107
3859.00,0.0106
3858.00,0.0106
3857.00,0.0106
3856.00,0.0106
3855.00,0.0106
3854.00,0.0106
3853.00,0.0106
3852.00,0.0105
3851.00,0.0105
3850.00,0.0105
3849.00,0.0106
3848.00,0.0106
3847.00,0.0106
3846.00,0.0105
3845.00,0.0105
3844.00,0.0105
3843.00,0.0105
3842.00,0.0105
3841.00,0.0105
3840.00,0.0105
3839.00,0.0105
3838.00,0.0105
3837.00,0.0105
3836.00,0.0105
3835.00,0.0105
3834.00,0.0105
3833.00,0.0105
3832.00,0.0105
3831.00,0.0105
3830.00,0.0105
3829.00,0.0104
3828.00,0.0104
3827.00,0.0104
3826.00,0.0104
3825.00,0.0105
3824.00,0.0105
3823.00,0.0105
3822.00,0.0105
3821.00,0.0105
3820.00,0.0105
3819.00,0.0104
3818.00,0.0104
3817.00,0.0104
3816.00,0.0103
3815.00,0.0103
3814.00,0.0103
3813.00,0.0103
3812.00,0.0103
3811.00,0.0103
3810.00,0.0103
3809.00,0.0103
3808.00,0.0103
3807.00,0.0104
3806.00,0.0104
3805.00,0.0103
3804.00,0.0103
3803.00,0.0103
3802.00,0.0102
3801.00,0.0102
3800.00,0.0102
3799.00,0.0102
3798.00,0.0102
3797.00,0.0102
3796.00,0.0102
3795.00,0.0101
3794.00,0.0101
3793.00,0.0101
3792.00,0.0101
3791.00,0.0100
3790.00,0.0100
3789.00,0.0100
3788.00,0.0100
3787.00,0.0100
3786.00,0.0100
3785.00,0.0100
3784.00,0.0100
3783.00,0.0100
3782.00,0.0100
3781.00,0.0100
3780.00,0.0099
3779.00,0.0099
3778.00,0.0099
3777.00,0.0099
3776.00,0.0099
3775.00,0.0099
3774.00,0.0099
3773.00,0.0099
3772.00,0.0099
3771.00,0.0099
3770.00,0.0100
3769.00,0.0100
3768.00,0.0100
3767.00,0.0100
3766.00,0.0100
3765.00,0.0100
3764.00,0.0100
3763.00,0.0100
3762.00,0.0100
3761.00,0.0100
3760.00,0.0099
3759.00,0.0099
3758.00,0.0099
3757.00,0.0100
3756.00,0.0100
3755.00,0.0101
3754.00,0.0101
3753.00,0.0102
3752.00,0.0103
3751.00,0.0104
3750.00,0.0104
3749.00,0.0104
3748.00,0.0104
3747.00,0.0103
3746.00,0.0102
3745.00,0.0101
3744.00,0.0100
3743.00,0.0100
3742.00,0.0101
3741.00,0.0101
3740.00,0.0102
3739.00,0.0102
3738.00,0.0102
3737.00,0.0102
3736.00,0.0101
3735.00,0.0100
3734.00,0.0099
3733.00,0.0099
3732.00,0.0099
3731.00,0.0099
3730.00,0.0099
3729.00,0.0099
3728.00,0.0099
3727.00,0.0099
3726.00,0.0099
3725.00,0.0098
3724.00,0.0098
3723.00,0.0097
3722.00,0.0096
3721.00,0.0096
3720.00,0.0096
3719.00,0.0096
3718.00,0.0096
3717.00,0.0096
3716.00,0.0096
3715.00,0.0097
3714.00,0.0097
3713.00,0.0097
3712.00,0.0097
3711.00,0.0097
3710.00,0.0096
3709.00,0.0096
3708.00,0.0096
3707.00,0.0096
3706.00,0.0095
3705.00,0.0095
3704.00,0.0095
3703.00,0.0094
3702.00,0.0094
3701.00,0.0094
3700.00,0.0094
3699.00,0.0094
3698.00,0.0095
3697.00,0.0095
3696.00,0.0095
3695.00,0.0095
3694.00,0.0095
3693.00,0.0096
3692.00,0.0096
3691.00,0.0096
3690.00,0.0096
3689.00,0.0096
3688.00,0.0096
3687.00,0.0096
3686.00,0.0096
3685.00,0.0096
3684.00,0.0096
3683.00,0.0096
3682.00,0.0097
3681.00,0.0097
3680.00,0.0097
3679.00,0.0098
3678.00,0.0098
3677.00,0.0098
3676.00,0.0099
3675.00,0.0099
3674.00,0.0100
3673.00,0.0101
3672.00,0.0102
3671.00,0.0102
3670.00,0.0101
3669.00,0.0100
3668.00,0.0100
3667.00,0.0100
3666.00,0.0101
3665.00,0.0101
3664.00,0.0101
3663.00,0.0101
3662.00,0.0101
3661.00,0.0102
3660.00,0.0103
3659.00,0.0103
3658.00,0.0104
3657.00,0.0105
3656.00,0.0105
3655.00,0.0106
3654.00,0.0106
3653.00,0.0107
3652.00,0.0108
3651.00,0.0109
3650.00,0.0111
3649.00,0.0111
3648.00,0.0111
3647.00,0.0111
3646.00,0.0111
3645.00,0.0111
3644.00,0.0111
3643.00,0.0111
3642.00,0.0110
3641.00,0.0110
3640.00,0.0111
3639.00,0.0111
3638.00,0.0111
3637.00,0.0112
3636.00,0.0112
3635.00,0.0113
3634.00,0.0113
3633.00,0.0114
3632.00,0.0115
3631.00,0.0116
3630.00,0.0117
3629.00,0.0118
3628.00,0.0119
3627.00,0.0119
3626.00,0.0119
3625.00,0.0119
3624.00,0.0118
3623.00,0.0119
3622.00,0.0119
3621.00,0.0119
3620.00,0.0119
3619.00,0.0120
3618.00,0.0120
3617.00,0.0121
3616.00,0.0121
3615.00,0.0122
3614.00,0.0122
3613.00,0.0123
3612.00,0.0124
3611.00,0.0125
3610.00,0.0125
3609.00,0.0125
3608.00,0.0125
3607.00,0.0124
3606.00,0.0124
3605.00,0.0124
3604.00,0.0124
3603.00,0.0124
3602.00,0.0125
3601.00,0.0125
3600.00,0.0126
3599.00,0.0126
3598.00,0.0126
3597.00,0.0126
3596.00,0.0126
3595.00,0.0127
3594.00,0.0127
3593.00,0.0127
3592.00,0.0128
3591.00,0.0128
3590.00,0.0129
3589.00,0.0129
3588.00,0.0130
3587.00,0.0130
3586.00,0.0130
3585.00,0.0130
3584.00,0.0131
3583.00,0.0131
3582.00,0.0130
3581.00,0.0130
3580.00,0.0130
3579.00,0.0131
3578.00,0.0131
3577.00,0.0132
3576.00,0.0132
3575.00,0.0132
3574.00,0.0133
3573.00,0.0133
3572.00,0.0133
3571.00,0.0133
3570.00,0.0133
3569.00,0.0134
3568.00,0.0135
3567.00,0.0136
3566.00,0.0137
3565.00,0.0137
3564.00,0.0138
3563.00,0.0138
3562.00,0.0138
3561.00,0.0138
3560.00,0.0138
3559.00,0.0138
3558.00,0.0139
3557.00,0.0139
3556.00,0.0139
3555.00,0.0139
3554.00,0.0140
3553.00,0.0141
3552.00,0.0141
3551.00,0.0142
3550.00,0.0142
3549.00,0.0143
3548.00,0.0143
3547.00,0.0144
3546.00,0.0144
3545.00,0.0144
3544.00,0.0144
3543.00,0.0145
3542.00,0.0145
3541.00,0.0145
3540.00,0.0145
3539.00,0.0145
3538.00,0.0145
3537.00,0.0146
3536.00,0.0146
3535.00,0.0146
3534.00,0.0147
3533.00,0.0147
3532.00,0.0147
3531.00,0.0148
3530.00,0.0148
3529.00,0.0149
3528.00,0.0149
3527.00,0.0150
3526.00,0.0151
3525.00,0.0151
3524.00,0.0151
3523.00,0.0151
3522.00,0.0151
3521.00,0.0151
3520.00,0.0152
3519.00,0.0152
3518.00,0.0152
3517.00,0.0152
3516.00,0.0152
3515.00,0.0152
3514.00,0.0153
3513.00,0.0153
3512.00,0.0154
3511.00,0.0154
3510.00,0.0155
3509.00,0.0155
3508.00,0.0155
3507.00,0.0155
3506.00,0.0156
3505.00,0.0156
3504.00,0.0156
3503.00,0.0157
3502.00,0.0157
3501.00,0.0158
3500.00,0.0158
3499.00,0.0158
3498.00,0.0158
3497.00,0.0158
3496.00,0.0158
3495.00,0.0159
3494.00,0.0159
3493.00,0.0159
3492.00,0.0160
3491.00,0.0160
3490.00,0.0160
3489.00,0.0160
3488.00,0.0161
3487.00,0.0161
3486.00,0.0161
3485.00,0.0161
3484.00,0.0162
3483.00,0.0162
3482.00,0.0162
3481.00,0.0162
3480.00,0.0163
3479.00,0.0163
3478.00,0.0163
3477.00,0.0164
3476.00,0.0164
3475.00,0.0164
3474.00,0.0165
3473.00,0.0165
3472.00,0.0165
3471.00,0.0165
3470.00,0.0165
3469.00,0.0166
3468.00,0.0166
3467.00,0.0167
3466.00,0.0167
3465.00,0.0168
3464.00,0.0168
3463.00,0.0168
3462.00,0.0168
3461.00,0.0169
3460.00,0.0169
3459.00,0.0169
3458.00,0.0169
3457.00,0.0169
3456.00,0.0169
3455.00,0.0170
3454.00,0.0170
3453.00,0.0170
3452.00,0.0171
3451.00,0.0171
3450.00,0.0171
3449.00,0.0171
3448.00,0.0172
3447.00,0.0172
3446.00,0.0172
3445.00,0.0173
3444.00,0.0173
3443.00,0.0173
3442.00,0.0174
3441.00,0.0174
3440.00,0.0174
3439.00,0.0174
3438.00,0.0174
3437.00,0.0174
3436.00,0.0174
3435.00,0.0174
3434.00,0.0174
3433.00,0.0174
3432.00,0.0175
3431.00,0.0175
3430.00,0.0175
3429.00,0.0176
3428.00,0.0176
3427.00,0.0177
3426.00,0.0177
3425.00,0.0177
3424.00,0.0177
3423.00,0.0178
3422.00,0.0178
3421.00,0.0178
3420.00,0.0178
3419.00,0.0178
3418.00,0.0178
3417.00,0.0178
3416.00,0.0178
3415.00,0.0179
3414.00,0.0179
3413.00,0.0179
3412.00,0.0179
3411.00,0.0179
3410.00,0.0179
3409.00,0.0179
3408.00,0.0180
3407.00,0.0180
3406.00,0.0180
3405.00,0.0180
3404.00,0.0180
3403.00,0.0180
3402.00,0.0180
3401.00,0.0180
3400.00,0.0180
3399.00,0.0180
3398.00,0.0181
3397.00,0.0181
3396.00,0.0181
3395.00,0.0181
3394.00,0.0181
3393.00,0.0181
3392.00,0.0181
3391.00,0.0182
3390.00,0.0182
3389.00,0.0182
3388.00,0.0183
3387.00,0.0183
3386.00,0.0183
3385.00,0.0183
3384.00,0.0183
3383.00,0.0183
3382.00,0.0183
3381.00,0.0183
3380.00,0.0183
3379.00,0.0183
3378.00,0.0183
3377.00,0.0183
3376.00,0.0183
3375.00,0.0183
3374.00,0.0183
3373.00,0.0183
3372.00,0.0183
3371.00,0.0182
3370.00,0.0182
3369.00,0.0182
3368.00,0.0183
3367.00,0.0183
3366.00,0.0184
3365.00,0.0184
3364.00,0.0185
3363.00,0.0185
3362.00,0.0185
3361.00,0.0184
3360.00,0.0184
3359.00,0.0184
3358.00,0.0184
3357.00,0.0185
3356.00,0.0185
3355.00,0.0185
3354.00,0.0184
3353.00,0.0184
3352.00,0.0184
3351.00,0.0184
3350.00,0.0184
3349.00,0.0184
3348.00,0.0184
3347.00,0.0184
3346.00,0.0184
3345.00,0.0184
3344.00,0.0184
3343.00,0.0184
3342.00,0.0184
3341.00,0.0183
3340.00,0.0183
3339.00,0.0183
3338.00,0.0183
3337.00,0.0184
3336.00,0.0184
3335.00,0.0184
3334.00,0.0184
3333.00,0.0184
3332.00,0.0184
3331.00,0.0184
3330.00,0.0184
3329.00,0.0184
3328.00,0.0183
3327.00,0.0183
3326.00,0.0183
3325.00,0.0183
3324.00,0.0184
3323.00,0.0184
3322.00,0.0184
3321.00,0.0184
3320.00,0.0184
3319.00,0.0184
3318.00,0.0184
3317.00,0.0184
3316.00,0.0184
3315.00,0.0184
3314.00,0.0184
3313.00,0.0184
3312.00,0.0183
3311.00,0.0183
3310.00,0.0182
3309.00,0.0182
3308.00,0.0182
3307.00,0.0182
3306.00,0.0182
3305.00,0.0182
3304.00,0.0183
3303.00,0.0183
3302.00,0.0183
3301.00,0.0183
3300.00,0.0183
3299.00,0.0183
3298.00,0.0182
3297.00,0.0182
3296.00,0.0182
3295.00,0.0182
3294.00,0.0182
3293.00,0.0182
3292.00,0.0182
3291.00,0.0183
3290.00,0.0183
3289.00,0.0183
3288.00,0.0184
3287.00,0.0184
3286.00,0.0184
3285.00,0.0184
3284.00,0.0184
3283.00,0.0184
3282.00,0.0183
3281.00,0.0183
3280.00,0.0183
3279.00,0.0183
3278.00,0.0183
3277.00,0.0182
3276.00,0.0182
3275.00,0.0182
3274.00,0.0181
3273.00,0.0181
3272.00,0.0181
3271.00,0.0181
3270.00,0.0181
3269.00,0.0182
3268.00,0.0183
3267.00,0.0183
3266.00,0.0183
3265.00,0.0183
3264.00,0.0183
3263.00,0.0183
3262.00,0.0184
3261.00,0.0184
3260.00,0.0183
3259.00,0.0183
3258.00,0.0183
3257.00,0.0182
3256.00,0.0182
3255.00,0.0183
3254.00,0.0183
3253.00,0.0183
3252.00,0.0183
3251.00,0.0183
3250.00,0.0182
3249.00,0.0181
3248.00,0.0181
3247.00,0.0181
3246.00,0.0181
3245.00,0.0182
3244.00,0.0182
3243.00,0.0183
3242.00,0.0183
3241.00,0.0183
3240.00,0.0182
3239.00,0.0182
3238.00,0.0182
3237.00,0.0181
3236.00,0.0181
3235.00,0.0180
3234.00,0.0180
3233.00,0.0180
3232.00,0.0181
3231.00,0.0181
3230.00,0.0181
3229.00,0.0182
3228.00,0.0182
3227.00,0.0182
3226.00,0.0182
3225.00,0.0182
3224.00,0.0182
3223.00,0.0182
3222.00,0.0182
3221.00,0.0182
3220.00,0.0182
3219.00,0.0182
3218.00,0.0182
3217.00,0.0181
3216.00,0.0181
3215.00,0.0181
3214.00,0.0181
3213.00,0.0181
3212.00,0.0181
3211.00,0.0181
3210.00,0.0181
3209.00,0.0181
3208.00,0.0181
3207.00,0.0180
3206.00,0.0180
3205.00,0.0180
3204.00,0.0180
3203.00,0.0180
3202.00,0.0180
3201.00,0.0180
3200.00,0.0180
3199.00,0.0180
3198.00,0.0180
3197.00,0.0180
3196.00,0.0180
3195.00,0.0180
3194.00,0.0180
3193.00,0.0179
3192.00,0.0179
3191.00,0.0179
3190.00,0.0179
3189.00,0.0179
3188.00,0.0179
3187.00,0.0179
3186.00,0.0179
3185.00,0.0179
3184.00,0.0179
3183.00,0.0178
3182.00,0.0178
3181.00,0.0178
3180.00,0.0178
3179.00,0.0178
3178.00,0.0178
3177.00,0.0178
3176.00,0.0178
3175.00,0.0178
3174.00,0.0178
3173.00,0.0177
3172.00,0.0177
3171.00,0.0177
3170.00,0.0177
3169.00,0.0177
3168.00,0.0177
3167.00,0.0177
3166.00,0.0177
3165.00,0.0176
3164.00,0.0176
3163.00,0.0176
3162.00,0.0176
3161.00,0.0175
3160.00,0.0175
3159.00,0.0175
3158.00,0.0175
3157.00,0.0174
3156.00,0.0173
3155.00,0.0172
3154.00,0.0171
3153.00,0.0171
3152.00,0.0171
3151.00,0.0172
3150.00,0.0173
3149.00,0.0173
3148.00,0.0173
3147.00,0.0173
3146.00,0.0173
3145.00,0.0173
3144.00,0.0173
3143.00,0.0172
3142.00,0.0171
3141.00,0.0170
3140.00,0.0170
3139.00,0.0170
3138.00,0.0170
3137.00,0.0171
3136.00,0.0171
3135.00,0.0171
3134.00,0.0171
3133.00,0.0171
3132.00,0.0170
3131.00,0.0170
3130.00,0.0170
3129.00,0.0170
3128.00,0.0170
3127.00,0.0170
3126.00,0.0170
3125.00,0.0170
3124.00,0.0169
3123.00,0.0168
3122.00,0.0167
3121.00,0.0166
3120.00,0.0165
3119.00,0.0165
3118.00,0.0164
3117.00,0.0165
3116.00,0.0165
3115.00,0.0166
3114.00,0.0167
3113.00,0.0167
3112.00,0.0167
3111.00,0.0166
3110.00,0.0166
3109.00,0.0166
3108.00,0.0166
3107.00,0.0167
3106.00,0.0167
3105.00,0.0167
3104.00,0.0167
3103.00,0.0167
3102.00,0.0166
3101.00,0.0166
3100.00,0.0165
3099.00,0.0166
3098.00,0.0166
3097.00,0.0166
3096.00,0.0166
3095.00,0.0166
3094.00,0.0166
3093.00,0.0165
3092.00,0.0164
3091.00,0.0164
3090.00,0.0163
3089.00,0.0163
3088.00,0.0163
3087.00,0.0163
3086.00,0.0162
3085.00,0.0162
3084.00,0.0162
3083.00,0.0161
3082.00,0.0161
3081.00,0.0161
3080.00,0.0161
3079.00,0.0161
3078.00,0.0161
3077.00,0.0162
3076.00,0.0162
3075.00,0.0163
3074.00,0.0163
3073.00,0.0163
3072.00,0.0162
3071.00,0.0162
3070.00,0.0161
3069.00,0.0161
3068.00,0.0160
3067.00,0.0160
3066.00,0.0161
3065.00,0.0161
3064.00,0.0161
3063.00,0.0161
3062.00,0.0161
3061.00,0.0161
3060.00,0.0161
3059.00,0.0160
3058.00,0.0160
3057.00,0.0160
3056.00,0.0159
3055.00,0.0159
3054.00,0.0159
3053.00,0.0159
3052.00,0.0158
3051.00,0.0158
3050.00,0.0158
3049.00,0.0158
3048.00,0.0158
3047.00,0.0157
3046.00,0.0157
3045.00,0.0156
3044.00,0.0156
3043.00,0.0156
3042.00,0.0156
3041.00,0.0156
3040.00,0.0156
3039.00,0.0156
3038.00,0.0156
3037.00,0.0156
3036.00,0.0155
3035.00,0.0155
3034.00,0.0155
3033.00,0.0155
3032.00,0.0155
3031.00,0.0156
3030.00,0.0156
3029.00,0.0156
3028.00,0.0155
3027.00,0.0155
3026.00,0.0155
3025.00,0.0154
3024.00,0.0154
3023.00,0.0154
3022.00,0.0154
3021.00,0.0154
3020.00,0.0153
3019.00,0.0153
3018.00,0.0153
3017.00,0.0152
3016.00,0.0152
3015.00,0.0152
3014.00,0.0152
3013.00,0.0152
3012.00,0.0153
3011.00,0.0154
3010.00,0.0154
3009.00,0.0155
3008.00,0.0155
3007.00,0.0156
3006.00,0.0156
3005.00,0.0156
3004.00,0.0156
3003.00,0.0157
3002.00,0.0157
3001.00,0.0157
3000.00,0.0157
2999.00,0.0156
2998.00,0.0157
2997.00,0.0157
2996.00,0.0157
2995.00,0.0157
2994.00,0.0157
2993.00,0.0157
2992.00,0.0158
2991.00,0.0158
2990.00,0.0159
2989.00,0.0159
2988.00,0.0160
2987.00,0.0160
2986.00,0.0160
2985.00,0.0161
2984.00,0.0162
2983.00,0.0163
2982.00,0.0163
2981.00,0.0163
2980.00,0.0163
2979.00,0.0162
2978.00,0.0162
2977.00,0.0161
2976.00,0.0161
2975.00,0.0160
2974.00,0.0161
2973.00,0.0161
2972.00,0.0161
2971.00,0.0161
2970.00,0.0161
2969.00,0.0160
2968.00,0.0159
2967.00,0.0159
2966.00,0.0159
2965.00,0.0158
2964.00,0.0158
2963.00,0.0157
2962.00,0.0157
2961.00,0.0157
2960.00,0.0157
2959.00,0.0157
2958.00,0.0156
2957.00,0.0156
2956.00,0.0156
2955.00,0.0155
2954.00,0.0154
2953.00,0.0154
2952.00,0.0154
2951.00,0.0154
2950.00,0.0153
2949.00,0.0153
2948.00,0.0152
2947.00,0.0152
2946.00,0.0152
2945.00,0.0151
2944.00,0.0152
2943.00,0.0152
2942.00,0.0152
2941.00,0.0153
2940.00,0.0153
2939.00,0.0153
2938.00,0.0153
2937.00,0.0153
2936.00,0.0152
2935.00,0.0152
2934.00,0.0152
2933.00,0.0152
2932.00,0.0151
2931.00,0.0151
2930.00,0.0151
2929.00,0.0151
2928.00,0.0152
2927.00,0.0152
2926.00,0.0152
2925.00,0.0152
2924.00,0.0152
2923.00,0.0152
2922.00,0.0151
2921.00,0.0151
2920.00,0.0150
2919.00,0.0150
2918.00,0.0149
2917.00,0.0149
2916.00,0.0149
2915.00,0.0149
2914.00,0.0149
2913.00,0.0149
2912.00,0.0149
2911.00,0.0149
2910.00,0.0149
2909.00,0.0150
2908.00,0.0150
2907.00,0.0149
2906.00,0.0149
2905.00,0.0149
2904.00,0.0149
2903.00,0.0149
2902.00,0.0149
2901.00,0.0149
2900.00,0.0148
2899.00,0.0148
2898.00,0.0148
2897.00,0.0148
2896.00,0.0148
2895.00,0.0148
2894.00,0.0149
2893.00,0.0149
2892.00,0.0149
2891.00,0.0149
2890.00,0.0149
2889.00,0.0149
2888.00,0.0149
2887.00,0.0149
2886.00,0.0149
2885.00,0.0149
2884.00,0.0148
2883.00,0.0148
2882.00,0.0148
2881.00,0.0147
2880.00,0.0147
2879.00,0.0146
2878.00,0.0146
2877.00,0.0145
2876.00,0.0145
2875.00,0.0144
2874.00,0.0144
2873.00,0.0144
2872.00,0.0144
2871.00,0.0144
2870.00,0.0144
2869.00,0.0144
2868.00,0.0144
2867.00,0.0144
2866.00,0.0144
2865.00,0.0143
2864.00,0.0143
2863.00,0.0143
2862.00,0.0143
2861.00,0.0143
2860.00,0.0143
2859.00,0.0143
2858.00,0.0143
2857.00,0.0143
2856.00,0.0143
2855.00,0.0143
2854.00,0.0142
2853.00,0.0142
2852.00,0.0142
2851.00,0.0142
2850.00,0.0141
2849.00,0.0141
2848.00,0.0141
2847.00,0.0141
2846.00,0.0141
2845.00,0.0141
2844.00,0.0140
2843.00,0.0140
2842.00,0.0139
2841.00,0.0138
2840.00,0.0138
2839.00,0.0137
2838.00,0.0138
2837.00,0.0138
2836.00,0.0138
2835.00,0.0138
2834.00,0.0138
2833.00,0.0138
2832.00,0.0138
2831.00,0.0138
2830.00,0.0138
2829.00,0.0138
2828.00,0.0138
2827.00,0.0138
2826.00,0.0137
2825.00,0.0137
2824.00,0.0137
2823.00,0.0137
2822.00,0.0137
2821.00,0.0137
2820.00,0.0137
2819.00,0.0136
2818.00,0.0136
2817.00,0.0136
2816.00,0.0136
2815.00,0.0136
2814.00,0.0136
2813.00,0.0136
2812.00,0.0135
2811.00,0.0135
2810.00,0.0135
2809.00,0.0135
2808.00,0.0135
2807.00,0.0135
2806.00,0.0135
2805.00,0.0135
2804.00,0.0135
2803.00,0.0135
2802.00,0.0135
2801.00,0.0134
2800.00,0.0134
2799.00,0.0134
2798.00,0.0134
2797.00,0.0134
2796.00,0.0134
2795.00,0.0134
2794.00,0.0134
2793.00,0.0133
2792.00,0.0133
2791.00,0.0133
2790.00,0.0132
2789.00,0.0132
2788.00,0.0133
2787.00,0.0133
2786.00,0.0133
2785.00,0.0133
2784.00,0.0133
2783.00,0.0133
2782.00,0.0133
2781.00,0.0133
2780.00,0.0133
2779.00,0.0133
2778.00,0.0132
2777.00,0.0132
2776.00,0.0132
2775.00,0.0131
2774.00,0.0131
2773.00,0.0132
2772.00,0.0132
2771.00,0.0132
2770.00,0.0132
2769.00,0.0132
2768.00,0.0132
2767.00,0.0132
2766.00,0.0132
2765.00,0.0132
2764.00,0.0132
2763.00,0.0132
2762.00,0.0131
2761.00,0.0131
2760.00,0.0131
2759.00,0.0131
2758.00,0.0131
2757.00,0.0131
2756.00,0.0131
2755.00,0.0131
2754.00,0.0131
2753.00,0.0130
2752.00,0.0130
2751.00,0.0130
2750.00,0.0130
2749.00,0.0129
2748.00,0.0129
2747.00,0.0130
2746.00,0.0130
2745.00,0.0130
2744.00,0.0130
2743.00,0.0130
2742.00,0.0130
2741.00,0.0130
2740.00,0.0129
2739.00,0.0129
2738.00,0.0129
2737.00,0.0129
2736.00,0.0129
2735.00,0.0129
2734.00,0.0129
2733.00,0.0129
2732.00,0.0129
2731.00,0.0129
2730.00,0.0129
2729.00,0.0128
2728.00,0.0128
2727.00,0.0128
2726.00,0.0128
2725.00,0.0128
2724.00,0.0128
2723.00,0.0128
2722.00,0.0128
2721.00,0.0128
2720.00,0.0128
2719.00,0.0128
2718.00,0.0128
2717.00,0.0128
2716.00,0.0128
2715.00,0.0128
2714.00,0.0127
2713.00,0.0127
2712.00,0.0127
2711.00,0.0127
2710.00,0.0127
2709.00,0.0126
2708.00,0.0126
2707.00,0.0126
2706.00,0.0126
2705.00,0.0127
2704.00,0.0127
2703.00,0.0127
2702.00,0.0127
2701.00,0.0127
2700.00,0.0126
2699.00,0.0126
2698.00,0.0126
2697.00,0.0126
2696.00,0.0126
2695.00,0.0126
2694.00,0.0126
2693.00,0.0126
2692.00,0.0126
2691.00,0.0126
2690.00,0.0126
2689.00,0.0125
2688.00,0.0125
2687.00,0.0125
2686.00,0.0125
2685.00,0.0125
2684.00,0.0125
2683.00,0.0125
2682.00,0.0125
2681.00,0.0124
2680.00,0.0125
2679.00,0.0125
2678.00,0.0124
2677.00,0.0125
2676.00,0.0125
2675.00,0.0125
2674.00,0.0125
2673.00,0.0125
2672.00,0.0125
2671.00,0.0125
2670.00,0.0125
2669.00,0.0125
2668.00,0.0125
2667.00,0.0125
2666.00,0.0125
2665.00,0.0125
2664.00,0.0125
2663.00,0.0125
2662.00,0.0126
2661.00,0.0126
2660.00,0.0126
2659.00,0.0126
2658.00,0.0126
2657.00,0.0126
2656.00,0.0125
2655.00,0.0125
2654.00,0.0125
2653.00,0.0125
2652.00,0.0124
2651.00,0.0124
2650.00,0.0124
2649.00,0.0124
2648.00,0.0123
2647.00,0.0123
2646.00,0.0123
2645.00,0.0123
2644.00,0.0123
2643.00,0.0122
2642.00,0.0122
2641.00,0.0122
2640.00,0.0122
2639.00,0.0121
2638.00,0.0121
2637.00,0.0121
2636.00,0.0121
2635.00,0.0120
2634.00,0.0120
2633.00,0.0120
2632.00,0.0120
2631.00,0.0119
2630.00,0.0119
2629.00,0.0119
2628.00,0.0119
2627.00,0.0119
2626.00,0.0118
2625.00,0.0118
2624.00,0.0118
2623.00,0.0118
2622.00,0.0118
2621.00,0.0118
2620.00,0.0117
2619.00,0.0117
2618.00,0.0117
2617.00,0.0117
2616.00,0.0117
2615.00,0.0116
2614.00,0.0116
2613.00,0.0116
2612.00,0.0116
2611.00,0.0116
2610.00,0.0116
2609.00,0.0115
2608.00,0.0115
2607.00,0.0115
2606.00,0.0115
2605.00,0.0115
2604.00,0.0115
2603.00,0.0114
2602.00,0.0114
2601.00,0.0114
2600.00,0.0114
2599.00,0.0114
2598.00,0.0114
2597.00,0.0114
2596.00,0.0114
2595.00,0.0114
2594.00,0.0113
2593.00,0.0113
2592.00,0.0113
2591.00,0.0113
2590.00,0.0113
2589.00,0.0113
2588.00,0.0113
2587.00,0.0113
2586.00,0.0112
2585.00,0.0112
2584.00,0.0112
2583.00,0.0112
2582.00,0.0112
2581.00,0.0112
2580.00,0.0112
2579.00,0.0111
2578.00,0.0111
2577.00,0.0111
2576.00,0.0111
2575.00,0.0111
2574.00,0.0111
2573.00,0.0111
2572.00,0.0111
2571.00,0.0111
2570.00,0.0111
2569.00,0.0110
2568.00,0.0110
2567.00,0.0110
2566.00,0.0110
2565.00,0.0110
2564.00,0.0111
2563.00,0.0110
2562.00,0.0110
2561.00,0.0110
2560.00,0.0110
2559.00,0.0110
2558.00,0.0110
2557.00,0.0110
2556.00,0.0110
2555.00,0.0110
2554.00,0.0109
2553.00,0.0109
2552.00,0.0109
2551.00,0.0109
2550.00,0.0109
2549.00,0.0109
2548.00,0.0109
2547.00,0.0108
2546.00,0.0108
2545.00,0.0108
2544.00,0.0108
2543.00,0.0108
2542.00,0.0108
2541.00,0.0108
2540.00,0.0107
2539.00,0.0108
2538.00,0.0108
2537.00,0.0108
2536.00,0.0108
2535.00,0.0108
2534.00,0.0108
2533.00,0.0108
2532.00,0.0108
2531.00,0.0108
2530.00,0.0107
2529.00,0.0107
2528.00,0.0107
2527.00,0.0107
2526.00,0.0107
2525.00,0.0107
2524.00,0.0107
2523.00,0.0107
2522.00,0.0107
2521.00,0.0106
2520.00,0.0106
2519.00,0.0106
2518.00,0.0106
2517.00,0.0106
2516.00,0.0106
2515.00,0.0106
2514.00,0.0106
2513.00,0.0106
2512.00,0.0106
2511.00,0.0105
2510.00,0.0106
2509.00,0.0106
2508.00,0.0106
2507.00,0.0106
2506.00,0.0105
2505.00,0.0105
2504.00,0.0105
2503.00,0.0105
2502.00,0.0106
2501.00,0.0106
2500.00,0.0106
2499.00,0.0106
2498.00,0.0105
2497.00,0.0105
2496.00,0.0105
2495.00,0.0105
2494.00,0.0105
2493.00,0.0104
2492.00,0.0104
2491.00,0.0104
2490.00,0.0104
2489.00,0.0104
2488.00,0.0104
2487.00,0.0104
2486.00,0.0104
2485.00,0.0104
2484.00,0.0104
2483.00,0.0104
2482.00,0.0104
2481.00,0.0104
2480.00,0.0104
2479.00,0.0104
2478.00,0.0103
2477.00,0.0103
2476.00,0.0103
2475.00,0.0103
2474.00,0.0103
2473.00,0.0103
2472.00,0.0103
2471.00,0.0104
2470.00,0.0104
2469.00,0.0104
2468.00,0.0103
2467.00,0.0103
2466.00,0.0103
2465.00,0.0102
2464.00,0.0102
2463.00,0.0102
2462.00,0.0102
2461.00,0.0102
2460.00,0.0103
2459.00,0.0103
2458.00,0.0103
2457.00,0.0104
2456.00,0.0104
2455.00,0.0104
2454.00,0.0104
2453.00,0.0104
2452.00,0.0103
2451.00,0.0103
2450.00,0.0103
2449.00,0.0103
2448.00,0.0103
2447.00,0.0103
2446.00,0.0103
2445.00,0.0102
2444.00,0.0102
2443.00,0.0102
2442.00,0.0102
2441.00,0.0102
2440.00,0.0101
2439.00,0.0101
2438.00,0.0101
2437.00,0.0101
2436.00,0.0101
2435.00,0.0101
2434.00,0.0101
2433.00,0.0101
2432.00,0.0100
2431.00,0.0100
2430.00,0.0100
2429.00,0.0100
2428.00,0.0100
2427.00,0.0100
2426.00,0.0100
2425.00,0.0100
2424.00,0.0100
2423.00,0.0100
2422.00,0.0100
2421.00,0.0100
2420.00,0.0099
2419.00,0.0099
2418.00,0.0099
2417.00,0.0099
2416.00,0.0099
2415.00,0.0099
2414.00,0.0099
2413.00,0.0099
2412.00,0.0099
2411.00,0.0099
2410.00,0.0099
2409.00,0.0099
2408.00,0.0098
2407.00,0.0098
2406.00,0.0098
2405.00,0.0098
2404.00,0.0098
2403.00,0.0098
2402.00,0.0097
2401.00,0.0097
2400.00,0.0097
2399.00,0.0097
2398.00,0.0097
2397.00,0.0097
2396.00,0.0097
2395.00,0.0097
2394.00,0.0097
2393.00,0.0097
2392.00,0.0097
2391.00,0.0097
2390.00,0.0097
2389.00,0.0096
2388.00,0.0096
2387.00,0.0096
2386.00,0.0096
2385.00,0.0096
2384.00,0.0096
2383.00,0.0096
2382.00,0.0095
2381.00,0.0095
2380.00,0.0095
2379.00,0.0095
2378.00,0.0095
2377.00,0.0095
2376.00,0.0095
2375.00,0.0095
2374.00,0.0095
2373.00,0.0095
2372.00,0.0095
2371.00,0.0094
2370.00,0.0094
2369.00,0.0094
2368.00,0.0094
2367.00,0.0094
2366.00,0.0094
2365.00,0.0094
2364.00,0.0095
2363.00,0.0095
2362.00,0.0096
2361.00,0.0096
2360.00,0.0096
2359.00,0.0096
2358.00,0.0096
2357.00,0.0095
2356.00,0.0095
2355.00,0.0095
2354.00,0.0096
2353.00,0.0096
2352.00,0.0095
2351.00,0.0095
2350.00,0.0095
2349.00,0.0095
2348.00,0.0096
2347.00,0.0097
2346.00,0.0098
2345.00,0.0098
2344.00,0.0097
2343.00,0.0096
2342.00,0.0096
2341.00,0.0097
2340.00,0.0097
2339.00,0.0097
2338.00,0.0097
2337.00,0.0098
2336.00,0.0097
2335.00,0.0097
2334.00,0.0097
2333.00,0.0097
2332.00,0.0097
2331.00,0.0096
2330.00,0.0096
2329.00,0.0097
2328.00,0.0099
2327.00,0.0102
2326.00,0.0105
2325.00,0.0106
2324.00,0.0106
2323.00,0.0104
2322.00,0.0102
2321.00,0.0101
2320.00,0.0099
2319.00,0.0098
2318.00,0.0097
2317.00,0.0097
2316.00,0.0097
2315.00,0.0097
2314.00,0.0097
2313.00,0.0096
2312.00,0.0096
2311.00,0.0095
2310.00,0.0094
2309.00,0.0094
2308.00,0.0093
2307.00,0.0093
2306.00,0.0093
2305.00,0.0093
2304.00,0.0094
2303.00,0.0094
2302.00,0.0094
2301.00,0.0094
2300.00,0.0094
2299.00,0.0095
2298.00,0.0095
2297.00,0.0095
2296.00,0.0096
2295.00,0.0096
2294.00,0.0097
2293.00,0.0098
2292.00,0.0099
2291.00,0.0099
2290.00,0.0100
2289.00,0.0100
2288.00,0.0100
2287.00,0.0100
2286.00,0.0099
2285.00,0.0099
2284.00,0.0098
2283.00,0.0098
2282.00,0.0098
2281.00,0.0097
2280.00,0.0097
2279.00,0.0097
2278.00,0.0097
2277.00,0.0097
2276.00,0.0096
2275.00,0.0096
2274.00,0.0096
2273.00,0.0095
2272.00,0.0095
2271.00,0.0095
2270.00,0.0095
2269.00,0.0095
2268.00,0.0094
2267.00,0.0093
2266.00,0.0092
2265.00,0.0092
2264.00,0.0092
2263.00,0.0091
2262.00,0.0091
2261.00,0.0092
2260.00,0.0092
2259.00,0.0092
2258.00,0.0092
2257.00,0.0092
2256.00,0.0091
2255.00,0.0090
2254.00,0.0090
2253.00,0.0090
2252.00,0.0091
2251.00,0.0092
2250.00,0.0092
2249.00,0.0092
2248.00,0.0091
2247.00,0.0091
2246.00,0.0091
2245.00,0.0091
2244.00,0.0091
2243.00,0.0090
2242.00,0.0090
2241.00,0.0090
2240.00,0.0090
2239.00,0.0090
2238.00,0.0090
2237.00,0.0091
2236.00,0.0091
2235.00,0.0091
2234.00,0.0091
2233.00,0.0091
2232.00,0.0091
2231.00,0.0091
2230.00,0.0090
2229.00,0.0090
2228.00,0.0091
2227.00,0.0091
2226.00,0.0090
2225.00,0.0090
2224.00,0.0090
2223.00,0.0089
2222.00,0.0089
2221.00,0.0088
2220.00,0.0088
2219.00,0.0088
2218.00,0.0088
2217.00,0.0088
2216.00,0.0087
2215.00,0.0087
2214.00,0.0087
2213.00,0.0087
2212.00,0.0088
2211.00,0.0088
2210.00,0.0087
2209.00,0.0087
2208.00,0.0087
2207.00,0.0087
2206.00,0.0087
2205.00,0.0087
2204.00,0.0086
2203.00,0.0086
2202.00,0.0085
2201.00,0.0086
2200.00,0.0086
2199.00,0.0087
2198.00,0.0088
2197.00,0.0087
2196.00,0.0087
2195.00,0.0087
2194.00,0.0087
2193.00,0.0087
2192.00,0.0086
2191.00,0.0086
2190.00,0.0086
2189.00,0.0086
2188.00,0.0087
2187.00,0.0088
2186.00,0.0088
2185.00,0.0087
2184.00,0.0086
2183.00,0.0084
2182.00,0.0082
2181.00,0.0082
2180.00,0.0083
2179.00,0.0084
2178.00,0.0083
2177.00,0.0082
2176.00,0.0081
2175.00,0.0080
2174.00,0.0080
2173.00,0.0081
2172.00,0.0082
2171.00,0.0083
2170.00,0.0085
2169.00,0.0086
2168.00,0.0087
2167.00,0.0087
2166.00,0.0087
2165.00,0.0087
2164.00,0.0088
2163.00,0.0088
2162.00,0.0085
2161.00,0.0079
2160.00,0.0071
2159.00,0.0063
2158.00,0.0058
2157.00,0.0057
2156.00,0.0058
2155.00,0.0059
2154.00,0.0061
2153.00,0.0063
2152.00,0.0065
2151.00,0.0066
2150.00,0.0067
2149.00,0.0067
2148.00,0.0067
2147.00,0.0067
2146.00,0.0067
2145.00,0.0068
2144.00,0.0068
2143.00,0.0068
2142.00,0.0069
2141.00,0.0069
2140.00,0.0069
2139.00,0.0068
2138.00,0.0068
2137.00,0.0066
2136.00,0.0065
2135.00,0.0064
2134.00,0.0064
2133.00,0.0064
2132.00,0.0066
2131.00,0.0068
2130.00,0.0069
2129.00,0.0071
2128.00,0.0072
2127.00,0.0073
2126.00,0.0074
2125.00,0.0075
2124.00,0.0075
2123.00,0.0076
2122.00,0.0076
2121.00,0.0076
2120.00,0.0076
2119.00,0.0077
2118.00,0.0078
2117.00,0.0079
2116.00,0.0080
2115.00,0.0081
2114.00,0.0081
2113.00,0.0080
2112.00,0.0080
2111.00,0.0079
2110.00,0.0079
2109.00,0.0079
2108.00,0.0079
2107.00,0.0078
2106.00,0.0078
2105.00,0.0078
2104.00,0.0079
2103.00,0.0079
2102.00,0.0079
2101.00,0.0079
2100.00,0.0079
2099.00,0.0078
2098.00,0.0077
2097.00,0.0076
2096.00,0.0075
2095.00,0.0074
2094.00,0.0074
2093.00,0.0074
2092.00,0.0075
2091.00,0.0076
2090.00,0.0076
2089.00,0.0076
2088.00,0.0076
2087.00,0.0077
2086.00,0.0077
2085.00,0.0078
2084.00,0.0078
2083.00,0.0079
2082.00,0.0079
2081.00,0.0080
2080.00,0.0080
2079.00,0.0080
2078.00,0.0079
2077.00,0.0078
2076.00,0.0077
2075.00,0.0075
2074.00,0.0075
2073.00,0.0075
2072.00,0.0075
2071.00,0.0075
2070.00,0.0075
2069.00,0.0074
2068.00,0.0073
2067.00,0.0073
2066.00,0.0072
2065.00,0.0073
2064.00,0.0073
2063.00,0.0073
2062.00,0.0073
2061.00,0.0074
2060.00,0.0074
2059.00,0.0074
2058.00,0.0074
2057.00,0.0074
2056.00,0.0074
2055.00,0.0074
2054.00,0.0076
2053.00,0.0079
2052.00,0.0082
2051.00,0.0082
2050.00,0.0079
2049.00,0.0076
2048.00,0.0074
2047.00,0.0072
2046.00,0.0071
2045.00,0.0071
2044.00,0.0071
2043.00,0.0071
2042.00,0.0071
2041.00,0.0071
2040.00,0.0071
2039.00,0.0070
2038.00,0.0068
2037.00,0.0067
2036.00,0.0065
2035.00,0.0063
2034.00,0.0062
2033.00,0.0063
2032.00,0.0064
2031.00,0.0066
2030.00,0.0067
2029.00,0.0069
2028.00,0.0069
2027.00,0.0068
2026.00,0.0067
2025.00,0.0066
2024.00,0.0065
2023.00,0.0065
2022.00,0.0064
2021.00,0.0064
2020.00,0.0064
2019.00,0.0063
2018.00,0.0063
2017.00,0.0063
2016.00,0.0063
2015.00,0.0063
2014.00,0.0063
2013.00,0.0063
2012.00,0.0063
2011.00,0.0063
2010.00,0.0063
2009.00,0.0062
2008.00,0.0061
2007.00,0.0060
2006.00,0.0060
2005.00,0.0061
2004.00,0.0061
2003.00,0.0062
2002.00,0.0063
2001.00,0.0063
2000.00,0.0064
1999.00,0.0064
1998.00,0.0065
1997.00,0.0065
1996.00,0.0065
1995.00,0.0066
1994.00,0.0067
1993.00,0.0068
1992.00,0.0069
1991.00,0.0069
1990.00,0.0069
1989.00,0.0069
1988.00,0.0070
1987.00,0.0071
1986.00,0.0072
1985.00,0.0073
1984.00,0.0074
1983.00,0.0075
1982.00,0.0077
1981.00,0.0078
1980.00,0.0076
1979.00,0.0072
1978.00,0.0066
1977.00,0.0062
1976.00,0.0060
1975.00,0.0060
1974.00,0.0060
1973.00,0.0061
1972.00,0.0062
1971.00,0.0062
1970.00,0.0060
1969.00,0.0059
1968.00,0.0058
1967.00,0.0058
1966.00,0.0058
1965.00,0.0059
1964.00,0.0059
1963.00,0.0059
1962.00,0.0059
1961.00,0.0059
1960.00,0.0059
1959.00,0.0058
1958.00,0.0058
1957.00,0.0059
1956.00,0.0060
1955.00,0.0060
1954.00,0.0060
1953.00,0.0060
1952.00,0.0060
1951.00,0.0061
1950.00,0.0062
1949.00,0.0063
1948.00,0.0064
1947.00,0.0065
1946.00,0.0065
1945.00,0.0064
1944.00,0.0063
1943.00,0.0062
1942.00,0.0061
1941.00,0.0061
1940.00,0.0061
1939.00,0.0062
1938.00,0.0062
1937.00,0.0063
1936.00,0.0064
1935.00,0.0065
1934.00,0.0065
1933.00,0.0065
1932.00,0.0065
1931.00,0.0065
1930.00,0.0065
1929.00,0.0065
1928.00,0.0064
1927.00,0.0064
1926.00,0.0065
1925.00,0.0065
1924.00,0.0065
1923.00,0.0065
1922.00,0.0066
1921.00,0.0067
1920.00,0.0069
1919.00,0.0069
1918.00,0.0068
1917.00,0.0067
1916.00,0.0067
1915.00,0.0067
1914.00,0.0068
1913.00,0.0068
1912.00,0.0068
1911.00,0.0068
1910.00,0.0067
1909.00,0.0067
1908.00,0.0066
1907.00,0.0066
1906.00,0.0066
1905.00,0.0066
1904.00,0.0066
1903.00,0.0066
1902.00,0.0066
1901.00,0.0067
1900.00,0.0067
1899.00,0.0068
1898.00,0.0069
1897.00,0.0069
1896.00,0.0069
1895.00,0.0068
1894.00,0.0068
1893.00,0.0069
1892.00,0.0069
1891.00,0.0069
1890.00,0.0068
1889.00,0.0067
1888.00,0.0066
1887.00,0.0067
1886.00,0.0068
1885.00,0.0068
1884.00,0.0068
1883.00,0.0068
1882.00,0.0068
1881.00,0.0068
1880.00,0.0068
1879.00,0.0068
1878.00,0.0068
1877.00,0.0068
1876.00,0.0068
1875.00,0.0068
1874.00,0.0069
1873.00,0.0070
1872.00,0.0070
1871.00,0.0071
1870.00,0.0070
1869.00,0.0068
1868.00,0.0066
1867.00,0.0065
1866.00,0.0066
1865.00,0.0066
1864.00,0.0067
1863.00,0.0068
1862.00,0.0068
1861.00,0.0069
1860.00,0.0068
1859.00,0.0068
1858.00,0.0068
1857.00,0.0068
1856.00,0.0067
1855.00,0.0067
1854.00,0.0067
1853.00,0.0067
1852.00,0.0068
1851.00,0.0068
1850.00,0.0068
1849.00,0.0068
1848.00,0.0069
1847.00,0.0069
1846.00,0.0070
1845.00,0.0069
1844.00,0.0067
1843.00,0.0065
1842.00,0.0065
1841.00,0.0066
1840.00,0.0067
1839.00,0.0068
1838.00,0.0068
1837.00,0.0067
1836.00,0.0067
1835.00,0.0068
1834.00,0.0068
1833.00,0.0069
1832.00,0.0069
1831.00,0.0068
1830.00,0.0067
1829.00,0.0066
1828.00,0.0067
1827.00,0.0068
1826.00,0.0068
1825.00,0.0067
1824.00,0.0067
1823.00,0.0067
1822.00,0.0067
1821.00,0.0068
1820.00,0.0068
1819.00,0.0068
1818.00,0.0067
1817.00,0.0067
1816.00,0.0067
1815.00,0.0068
1814.00,0.0069
1813.00,0.0070
1812.00,0.0070
1811.00,0.0070
1810.00,0.0069
1809.00,0.0069
1808.00,0.0070
1807.00,0.0070
1806.00,0.0071
1805.00,0.0072
1804.00,0.0073
1803.00,0.0073
1802.00,0.0072
1801.00,0.0072
1800.00,0.0072
1799.00,0.0072
1798.00,0.0073
1797.00,0.0075
1796.00,0.0076
1795.00,0.0077
1794.00,0.0078
1793.00,0.0078
1792.00,0.0076
1791.00,0.0075
1790.00,0.0075
1789.00,0.0076
1788.00,0.0078
1787.00,0.0080
1786.00,0.0080
1785.00,0.0081
1784.00,0.0081
1783.00,0.0082
1782.00,0.0083
1781.00,0.0083
1780.00,0.0084
1779.00,0.0085
1778.00,0.0086
1777.00,0.0088
1776.00,0.0089
1775.00,0.0091
1774.00,0.0092
1773.00,0.0092
1772.00,0.0091
1771.00,0.0090
1770.00,0.0091
1769.00,0.0092
1768.00,0.0093
1767.00,0.0094
1766.00,0.0095
1765.00,0.0096
1764.00,0.0098
1763.00,0.0098
1762.00,0.0098
1761.00,0.0098
1760.00,0.0099
1759.00,0.0100
1758.00,0.0101
1757.00,0.0102
1756.00,0.0102
1755.00,0.0103
1754.00,0.0105
1753.00,0.0108
1752.00,0.0109
1751.00,0.0110
1750.00,0.0109
1749.00,0.0109
1748.00,0.0110
1747.00,0.0111
1746.00,0.0113
1745.00,0.0114
1744.00,0.0115
1743.00,0.0116
1742.00,0.0118
1741.00,0.0120
1740.00,0.0121
1739.00,0.0123
1738.00,0.0125
1737.00,0.0127
1736.00,0.0131
1735.00,0.0133
1734.00,0.0133
1733.00,0.0133
1732.00,0.0133
1731.00,0.0134
1730.00,0.0136
1729.00,0.0137
1728.00,0.0139
1727.00,0.0141
1726.00,0.0142
1725.00,0.0144
1724.00,0.0146
1723.00,0.0148
1722.00,0.0149
1721.00,0.0150
1720.00,0.0152
1719.00,0.0153
1718.00,0.0155
1717.00,0.0156
1716.00,0.0157
1715.00,0.0157
1714.00,0.0157
1713.00,0.0158
1712.00,0.0159
1711.00,0.0160
1710.00,0.0161
1709.00,0.0162
1708.00,0.0163
1707.00,0.0163
1706.00,0.0164
1705.00,0.0164
1704.00,0.0164
1703.00,0.0164
1702.00,0.0165
1701.00,0.0167
1700.00,0.0168
1699.00,0.0168
1698.00,0.0169
1697.00,0.0170
1696.00,0.0170
1695.00,0.0169
1694.00,0.0170
1693.00,0.0172
1692.00,0.0173
1691.00,0.0174
1690.00,0.0175
1689.00,0.0176
1688.00,0.0176
1687.00,0.0176
1686.00,0.0177
1685.00,0.0177
1684.00,0.0178
1683.00,0.0179
1682.00,0.0181
1681.00,0.0183
1680.00,0.0185
1679.00,0.0186
1678.00,0.0188
1677.00,0.0189
1676.00,0.0191
1675.00,0.0193
1674.00,0.0193
1673.00,0.0194
1672.00,0.0196
1671.00,0.0198
1670.00,0.0200
1669.00,0.0202
1668.00,0.0203
1667.00,0.0205
1666.00,0.0206
1665.00,0.0207
1664.00,0.0209
1663.00,0.0211
1662.00,0.0213
1661.00,0.0215
1660.00,0.0216
1659.00,0.0218
1658.00,0.0219
1657.00,0.0219
1656.00,0.0219
1655.00,0.0218
1654.00,0.0221
1653.00,0.0226
1652.00,0.0229
1651.00,0.0230
1650.00,0.0230
1649.00,0.0231
1648.00,0.0234
1647.00,0.0239
1646.00,0.0242
1645.00,0.0244
1644.00,0.0245
1643.00,0.0246
1642.00,0.0247
1641.00,0.0248
1640.00,0.0249
1639.00,0.0250
1638.00,0.0250
1637.00,0.0252
1636.00,0.0256
1635.00,0.0260
1634.00,0.0262
1633.00,0.0263
1632.00,0.0264
1631.00,0.0265
1630.00,0.0266
1629.00,0.0268
1628.00,0.0270
1627.00,0.0272
1626.00,0.0273
1625.00,0.0275
1624.00,0.0277
1623.00,0.0280
1622.00,0.0282
1621.00,0.0282
1620.00,0.0282
1619.00,0.0282
1618.00,0.0284
1617.00,0.0287
1616.00,0.0291
1615.00,0.0292
1614.00,0.0293
1613.00,0.0293
1612.00,0.0293
1611.00,0.0295
1610.00,0.0296
1609.00,0.0298
1608.00,0.0300
1607.00,0.0301
1606.00,0.0303
1605.00,0.0304
1604.00,0.0305
1603.00,0.0307
1602.00,0.0308
1601.00,0.0310
1600.00,0.0311
1599.00,0.0312
1598.00,0.0313
1597.00,0.0314
1596.00,0.0315
1595.00,0.0317
1594.00,0.0318
1593.00,0.0318
1592.00,0.0318
1591.00,0.0318
1590.00,0.0318
1589.00,0.0318
1588.00,0.0318
1587.00,0.0318
1586.00,0.0319
1585.00,0.0319
1584.00,0.0319
1583.00,0.0319
1582.00,0.0319
1581.00,0.0319
1580.00,0.0318
1579.00,0.0316
1578.00,0.0316
1577.00,0.0317
1576.00,0.0321
1575.00,0.0323
1574.00,0.0321
1573.00,0.0319
1572.00,0.0316
1571.00,0.0316
1570.00,0.0317
1569.00,0.0318
1568.00,0.0318
1567.00,0.0317
1566.00,0.0316
1565.00,0.0314
1564.00,0.0313
1563.00,0.0311
1562.00,0.0306
1561.00,0.0300
1560.00,0.0299
1559.00,0.0306
1558.00,0.0310
1557.00,0.0309
1556.00,0.0308
1555.00,0.0307
1554.00,0.0306
1553.00,0.0304
1552.00,0.0301
1551.00,0.0299
1550.00,0.0298
1549.00,0.0296
1548.00,0.0294
1547.00,0.0292
1546.00,0.0290
1545.00,0.0288
1544.00,0.0286
1543.00,0.0284
1542.00,0.0282
1541.00,0.0281
1540.00,0.0278
1539.00,0.0275
1538.00,0.0273
1537.00,0.0271
1536.00,0.0269
1535.00,0.0267
1534.00,0.0265
1533.00,0.0264
1532.00,0.0262
1531.00,0.0260
1530.00,0.0259
1529.00,0.0258
1528.00,0.0256
1527.00,0.0255
1526.00,0.0254
1525.00,0.0252
1524.00,0.0250
1523.00,0.0249
1522.00,0.0248
1521.00,0.0247
1520.00,0.0245
1519.00,0.0243
1518.00,0.0241
1517.00,0.0240
1516.00,0.0239
1515.00,0.0239
1514.00,0.0238
1513.00,0.0238
1512.00,0.0237
1511.00,0.0236
1510.00,0.0234
1509.00,0.0232
1508.00,0.0231
1507.00,0.0230
1506.00,0.0229
1505.00,0.0229
1504.00,0.0230
1503.00,0.0229
1502.00,0.0228
1501.00,0.0227
1500.00,0.0226
1499.00,0.0225
1498.00,0.0225
1497.00,0.0225
1496.00,0.0225
1495.00,0.0225
1494.00,0.0225
1493.00,0.0225
1492.00,0.0226
1491.00,0.0226
1490.00,0.0226
1489.00,0.0226
1488.00,0.0225
1487.00,0.0224
1486.00,0.0225
1485.00,0.0225
1484.00,0.0225
1483.00,0.0225
1482.00,0.0225
1481.00,0.0225
1480.00,0.0225
1479.00,0.0225
1478.00,0.0225
1477.00,0.0226
1476.00,0.0226
1475.00,0.0228
1474.00,0.0230
1473.00,0.0231
1472.00,0.0231
1471.00,0.0230
1470.00,0.0230
1469.00,0.0230
1468.00,0.0230
1467.00,0.0230
1466.00,0.0231
1465.00,0.0232
1464.00,0.0233
1463.00,0.0234
1462.00,0.0234
1461.00,0.0233
1460.00,0.0233
1459.00,0.0234
1458.00,0.0236
1457.00,0.0238
1456.00,0.0239
1455.00,0.0239
1454.00,0.0238
1453.00,0.0238
1452.00,0.0238
1451.00,0.0238
1450.00,0.0239
1449.00,0.0240
1448.00,0.0240
1447.00,0.0241
1446.00,0.0241
1445.00,0.0242
1444.00,0.0242
1443.00,0.0243
1442.00,0.0244
1441.00,0.0244
1440.00,0.0244
1439.00,0.0245
1438.00,0.0245
1437.00,0.0247
1436.00,0.0249
1435.00,0.0250
1434.00,0.0250
1433.00,0.0250
1432.00,0.0250
1431.00,0.0251
1430.00,0.0252
1429.00,0.0253
1428.00,0.0254
1427.00,0.0254
1426.00,0.0254
1425.00,0.0255
1424.00,0.0256
1423.00,0.0257
1422.00,0.0258
1421.00,0.0258
1420.00,0.0259
1419.00,0.0261
1418.00,0.0262
1417.00,0.0263
1416.00,0.0264
1415.00,0.0265
1414.00,0.0265
1413.00,0.0266
1412.00,0.0267
1411.00,0.0268
1410.00,0.0269
1409.00,0.0269
1408.00,0.0270
1407.00,0.0271
1406.00,0.0272
1405.00,0.0273
1404.00,0.0275
1403.00,0.0277
1402.00,0.0277
1401.00,0.0278
1400.00,0.0280
1399.00,0.0282
1398.00,0.0283
1397.00,0.0284
1396.00,0.0286
1395.00,0.0287
1394.00,0.0288
1393.00,0.0288
1392.00,0.0289
1391.00,0.0289
1390.00,0.0289
1389.00,0.0290
1388.00,0.0292
1387.00,0.0293
1386.00,0.0294
1385.00,0.0294
1384.00,0.0295
1383.00,0.0295
1382.00,0.0296
1381.00,0.0296
1380.00,0.0296
1379.00,0.0296
1378.00,0.0296
1377.00,0.0296
1376.00,0.0296
1375.00,0.0296
1374.00,0.0297
1373.00,0.0297
1372.00,0.0296
1371.00,0.0296
1370.00,0.0296
1369.00,0.0295
1368.00,0.0295
1367.00,0.0295
1366.00,0.0294
1365.00,0.0293
1364.00,0.0293
1363.00,0.0292
1362.00,0.0292
1361.00,0.0292
1360.00,0.0291
1359.00,0.0291
1358.00,0.0291
1357.00,0.0290
1356.00,0.0290
1355.00,0.0289
1354.00,0.0288
1353.00,0.0287
1352.00,0.0286
1351.00,0.0285
1350.00,0.0285
1349.00,0.0284
1348.00,0.0283
1347.00,0.0283
1346.00,0.0282
1345.00,0.0282
1344.00,0.0281
1343.00,0.0281
1342.00,0.0280
1341.00,0.0279
1340.00,0.0279
1339.00,0.0278
1338.00,0.0278
1337.00,0.0277
1336.00,0.0277
1335.00,0.0276
1334.00,0.0276
1333.00,0.0275
1332.00,0.0275
1331.00,0.0274
1330.00,0.0274
1329.00,0.0274
1328.00,0.0273
1327.00,0.0273
1326.00,0.0272
1325.00,0.0272
1324.00,0.0271
1323.00,0.0271
1322.00,0.0271
1321.00,0.0271
1320.00,0.0271
1319.00,0.0270
1318.00,0.0270
1317.00,0.0270
1316.00,0.0270
1315.00,0.0270
1314.00,0.0270
1313.00,0.0269
1312.00,0.0269
1311.00,0.0269
1310.00,0.0269
1309.00,0.0269
1308.00,0.0269
1307.00,0.0269
1306.00,0.0269
1305.00,0.0269
1304.00,0.0269
1303.00,0.0269
1302.00,0.0269
1301.00,0.0269
1300.00,0.0269
1299.00,0.0269
1298.00,0.0269
1297.00,0.0270
1296.00,0.0270
1295.00,0.0270
1294.00,0.0271
1293.00,0.0271
1292.00,0.0271
1291.00,0.0272
1290.00,0.0272
1289.00,0.0272
1288.00,0.0272
1287.00,0.0273
1286.00,0.0273
1285.00,0.0273
1284.00,0.0273
1283.00,0.0274
1282.00,0.0274
1281.00,0.0275
1280.00,0.0275
1279.00,0.0275
1278.00,0.0276
1277.00,0.0276
1276.00,0.0277
1275.00,0.0277
1274.00,0.0278
1273.00,0.0278
1272.00,0.0279
1271.00,0.0280
1270.00,0.0280
1269.00,0.0281
1268.00,0.0282
1267.00,0.0282
1266.00,0.0283
1265.00,0.0284
1264.00,0.0284
1263.00,0.0285
1262.00,0.0286
1261.00,0.0287
1260.00,0.0288
1259.00,0.0289
1258.00,0.0289
1257.00,0.0290
1256.00,0.0291
1255.00,0.0292
1254.00,0.0293
1253.00,0.0294
1252.00,0.0296
1251.00,0.0297
1250.00,0.0298
1249.00,0.0300
1248.00,0.0301
1247.00,0.0302
1246.00,0.0303
1245.00,0.0304
1244.00,0.0305
1243.00,0.0306
1242.00,0.0307
1241.00,0.0308
1240.00,0.0309
1239.00,0.0310
1238.00,0.0311
1237.00,0.0312
1236.00,0.0313
1235.00,0.0314
1234.00,0.0314
1233.00,0.0315
1232.00,0.0316
1231.00,0.0316
1230.00,0.0317
1229.00,0.0318
1228.00,0.0318
1227.00,0.0318
1226.00,0.0319
1225.00,0.0319
1224.00,0.0319
1223.00,0.0320
1222.00,0.0320
1221.00,0.0320
1220.00,0.0320
1219.00,0.0321
1218.00,0.0321
1217.00,0.0321
1216.00,0.0322
1215.00,0.0322
1214.00,0.0323
1213.00,0.0323
1212.00,0.0323
1211.00,0.0324
1210.00,0.0324
1209.00,0.0324
1208.00,0.0325
1207.00,0.0325
1206.00,0.0325
1205.00,0.0326
1204.00,0.0326
1203.00,0.0327
1202.00,0.0327
1201.00,0.0328
1200.00,0.0328
1199.00,0.0328
1198.00,0.0329
1197.00,0.0329
1196.00,0.0329
1195.00,0.0329
1194.00,0.0330
1193.00,0.0330
1192.00,0.0331
1191.00,0.0331
1190.00,0.0332
1189.00,0.0333
1188.00,0.0333
1187.00,0.0334
1186.00,0.0334
1185.00,0.0334
1184.00,0.0334
1183.00,0.0334
1182.00,0.0335
1181.00,0.0336
1180.00,0.0338
1179.00,0.0339
1178.00,0.0340
1177.00,0.0341
1176.00,0.0341
1175.00,0.0342
1174.00,0.0342
1173.00,0.0343
1172.00,0.0343
1171.00,0.0344
1170.00,0.0344
1169.00,0.0345
1168.00,0.0345
1167.00,0.0345
1166.00,0.0346
1165.00,0.0347
1164.00,0.0348
1163.00,0.0348
1162.00,0.0349
1161.00,0.0349
1160.00,0.0349
1159.00,0.0349
1158.00,0.0349
1157.00,0.0349
1156.00,0.0349
1155.00,0.0350
1154.00,0.0350
1153.00,0.0350
1152.00,0.0351
1151.00,0.0352
1150.00,0.0352
1149.00,0.0353
1148.00,0.0353
1147.00,0.0354
1146.00,0.0354
1145.00,0.0355
1144.00,0.0355
1143.00,0.0356
1142.00,0.0356
1141.00,0.0357
1140.00,0.0358
1139.00,0.0358
1138.00,0.0359
1137.00,0.0360
1136.00,0.0361
1135.00,0.0361
1134.00,0.0362
1133.00,0.0363
1132.00,0.0363
1131.00,0.0364
1130.00,0.0365
1129.00,0.0366
1128.00,0.0367
1127.00,0.0368
1126.00,0.0369
1125.00,0.0370
1124.00,0.0372
1123.00,0.0373
1122.00,0.0375
1121.00,0.0376
1120.00,0.0377
1119.00,0.0379
1118.00,0.0380
1117.00,0.0382
1116.00,0.0383
1115.00,0.0385
1114.00,0.0386
1113.00,0.0388
1112.00,0.0390
1111.00,0.0392
1110.00,0.0394
1109.00,0.0397
1108.00,0.0399
1107.00,0.0402
1106.00,0.0404
1105.00,0.0407
1104.00,0.0409
1103.00,0.0411
1102.00,0.0413
1101.00,0.0416
1100.00,0.0418
1099.00,0.0420
1098.00,0.0422
1097.00,0.0425
1096.00,0.0427
1095.00,0.0429
1094.00,0.0431
1093.00,0.0432
1092.00,0.0434
1091.00,0.0436
1090.00,0.0437
1089.00,0.0439
1088.00,0.0440
1087.00,0.0442
1086.00,0.0443
1085.00,0.0444
1084.00,0.0445
1083.00,0.0445
1082.00,0.0446
1081.00,0.0446
1080.00,0.0447
1079.00,0.0448
1078.00,0.0449
1077.00,0.0449
1076.00,0.0450
1075.00,0.0450
1074.00,0.0451
1073.00,0.0451
1072.00,0.0451
1071.00,0.0451
1070.00,0.0452
1069.00,0.0452
1068.00,0.0452
1067.00,0.0453
1066.00,0.0454
1065.00,0.0454
1064.00,0.0454
1063.00,0.0454
1062.00,0.0454
1061.00,0.0453
1060.00,0.0453
1059.00,0.0453
1058.00,0.0452
1057.00,0.0452
1056.00,0.0451
1055.00,0.0451
1054.00,0.0450
1053.00,0.0450
1052.00,0.0451
1051.00,0.0451
1050.00,0.0451
1049.00,0.0452
1048.00,0.0452
1047.00,0.0452
1046.00,0.0451
1045.00,0.0450
1044.00,0.0450
1043.00,0.0449
1042.00,0.0448
1041.00,0.0447
1040.00,0.0447
1039.00,0.0446
1038.00,0.0444
1037.00,0.0443
1036.00,0.0442
1035.00,0.0441
1034.00,0.0440
1033.00,0.0438
1032.00,0.0437
1031.00,0.0435
1030.00,0.0434
1029.00,0.0432
1028.00,0.0430
1027.00,0.0429
1026.00,0.0427
1025.00,0.0425
1024.00,0.0422
1023.00,0.0420
1022.00,0.0418
1021.00,0.0416
1020.00,0.0414
1019.00,0.0412
1018.00,0.0410
1017.00,0.0408
1016.00,0.0405
1015.00,0.0402
1014.00,0.0399
1013.00,0.0397
1012.00,0.0395
1011.00,0.0393
1010.00,0.0391
1009.00,0.0388
1008.00,0.0386
1007.00,0.0384
1006.00,0.0381
1005.00,0.0379
1004.00,0.0376
1003.00,0.0374
1002.00,0.0371
1001.00,0.0369
1000.00,0.0367
999.00,0.0364
998.00,0.0362
997.00,0.0360
996.00,0.0357
995.00,0.0355
994.00,0.0353
993.00,0.0352
992.00,0.0350
991.00,0.0348
990.00,0.0345
989.00,0.0343
988.00,0.0341
987.00,0.0339
986.00,0.0337
985.00,0.0336
984.00,0.0334
983.00,0.0333
982.00,0.0332
981.00,0.0331
980.00,0.0330
979.00,0.0329
978.00,0.0327
977.00,0.0326
976.00,0.0325
975.00,0.0324
974.00,0.0323
973.00,0.0322
972.00,0.0321
971.00,0.0320
970.00,0.0319
969.00,0.0319
968.00,0.0318
967.00,0.0317
966.00,0.0317
965.00,0.0316
964.00,0.0315
963.00,0.0315
962.00,0.0314
961.00,0.0313
960.00,0.0313
959.00,0.0312
958.00,0.0311
957.00,0.0311
956.00,0.0310
955.00,0.0309
954.00,0.0308
953.00,0.0307
952.00,0.0307
951.00,0.0306
950.00,0.0306
949.00,0.0305
948.00,0.0305
947.00,0.0305
946.00,0.0305
945.00,0.0304
944.00,0.0303
943.00,0.0303
942.00,0.0302
941.00,0.0302
940.00,0.0301
939.00,0.0300
938.00,0.0300
937.00,0.0300
936.00,0.0300
935.00,0.0299
934.00,0.0298
933.00,0.0298
932.00,0.0297
931.00,0.0297
930.00,0.0297
929.00,0.0297
928.00,0.0297
927.00,0.0297
926.00,0.0296
925.00,0.0296
924.00,0.0295
923.00,0.0295
922.00,0.0295
921.00,0.0295
920.00,0.0295
919.00,0.0295
918.00,0.0295
917.00,0.0295
916.00,0.0295
915.00,0.0296
914.00,0.0296
913.00,0.0295
912.00,0.0295
911.00,0.0294
910.00,0.0293
909.00,0.0293
908.00,0.0293
907.00,0.0293
906.00,0.0292
905.00,0.0293
904.00,0.0293
903.00,0.0293
902.00,0.0292
901.00,0.0292
900.00,0.0291
899.00,0.0291
898.00,0.0290
897.00,0.0290
896.00,0.0289
895.00,0.0288
894.00,0.0288
893.00,0.0288
892.00,0.0288
891.00,0.0288
890.00,0.0287
889.00,0.0287
888.00,0.0287
887.00,0.0287
886.00,0.0287
885.00,0.0287
884.00,0.0286
883.00,0.0286
882.00,0.0285
881.00,0.0285
880.00,0.0285
879.00,0.0285
878.00,0.0285
877.00,0.0285
876.00,0.0284
875.00,0.0284
874.00,0.0284
873.00,0.0284
872.00,0.0284
871.00,0.0284
870.00,0.0284
869.00,0.0283
868.00,0.0283
867.00,0.0283
866.00,0.0284
865.00,0.0284
864.00,0.0285
863.00,0.0285
862.00,0.0285
861.00,0.0285
860.00,0.0285
859.00,0.0285
858.00,0.0284
857.00,0.0284
856.00,0.0284
855.00,0.0284
854.00,0.0285
853.00,0.0286
852.00,0.0287
851.00,0.0289
850.00,0.0291
849.00,0.0293
848.00,0.0294
847.00,0.0295
846.00,0.0296
845.00,0.0297
844.00,0.0297
843.00,0.0298
842.00,0.0298
841.00,0.0298
840.00,0.0299
839.00,0.0301
838.00,0.0303
837.00,0.0305
836.00,0.0307
835.00,0.0308
834.00,0.0310
833.00,0.0311
832.00,0.0312
831.00,0.0313
830.00,0.0313
829.00,0.0313
828.00,0.0314
827.00,0.0316
826.00,0.0319
825.00,0.0321
824.00,0.0324
823.00,0.0326
822.00,0.0328
821.00,0.0329
820.00,0.0330
819.00,0.0330
818.00,0.0331
817.00,0.0331
816.00,0.0332
815.00,0.0333
814.00,0.0334
813.00,0.0336
812.00,0.0338
811.00,0.0340
810.00,0.0341
809.00,0.0342
808.00,0.0344
807.00,0.0346
806.00,0.0348
805.00,0.0349
804.00,0.0350
803.00,0.0351
802.00,0.0353
801.00,0.0355
800.00,0.0357
799.00,0.0358
798.00,0.0360
797.00,0.0362
796.00,0.0363
795.00,0.0363
794.00,0.0363
793.00,0.0362
792.00,0.0361
791.00,0.0359
790.00,0.0359
789.00,0.0359
788.00,0.0359
787.00,0.0361
786.00,0.0363
785.00,0.0365
784.00,0.0367
783.00,0.0369
782.00,0.0370
781.00,0.0370
780.00,0.0370
779.00,0.0369
778.00,0.0368
777.00,0.0367
776.00,0.0367
775.00,0.0366
774.00,0.0366
773.00,0.0367
772.00,0.0367
771.00,0.0368
770.00,0.0368
769.00,0.0369
768.00,0.0370
767.00,0.0370
766.00,0.0370
765.00,0.0369
764.00,0.0368
763.00,0.0367
762.00,0.0366
761.00,0.0365
760.00,0.0366
759.00,0.0367
758.00,0.0368
757.00,0.0369
756.00,0.0370
755.00,0.0371
754.00,0.0371
753.00,0.0372
752.00,0.0372
751.00,0.0371
750.00,0.0369
749.00,0.0369
748.00,0.0369
747.00,0.0370
746.00,0.0370
745.00,0.0370
744.00,0.0370
743.00,0.0372
742.00,0.0373
741.00,0.0373
740.00,0.0373
739.00,0.0373
738.00,0.0372
737.00,0.0371
736.00,0.0371
735.00,0.0371
734.00,0.0371
733.00,0.0371
732.00,0.0371
731.00,0.0373
730.00,0.0374
729.00,0.0375
728.00,0.0376
727.00,0.0376
726.00,0.0377
725.00,0.0378
724.00,0.0378
723.00,0.0377
722.00,0.0376
721.00,0.0376
720.00,0.0377
719.00,0.0378
718.00,0.0379
717.00,0.0380
716.00,0.0382
715.00,0.0383
714.00,0.0384
713.00,0.0383
712.00,0.0382
711.00,0.0381
710.00,0.0381
709.00,0.0382
708.00,0.0384
707.00,0.0386
706.00,0.0388
705.00,0.0390
704.00,0.0390
703.00,0.0390
702.00,0.0390
701.00,0.0390
700.00,0.0390
699.00,0.0391
698.00,0.0392
697.00,0.0393
696.00,0.0394
695.00,0.0395
694.00,0.0396
693.00,0.0397
692.00,0.0397
691.00,0.0397
690.00,0.0398
689.00,0.0398
688.00,0.0399
687.00,0.0400
686.00,0.0400
685.00,0.0400
684.00,0.0400
683.00,0.0400
682.00,0.0401
681.00,0.0404
680.00,0.0405
679.00,0.0405
678.00,0.0405
677.00,0.0406
676.00,0.0406
675.00,0.0406
674.00,0.0406
673.00,0.0405
672.00,0.0404
671.00,0.0403
670.00,0.0401
669.00,0.0401
668.00,0.0404
667.00,0.0409
666.00,0.0412
665.00,0.0413
664.00,0.0414
663.00,0.0415
662.00,0.0416
661.00,0.0416
660.00,0.0417
659.00,0.0418
658.00,0.0419
657.00,0.0420
656.00,0.0421
655.00,0.0422
654.00,0.0422
653.00,0.0422
652.00,0.0421
651.00,0.0420
650.00,0.0421
