Created as New Dataset,Monday, April 03 2023
cm-1,A
4000.00,0.0186
3999.00,0.0186
3998.00,0.0186
3997.00,0.0186
3996.00,0.0186
3995.00,0.0186
3994.00,0.0186
3993.00,0.0186
3992.00,0.0187
3991.00,0.0187
3990.00,0.0187
3989.00,0.0186
3988.00,0.0186
3987.00,0.0186
3986.00,0.0186
3985.00,0.0186
3984.00,0.0186
3983.00,0.0186
3982.00,0.0186
3981.00,0.0186
3980.00,0.0186
3979.00,0.0186
3978.00,0.0187
3977.00,0.0186
3976.00,0.0186
3975.00,0.0186
3974.00,0.0185
3973.00,0.0185
3972.00,0.0185
3971.00,0.0186
3970.00,0.0186
3969.00,0.0186
3968.00,0.0186
3967.00,0.0186
3966.00,0.0186
3965.00,0.0186
3964.00,0.0187
3963.00,0.0187
3962.00,0.0186
3961.00,0.0186
3960.00,0.0186
3959.00,0.0185
3958.00,0.0186
3957.00,0.0186
3956.00,0.0185
3955.00,0.0185
3954.00,0.0185
3953.00,0.0185
3952.00,0.0185
3951.00,0.0185
3950.00,0.0186
3949.00,0.0186
3948.00,0.0185
3947.00,0.0185
3946.00,0.0185
3945.00,0.0185
3944.00,0.0185
3943.00,0.0185
3942.00,0.0185
3941.00,0.0184
3940.00,0.0184
3939.00,0.0185
3938.00,0.0185
3937.00,0.0185
3936.00,0.0186
3935.00,0.0186
3934.00,0.0186
3933.00,0.0186
3932.00,0.0186
3931.00,0.0185
3930.00,0.0185
3929.00,0.0185
3928.00,0.0185
3927.00,0.0185
3926.00,0.0185
3925.00,0.0185
3924.00,0.0184
3923.00,0.0183
3922.00,0.0183
3921.00,0.0183
3920.00,0.0183
3919.00,0.0184
3918.00,0.0184
3917.00,0.0184
3916.00,0.0184
3915.00,0.0184
3914.00,0.0184
3913.00,0.0185
3912.00,0.0185
3911.00,0.0185
3910.00,0.0184
3909.00,0.0184
3908.00,0.0184
3907.00,0.0183
3906.00,0.0183
3905.00,0.0182
3904.00,0.0181
3903.00,0.0181
3902.00,0.0181
3901.00,0.0182
3900.00,0.0183
3899.00,0.0182
3898.00,0.0182
3897.00,0.0183
3896.00,0.0183
3895.00,0.0184
3894.00,0.0184
3893.00,0.0184
3892.00,0.0183
3891.00,0.0182
3890.00,0.0181
3889.00,0.0181
3888.00,0.0183
3887.00,0.0184
3886.00,0.0184
3885.00,0.0182
3884.00,0.0181
3883.00,0.0182
3882.00,0.0184
3881.00,0.0184
3880.00,0.0182
3879.00,0.0181
3878.00,0.0181
3877.00,0.0182
3876.00,0.0182
3875.00,0.0182
3874.00,0.0180
3873.00,0.0179
3872.00,0.0179
3871.00,0.0180
3870.00,0.0180
3869.00,0.0179
3868.00,0.0179
3867.00,0.0181
3866.00,0.0182
3865.00,0.0182
3864.00,0.0181
3863.00,0.0180
3862.00,0.0181
3861.00,0.0181
3860.00,0.0181
3859.00,0.0180
3858.00,0.0179
3857.00,0.0176
3856.00,0.0174
3855.00,0.0175
3854.00,0.0178
3853.00,0.0179
3852.00,0.0177
3851.00,0.0178
3850.00,0.0181
3849.00,0.0183
3848.00,0.0183
3847.00,0.0182
3846.00,0.0182
3845.00,0.0181
3844.00,0.0180
3843.00,0.0179
3842.00,0.0177
3841.00,0.0177
3840.00,0.0178
3839.00,0.0179
3838.00,0.0180
3837.00,0.0179
3836.00,0.0179
3835.00,0.0179
3834.00,0.0179
3833.00,0.0180
3832.00,0.0180
3831.00,0.0180
3830.00,0.0181
3829.00,0.0181
3828.00,0.0182
3827.00,0.0182
3826.00,0.0180
3825.00,0.0179
3824.00,0.0178
3823.00,0.0178
3822.00,0.0179
3821.00,0.0178
3820.00,0.0176
3819.00,0.0176
3818.00,0.0179
3817.00,0.0182
3816.00,0.0182
3815.00,0.0180
3814.00,0.0180
3813.00,0.0182
3812.00,0.0182
3811.00,0.0181
3810.00,0.0179
3809.00,0.0179
3808.00,0.0179
3807.00,0.0178
3806.00,0.0177
3805.00,0.0177
3804.00,0.0178
3803.00,0.0181
3802.00,0.0181
3801.00,0.0180
3800.00,0.0179
3799.00,0.0179
3798.00,0.0181
3797.00,0.0181
3796.00,0.0180
3795.00,0.0180
3794.00,0.0180
3793.00,0.0181
3792.00,0.0181
3791.00,0.0181
3790.00,0.0181
3789.00,0.0181
3788.00,0.0181
3787.00,0.0181
3786.00,0.0181
3785.00,0.0180
3784.00,0.0179
3783.00,0.0179
3782.00,0.0179
3781.00,0.0179
3780.00,0.0179
3779.00,0.0179
3778.00,0.0178
3777.00,0.0179
3776.00,0.0180
3775.00,0.0180
3774.00,0.0179
3773.00,0.0178
3772.00,0.0178
3771.00,0.0178
3770.00,0.0178
3769.00,0.0177
3768.00,0.0177
3767.00,0.0177
3766.00,0.0178
3765.00,0.0177
3764.00,0.0177
3763.00,0.0177
3762.00,0.0178
3761.00,0.0178
3760.00,0.0177
3759.00,0.0176
3758.00,0.0176
3757.00,0.0175
3756.00,0.0175
3755.00,0.0174
3754.00,0.0173
3753.00,0.0173
3752.00,0.0174
3751.00,0.0175
3750.00,0.0174
3749.00,0.0172
3748.00,0.0170
3747.00,0.0171
3746.00,0.0173
3745.00,0.0174
3744.00,0.0173
3743.00,0.0171
3742.00,0.0172
3741.00,0.0175
3740.00,0.0175
3739.00,0.0173
3738.00,0.0172
3737.00,0.0172
3736.00,0.0172
3735.00,0.0171
3734.00,0.0170
3733.00,0.0170
3732.00,0.0170
3731.00,0.0171
3730.00,0.0172
3729.00,0.0174
3728.00,0.0175
3727.00,0.0174
3726.00,0.0173
3725.00,0.0172
3724.00,0.0173
3723.00,0.0173
3722.00,0.0173
3721.00,0.0173
3720.00,0.0174
3719.00,0.0174
3718.00,0.0175
3717.00,0.0174
3716.00,0.0174
3715.00,0.0173
3714.00,0.0172
3713.00,0.0172
3712.00,0.0173
3711.00,0.0175
3710.00,0.0175
3709.00,0.0176
3708.00,0.0177
3707.00,0.0177
3706.00,0.0178
3705.00,0.0178
3704.00,0.0178
3703.00,0.0178
3702.00,0.0179
3701.00,0.0180
3700.00,0.0181
3699.00,0.0182
3698.00,0.0183
3697.00,0.0184
3696.00,0.0183
3695.00,0.0181
3694.00,0.0180
3693.00,0.0178
3692.00,0.0176
3691.00,0.0176
3690.00,0.0178
3689.00,0.0180
3688.00,0.0180
3687.00,0.0179
3686.00,0.0180
3685.00,0.0182
3684.00,0.0182
3683.00,0.0181
3682.00,0.0180
3681.00,0.0178
3680.00,0.0176
3679.00,0.0173
3678.00,0.0171
3677.00,0.0173
3676.00,0.0176
3675.00,0.0176
3674.00,0.0175
3673.00,0.0176
3672.00,0.0178
3671.00,0.0179
3670.00,0.0179
3669.00,0.0177
3668.00,0.0177
3667.00,0.0179
3666.00,0.0181
3665.00,0.0182
3664.00,0.0183
3663.00,0.0184
3662.00,0.0184
3661.00,0.0184
3660.00,0.0183
3659.00,0.0184
3658.00,0.0185
3657.00,0.0186
3656.00,0.0186
3655.00,0.0185
3654.00,0.0184
3653.00,0.0183
3652.00,0.0182
3651.00,0.0181
3650.00,0.0184
3649.00,0.0187
3648.00,0.0188
3647.00,0.0189
3646.00,0.0189
3645.00,0.0191
3644.00,0.0193
3643.00,0.0194
3642.00,0.0194
3641.00,0.0194
3640.00,0.0194
3639.00,0.0194
3638.00,0.0194
3637.00,0.0194
3636.00,0.0195
3635.00,0.0195
3634.00,0.0194
3633.00,0.0193
3632.00,0.0192
3631.00,0.0192
3630.00,0.0194
3629.00,0.0197
3628.00,0.0198
3627.00,0.0198
3626.00,0.0201
3625.00,0.0203
3624.00,0.0204
3623.00,0.0204
3622.00,0.0204
3621.00,0.0205
3620.00,0.0207
3619.00,0.0207
3618.00,0.0206
3617.00,0.0205
3616.00,0.0205
3615.00,0.0205
3614.00,0.0205
3613.00,0.0205
3612.00,0.0205
3611.00,0.0205
3610.00,0.0207
3609.00,0.0208
3608.00,0.0209
3607.00,0.0209
3606.00,0.0209
3605.00,0.0210
3604.00,0.0210
3603.00,0.0210
3602.00,0.0210
3601.00,0.0210
3600.00,0.0210
3599.00,0.0210
3598.00,0.0210
3597.00,0.0210
3596.00,0.0211
3595.00,0.0212
3594.00,0.0213
3593.00,0.0213
3592.00,0.0212
3591.00,0.0212
3590.00,0.0211
3589.00,0.0211
3588.00,0.0212
3587.00,0.0213
3586.00,0.0213
3585.00,0.0214
3584.00,0.0215
3583.00,0.0216
3582.00,0.0217
3581.00,0.0218
3580.00,0.0218
3579.00,0.0218
3578.00,0.0219
3577.00,0.0219
3576.00,0.0219
3575.00,0.0220
3574.00,0.0220
3573.00,0.0221
3572.00,0.0220
3571.00,0.0219
3570.00,0.0219
3569.00,0.0219
3568.00,0.0221
3567.00,0.0222
3566.00,0.0223
3565.00,0.0223
3564.00,0.0224
3563.00,0.0224
3562.00,0.0224
3561.00,0.0224
3560.00,0.0225
3559.00,0.0225
3558.00,0.0225
3557.00,0.0226
3556.00,0.0226
3555.00,0.0227
3554.00,0.0228
3553.00,0.0229
3552.00,0.0230
3551.00,0.0230
3550.00,0.0230
3549.00,0.0230
3548.00,0.0230
3547.00,0.0231
3546.00,0.0232
3545.00,0.0233
3544.00,0.0233
3543.00,0.0233
3542.00,0.0232
3541.00,0.0232
3540.00,0.0232
3539.00,0.0233
3538.00,0.0233
3537.00,0.0233
3536.00,0.0234
3535.00,0.0234
3534.00,0.0234
3533.00,0.0234
3532.00,0.0234
3531.00,0.0235
3530.00,0.0235
3529.00,0.0236
3528.00,0.0237
3527.00,0.0237
3526.00,0.0238
3525.00,0.0238
3524.00,0.0239
3523.00,0.0239
3522.00,0.0239
3521.00,0.0239
3520.00,0.0239
3519.00,0.0240
3518.00,0.0240
3517.00,0.0241
3516.00,0.0242
3515.00,0.0242
3514.00,0.0242
3513.00,0.0241
3512.00,0.0241
3511.00,0.0241
3510.00,0.0242
3509.00,0.0243
3508.00,0.0243
3507.00,0.0243
3506.00,0.0243
3505.00,0.0243
3504.00,0.0244
3503.00,0.0244
3502.00,0.0245
3501.00,0.0246
3500.00,0.0246
3499.00,0.0247
3498.00,0.0247
3497.00,0.0248
3496.00,0.0248
3495.00,0.0248
3494.00,0.0248
3493.00,0.0248
3492.00,0.0249
3491.00,0.0249
3490.00,0.0250
3489.00,0.0251
3488.00,0.0251
3487.00,0.0251
3486.00,0.0251
3485.00,0.0251
3484.00,0.0251
3483.00,0.0251
3482.00,0.0251
3481.00,0.0251
3480.00,0.0252
3479.00,0.0252
3478.00,0.0253
3477.00,0.0253
3476.00,0.0254
3475.00,0.0255
3474.00,0.0256
3473.00,0.0256
3472.00,0.0256
3471.00,0.0256
3470.00,0.0255
3469.00,0.0256
3468.00,0.0256
3467.00,0.0257
3466.00,0.0257
3465.00,0.0257
3464.00,0.0257
3463.00,0.0257
3462.00,0.0258
3461.00,0.0259
3460.00,0.0259
3459.00,0.0260
3458.00,0.0260
3457.00,0.0259
3456.00,0.0259
3455.00,0.0259
3454.00,0.0260
3453.00,0.0260
3452.00,0.0261
3451.00,0.0262
3450.00,0.0262
3449.00,0.0262
3448.00,0.0262
3447.00,0.0263
3446.00,0.0263
3445.00,0.0263
3444.00,0.0263
3443.00,0.0264
3442.00,0.0264
3441.00,0.0264
3440.00,0.0265
3439.00,0.0265
3438.00,0.0265
3437.00,0.0265
3436.00,0.0266
3435.00,0.0266
3434.00,0.0266
3433.00,0.0267
3432.00,0.0267
3431.00,0.0267
3430.00,0.0267
3429.00,0.0267
3428.00,0.0267
3427.00,0.0267
3426.00,0.0267
3425.00,0.0268
3424.00,0.0268
3423.00,0.0268
3422.00,0.0268
3421.00,0.0269
3420.00,0.0269
3419.00,0.0269
3418.00,0.0270
3417.00,0.0270
3416.00,0.0270
3415.00,0.0270
3414.00,0.0270
3413.00,0.0271
3412.00,0.0271
3411.00,0.0271
3410.00,0.0271
3409.00,0.0271
3408.00,0.0271
3407.00,0.0271
3406.00,0.0272
3405.00,0.0273
3404.00,0.0274
3403.00,0.0274
3402.00,0.0274
3401.00,0.0274
3400.00,0.0274
3399.00,0.0274
3398.00,0.0274
3397.00,0.0274
3396.00,0.0274
3395.00,0.0274
3394.00,0.0275
3393.00,0.0275
3392.00,0.0275
3391.00,0.0275
3390.00,0.0275
3389.00,0.0275
3388.00,0.0275
3387.00,0.0276
3386.00,0.0276
3385.00,0.0276
3384.00,0.0276
3383.00,0.0276
3382.00,0.0277
3381.00,0.0277
3380.00,0.0278
3379.00,0.0278
3378.00,0.0279
3377.00,0.0279
3376.00,0.0280
3375.00,0.0280
3374.00,0.0280
3373.00,0.0279
3372.00,0.0279
3371.00,0.0279
3370.00,0.0279
3369.00,0.0279
3368.00,0.0280
3367.00,0.0280
3366.00,0.0280
3365.00,0.0280
3364.00,0.0281
3363.00,0.0281
3362.00,0.0281
3361.00,0.0281
3360.00,0.0281
3359.00,0.0281
3358.00,0.0281
3357.00,0.0281
3356.00,0.0281
3355.00,0.0282
3354.00,0.0282
3353.00,0.0283
3352.00,0.0284
3351.00,0.0284
3350.00,0.0285
3349.00,0.0285
3348.00,0.0284
3347.00,0.0284
3346.00,0.0283
3345.00,0.0283
3344.00,0.0283
3343.00,0.0283
3342.00,0.0283
3341.00,0.0284
3340.00,0.0284
3339.00,0.0284
3338.00,0.0284
3337.00,0.0284
3336.00,0.0284
3335.00,0.0284
3334.00,0.0284
3333.00,0.0284
3332.00,0.0284
3331.00,0.0284
3330.00,0.0285
3329.00,0.0285
3328.00,0.0286
3327.00,0.0286
3326.00,0.0286
3325.00,0.0286
3324.00,0.0286
3323.00,0.0285
3322.00,0.0285
3321.00,0.0285
3320.00,0.0285
3319.00,0.0286
3318.00,0.0287
3317.00,0.0287
3316.00,0.0287
3315.00,0.0287
3314.00,0.0287
3313.00,0.0286
3312.00,0.0286
3311.00,0.0286
3310.00,0.0286
3309.00,0.0286
3308.00,0.0286
3307.00,0.0286
3306.00,0.0287
3305.00,0.0287
3304.00,0.0287
3303.00,0.0287
3302.00,0.0287
3301.00,0.0288
3300.00,0.0288
3299.00,0.0288
3298.00,0.0288
3297.00,0.0288
3296.00,0.0287
3295.00,0.0287
3294.00,0.0288
3293.00,0.0288
3292.00,0.0288
3291.00,0.0288
3290.00,0.0288
3289.00,0.0288
3288.00,0.0288
3287.00,0.0288
3286.00,0.0288
3285.00,0.0288
3284.00,0.0288
3283.00,0.0288
3282.00,0.0288
3281.00,0.0289
3280.00,0.0289
3279.00,0.0289
3278.00,0.0289
3277.00,0.0289
3276.00,0.0289
3275.00,0.0290
3274.00,0.0290
3273.00,0.0290
3272.00,0.0290
3271.00,0.0290
3270.00,0.0290
3269.00,0.0290
3268.00,0.0290
3267.00,0.0290
3266.00,0.0290
3265.00,0.0290
3264.00,0.0290
3263.00,0.0290
3262.00,0.0289
3261.00,0.0289
3260.00,0.0289
3259.00,0.0289
3258.00,0.0289
3257.00,0.0289
3256.00,0.0289
3255.00,0.0290
3254.00,0.0290
3253.00,0.0290
3252.00,0.0290
3251.00,0.0290
3250.00,0.0290
3249.00,0.0290
3248.00,0.0290
3247.00,0.0290
3246.00,0.0291
3245.00,0.0291
3244.00,0.0291
3243.00,0.0291
3242.00,0.0291
3241.00,0.0291
3240.00,0.0292
3239.00,0.0292
3238.00,0.0292
3237.00,0.0292
3236.00,0.0291
3235.00,0.0291
3234.00,0.0291
3233.00,0.0291
3232.00,0.0291
3231.00,0.0291
3230.00,0.0291
3229.00,0.0291
3228.00,0.0292
3227.00,0.0292
3226.00,0.0292
3225.00,0.0292
3224.00,0.0292
3223.00,0.0292
3222.00,0.0292
3221.00,0.0292
3220.00,0.0292
3219.00,0.0292
3218.00,0.0291
3217.00,0.0291
3216.00,0.0291
3215.00,0.0291
3214.00,0.0291
3213.00,0.0291
3212.00,0.0291
3211.00,0.0291
3210.00,0.0291
3209.00,0.0291
3208.00,0.0291
3207.00,0.0291
3206.00,0.0291
3205.00,0.0291
3204.00,0.0291
3203.00,0.0291
3202.00,0.0291
3201.00,0.0291
3200.00,0.0291
3199.00,0.0292
3198.00,0.0292
3197.00,0.0291
3196.00,0.0291
3195.00,0.0291
3194.00,0.0291
3193.00,0.0291
3192.00,0.0291
3191.00,0.0291
3190.00,0.0291
3189.00,0.0291
3188.00,0.0291
3187.00,0.0291
3186.00,0.0291
3185.00,0.0291
3184.00,0.0291
3183.00,0.0291
3182.00,0.0291
3181.00,0.0290
3180.00,0.0290
3179.00,0.0290
3178.00,0.0290
3177.00,0.0290
3176.00,0.0290
3175.00,0.0290
3174.00,0.0290
3173.00,0.0290
3172.00,0.0290
3171.00,0.0291
3170.00,0.0291
3169.00,0.0290
3168.00,0.0290
3167.00,0.0289
3166.00,0.0289
3165.00,0.0288
3164.00,0.0288
3163.00,0.0288
3162.00,0.0289
3161.00,0.0289
3160.00,0.0289
3159.00,0.0289
3158.00,0.0289
3157.00,0.0288
3156.00,0.0288
3155.00,0.0287
3154.00,0.0287
3153.00,0.0286
3152.00,0.0286
3151.00,0.0286
3150.00,0.0287
3149.00,0.0287
3148.00,0.0287
3147.00,0.0287
3146.00,0.0287
3145.00,0.0287
3144.00,0.0287
3143.00,0.0286
3142.00,0.0286
3141.00,0.0286
3140.00,0.0286
3139.00,0.0286
3138.00,0.0287
3137.00,0.0286
3136.00,0.0286
3135.00,0.0286
3134.00,0.0285
3133.00,0.0285
3132.00,0.0285
3131.00,0.0285
3130.00,0.0285
3129.00,0.0285
3128.00,0.0285
3127.00,0.0284
3126.00,0.0284
3125.00,0.0283
3124.00,0.0283
3123.00,0.0283
3122.00,0.0283
3121.00,0.0283
3120.00,0.0284
3119.00,0.0284
3118.00,0.0284
3117.00,0.0284
3116.00,0.0283
3115.00,0.0283
3114.00,0.0282
3113.00,0.0282
3112.00,0.0283
3111.00,0.0283
3110.00,0.0282
3109.00,0.0282
3108.00,0.0282
3107.00,0.0282
3106.00,0.0281
3105.00,0.0281
3104.00,0.0281
3103.00,0.0281
3102.00,0.0281
3101.00,0.0281
3100.00,0.0281
3099.00,0.0280
3098.00,0.0280
3097.00,0.0280
3096.00,0.0280
3095.00,0.0280
3094.00,0.0280
3093.00,0.0280
3092.00,0.0281
3091.00,0.0281
3090.00,0.0281
3089.00,0.0281
3088.00,0.0281
3087.00,0.0281
3086.00,0.0280
3085.00,0.0280
3084.00,0.0280
3083.00,0.0280
3082.00,0.0280
3081.00,0.0280
3080.00,0.0281
3079.00,0.0280
3078.00,0.0280
3077.00,0.0279
3076.00,0.0279
3075.00,0.0279
3074.00,0.0279
3073.00,0.0279
3072.00,0.0279
3071.00,0.0279
3070.00,0.0278
3069.00,0.0278
3068.00,0.0278
3067.00,0.0278
3066.00,0.0278
3065.00,0.0278
3064.00,0.0278
3063.00,0.0278
3062.00,0.0278
3061.00,0.0278
3060.00,0.0277
3059.00,0.0276
3058.00,0.0276
3057.00,0.0276
3056.00,0.0276
3055.00,0.0276
3054.00,0.0276
3053.00,0.0276
3052.00,0.0276
3051.00,0.0276
3050.00,0.0276
3049.00,0.0275
3048.00,0.0275
3047.00,0.0275
3046.00,0.0275
3045.00,0.0275
3044.00,0.0275
3043.00,0.0275
3042.00,0.0274
3041.00,0.0274
3040.00,0.0274
3039.00,0.0273
3038.00,0.0273
3037.00,0.0273
3036.00,0.0273
3035.00,0.0273
3034.00,0.0273
3033.00,0.0272
3032.00,0.0272
3031.00,0.0271
3030.00,0.0271
3029.00,0.0271
3028.00,0.0271
3027.00,0.0271
3026.00,0.0271
3025.00,0.0271
3024.00,0.0270
3023.00,0.0270
3022.00,0.0270
3021.00,0.0269
3020.00,0.0269
3019.00,0.0268
3018.00,0.0268
3017.00,0.0268
3016.00,0.0268
3015.00,0.0268
3014.00,0.0268
3013.00,0.0269
3012.00,0.0269
3011.00,0.0269
3010.00,0.0268
3009.00,0.0268
3008.00,0.0267
3007.00,0.0267
3006.00,0.0267
3005.00,0.0267
3004.00,0.0267
3003.00,0.0268
3002.00,0.0268
3001.00,0.0268
3000.00,0.0267
2999.00,0.0267
2998.00,0.0267
2997.00,0.0267
2996.00,0.0267
2995.00,0.0266
2994.00,0.0266
2993.00,0.0266
2992.00,0.0266
2991.00,0.0265
2990.00,0.0265
2989.00,0.0265
2988.00,0.0265
2987.00,0.0265
2986.00,0.0265
2985.00,0.0265
2984.00,0.0265
2983.00,0.0265
2982.00,0.0265
2981.00,0.0265
2980.00,0.0264
2979.00,0.0264
2978.00,0.0264
2977.00,0.0263
2976.00,0.0263
2975.00,0.0263
2974.00,0.0262
2973.00,0.0262
2972.00,0.0261
2971.00,0.0261
2970.00,0.0260
2969.00,0.0260
2968.00,0.0259
2967.00,0.0259
2966.00,0.0258
2965.00,0.0257
2964.00,0.0257
2963.00,0.0256
2962.00,0.0256
2961.00,0.0255
2960.00,0.0254
2959.00,0.0254
2958.00,0.0254
2957.00,0.0253
2956.00,0.0253
2955.00,0.0253
2954.00,0.0253
2953.00,0.0254
2952.00,0.0254
2951.00,0.0254
2950.00,0.0254
2949.00,0.0253
2948.00,0.0253
2947.00,0.0252
2946.00,0.0252
2945.00,0.0252
2944.00,0.0252
2943.00,0.0252
2942.00,0.0251
2941.00,0.0251
2940.00,0.0250
2939.00,0.0249
2938.00,0.0248
2937.00,0.0248
2936.00,0.0247
2935.00,0.0246
2934.00,0.0246
2933.00,0.0245
2932.00,0.0244
2931.00,0.0243
2930.00,0.0242
2929.00,0.0242
2928.00,0.0241
2927.00,0.0240
2926.00,0.0240
2925.00,0.0239
2924.00,0.0239
2923.00,0.0239
2922.00,0.0239
2921.00,0.0239
2920.00,0.0239
2919.00,0.0239
2918.00,0.0238
2917.00,0.0238
2916.00,0.0239
2915.00,0.0240
2914.00,0.0242
2913.00,0.0243
2912.00,0.0244
2911.00,0.0245
2910.00,0.0245
2909.00,0.0245
2908.00,0.0246
2907.00,0.0246
2906.00,0.0247
2905.00,0.0247
2904.00,0.0247
2903.00,0.0247
2902.00,0.0248
2901.00,0.0248
2900.00,0.0248
2899.00,0.0248
2898.00,0.0248
2897.00,0.0248
2896.00,0.0247
2895.00,0.0247
2894.00,0.0247
2893.00,0.0247
2892.00,0.0247
2891.00,0.0247
2890.00,0.0247
2889.00,0.0247
2888.00,0.0247
2887.00,0.0248
2886.00,0.0247
2885.00,0.0247
2884.00,0.0247
2883.00,0.0247
2882.00,0.0247
2881.00,0.0246
2880.00,0.0246
2879.00,0.0246
2878.00,0.0246
2877.00,0.0246
2876.00,0.0245
2875.00,0.0245
2874.00,0.0244
2873.00,0.0244
2872.00,0.0244
2871.00,0.0243
2870.00,0.0243
2869.00,0.0243
2868.00,0.0242
2867.00,0.0242
2866.00,0.0242
2865.00,0.0241
2864.00,0.0240
2863.00,0.0240
2862.00,0.0239
2861.00,0.0239
2860.00,0.0239
2859.00,0.0238
2858.00,0.0237
2857.00,0.0237
2856.00,0.0236
2855.00,0.0235
2854.00,0.0235
2853.00,0.0235
2852.00,0.0235
2851.00,0.0236
2850.00,0.0236
2849.00,0.0236
2848.00,0.0237
2847.00,0.0238
2846.00,0.0238
2845.00,0.0239
2844.00,0.0240
2843.00,0.0240
2842.00,0.0241
2841.00,0.0241
2840.00,0.0241
2839.00,0.0242
2838.00,0.0242
2837.00,0.0242
2836.00,0.0241
2835.00,0.0241
2834.00,0.0241
2833.00,0.0240
2832.00,0.0240
2831.00,0.0240
2830.00,0.0240
2829.00,0.0240
2828.00,0.0240
2827.00,0.0240
2826.00,0.0240
2825.00,0.0240
2824.00,0.0240
2823.00,0.0240
2822.00,0.0239
2821.00,0.0239
2820.00,0.0239
2819.00,0.0239
2818.00,0.0239
2817.00,0.0239
2816.00,0.0239
2815.00,0.0239
2814.00,0.0239
2813.00,0.0239
2812.00,0.0239
2811.00,0.0239
2810.00,0.0239
2809.00,0.0238
2808.00,0.0238
2807.00,0.0238
2806.00,0.0238
2805.00,0.0237
2804.00,0.0237
2803.00,0.0237
2802.00,0.0237
2801.00,0.0237
2800.00,0.0237
2799.00,0.0237
2798.00,0.0237
2797.00,0.0237
2796.00,0.0236
2795.00,0.0236
2794.00,0.0236
2793.00,0.0236
2792.00,0.0235
2791.00,0.0235
2790.00,0.0236
2789.00,0.0236
2788.00,0.0236
2787.00,0.0236
2786.00,0.0235
2785.00,0.0235
2784.00,0.0235
2783.00,0.0235
2782.00,0.0235
2781.00,0.0234
2780.00,0.0234
2779.00,0.0234
2778.00,0.0234
2777.00,0.0233
2776.00,0.0233
2775.00,0.0233
2774.00,0.0233
2773.00,0.0233
2772.00,0.0233
2771.00,0.0233
2770.00,0.0234
2769.00,0.0234
2768.00,0.0233
2767.00,0.0233
2766.00,0.0233
2765.00,0.0233
2764.00,0.0232
2763.00,0.0232
2762.00,0.0232
2761.00,0.0231
2760.00,0.0231
2759.00,0.0231
2758.00,0.0231
2757.00,0.0231
2756.00,0.0231
2755.00,0.0231
2754.00,0.0231
2753.00,0.0231
2752.00,0.0231
2751.00,0.0230
2750.00,0.0230
2749.00,0.0230
2748.00,0.0230
2747.00,0.0230
2746.00,0.0230
2745.00,0.0230
2744.00,0.0230
2743.00,0.0230
2742.00,0.0230
2741.00,0.0230
2740.00,0.0229
2739.00,0.0229
2738.00,0.0229
2737.00,0.0229
2736.00,0.0229
2735.00,0.0229
2734.00,0.0228
2733.00,0.0228
2732.00,0.0228
2731.00,0.0228
2730.00,0.0228
2729.00,0.0228
2728.00,0.0228
2727.00,0.0228
2726.00,0.0227
2725.00,0.0227
2724.00,0.0227
2723.00,0.0227
2722.00,0.0227
2721.00,0.0227
2720.00,0.0227
2719.00,0.0227
2718.00,0.0227
2717.00,0.0227
2716.00,0.0227
2715.00,0.0226
2714.00,0.0226
2713.00,0.0226
2712.00,0.0226
2711.00,0.0226
2710.00,0.0226
2709.00,0.0226
2708.00,0.0226
2707.00,0.0226
2706.00,0.0226
2705.00,0.0226
2704.00,0.0225
2703.00,0.0225
2702.00,0.0225
2701.00,0.0225
2700.00,0.0225
2699.00,0.0225
2698.00,0.0225
2697.00,0.0225
2696.00,0.0225
2695.00,0.0224
2694.00,0.0224
2693.00,0.0224
2692.00,0.0224
2691.00,0.0224
2690.00,0.0224
2689.00,0.0224
2688.00,0.0224
2687.00,0.0224
2686.00,0.0224
2685.00,0.0224
2684.00,0.0224
2683.00,0.0224
2682.00,0.0224
2681.00,0.0223
2680.00,0.0223
2679.00,0.0223
2678.00,0.0222
2677.00,0.0222
2676.00,0.0222
2675.00,0.0222
2674.00,0.0223
2673.00,0.0223
2672.00,0.0223
2671.00,0.0223
2670.00,0.0223
2669.00,0.0222
2668.00,0.0222
2667.00,0.0222
2666.00,0.0222
2665.00,0.0222
2664.00,0.0222
2663.00,0.0223
2662.00,0.0223
2661.00,0.0223
2660.00,0.0223
2659.00,0.0223
2658.00,0.0223
2657.00,0.0223
2656.00,0.0223
2655.00,0.0223
2654.00,0.0223
2653.00,0.0223
2652.00,0.0223
2651.00,0.0223
2650.00,0.0223
2649.00,0.0222
2648.00,0.0222
2647.00,0.0223
2646.00,0.0223
2645.00,0.0223
2644.00,0.0223
2643.00,0.0223
2642.00,0.0223
2641.00,0.0223
2640.00,0.0223
2639.00,0.0223
2638.00,0.0223
2637.00,0.0223
2636.00,0.0223
2635.00,0.0223
2634.00,0.0223
2633.00,0.0223
2632.00,0.0223
2631.00,0.0223
2630.00,0.0223
2629.00,0.0223
2628.00,0.0223
2627.00,0.0223
2626.00,0.0223
2625.00,0.0223
2624.00,0.0223
2623.00,0.0223
2622.00,0.0223
2621.00,0.0223
2620.00,0.0223
2619.00,0.0223
2618.00,0.0223
2617.00,0.0223
2616.00,0.0223
2615.00,0.0223
2614.00,0.0223
2613.00,0.0223
2612.00,0.0223
2611.00,0.0223
2610.00,0.0223
2609.00,0.0224
2608.00,0.0224
2607.00,0.0224
2606.00,0.0224
2605.00,0.0224
2604.00,0.0224
2603.00,0.0223
2602.00,0.0223
2601.00,0.0223
2600.00,0.0223
2599.00,0.0223
2598.00,0.0223
2597.00,0.0223
2596.00,0.0223
2595.00,0.0223
2594.00,0.0223
2593.00,0.0223
2592.00,0.0223
2591.00,0.0223
2590.00,0.0223
2589.00,0.0223
2588.00,0.0223
2587.00,0.0223
2586.00,0.0223
2585.00,0.0223
2584.00,0.0223
2583.00,0.0223
2582.00,0.0223
2581.00,0.0223
2580.00,0.0223
2579.00,0.0223
2578.00,0.0223
2577.00,0.0223
2576.00,0.0223
2575.00,0.0223
2574.00,0.0223
2573.00,0.0223
2572.00,0.0222
2571.00,0.0222
2570.00,0.0222
2569.00,0.0222
2568.00,0.0223
2567.00,0.0223
2566.00,0.0223
2565.00,0.0223
2564.00,0.0223
2563.00,0.0223
2562.00,0.0222
2561.00,0.0221
2560.00,0.0220
2559.00,0.0220
2558.00,0.0220
2557.00,0.0221
2556.00,0.0221
2555.00,0.0222
2554.00,0.0222
2553.00,0.0222
2552.00,0.0222
2551.00,0.0222
2550.00,0.0222
2549.00,0.0221
2548.00,0.0221
2547.00,0.0221
2546.00,0.0221
2545.00,0.0221
2544.00,0.0221
2543.00,0.0221
2542.00,0.0220
2541.00,0.0220
2540.00,0.0220
2539.00,0.0221
2538.00,0.0222
2537.00,0.0222
2536.00,0.0221
2535.00,0.0220
2534.00,0.0220
2533.00,0.0219
2532.00,0.0219
2531.00,0.0219
2530.00,0.0219
2529.00,0.0219
2528.00,0.0219
2527.00,0.0219
2526.00,0.0219
2525.00,0.0219
2524.00,0.0219
2523.00,0.0219
2522.00,0.0219
2521.00,0.0220
2520.00,0.0219
2519.00,0.0219
2518.00,0.0219
2517.00,0.0219
2516.00,0.0219
2515.00,0.0219
2514.00,0.0220
2513.00,0.0220
2512.00,0.0219
2511.00,0.0219
2510.00,0.0218
2509.00,0.0218
2508.00,0.0217
2507.00,0.0217
2506.00,0.0217
2505.00,0.0218
2504.00,0.0218
2503.00,0.0218
2502.00,0.0217
2501.00,0.0217
2500.00,0.0217
2499.00,0.0217
2498.00,0.0217
2497.00,0.0217
2496.00,0.0217
2495.00,0.0218
2494.00,0.0218
2493.00,0.0218
2492.00,0.0218
2491.00,0.0218
2490.00,0.0218
2489.00,0.0217
2488.00,0.0217
2487.00,0.0216
2486.00,0.0216
2485.00,0.0216
2484.00,0.0216
2483.00,0.0216
2482.00,0.0216
2481.00,0.0216
2480.00,0.0216
2479.00,0.0216
2478.00,0.0217
2477.00,0.0217
2476.00,0.0217
2475.00,0.0217
2474.00,0.0216
2473.00,0.0216
2472.00,0.0215
2471.00,0.0215
2470.00,0.0215
2469.00,0.0215
2468.00,0.0215
2467.00,0.0215
2466.00,0.0214
2465.00,0.0214
2464.00,0.0214
2463.00,0.0214
2462.00,0.0214
2461.00,0.0215
2460.00,0.0215
2459.00,0.0215
2458.00,0.0214
2457.00,0.0214
2456.00,0.0214
2455.00,0.0214
2454.00,0.0215
2453.00,0.0215
2452.00,0.0215
2451.00,0.0215
2450.00,0.0214
2449.00,0.0214
2448.00,0.0213
2447.00,0.0213
2446.00,0.0213
2445.00,0.0213
2444.00,0.0213
2443.00,0.0213
2442.00,0.0213
2441.00,0.0213
2440.00,0.0213
2439.00,0.0213
2438.00,0.0212
2437.00,0.0212
2436.00,0.0212
2435.00,0.0212
2434.00,0.0212
2433.00,0.0212
2432.00,0.0212
2431.00,0.0211
2430.00,0.0211
2429.00,0.0211
2428.00,0.0211
2427.00,0.0212
2426.00,0.0212
2425.00,0.0211
2424.00,0.0211
2423.00,0.0210
2422.00,0.0210
2421.00,0.0210
2420.00,0.0210
2419.00,0.0210
2418.00,0.0210
2417.00,0.0209
2416.00,0.0209
2415.00,0.0209
2414.00,0.0209
2413.00,0.0209
2412.00,0.0209
2411.00,0.0209
2410.00,0.0208
2409.00,0.0208
2408.00,0.0208
2407.00,0.0208
2406.00,0.0208
2405.00,0.0208
2404.00,0.0208
2403.00,0.0208
2402.00,0.0208
2401.00,0.0208
2400.00,0.0207
2399.00,0.0206
2398.00,0.0206
2397.00,0.0206
2396.00,0.0206
2395.00,0.0206
2394.00,0.0206
2393.00,0.0205
2392.00,0.0205
2391.00,0.0205
2390.00,0.0205
2389.00,0.0205
2388.00,0.0205
2387.00,0.0204
2386.00,0.0204
2385.00,0.0204
2384.00,0.0204
2383.00,0.0203
2382.00,0.0203
2381.00,0.0202
2380.00,0.0201
2379.00,0.0199
2378.00,0.0198
2377.00,0.0196
2376.00,0.0196
2375.00,0.0195
2374.00,0.0195
2373.00,0.0195
2372.00,0.0195
2371.00,0.0196
2370.00,0.0197
2369.00,0.0198
2368.00,0.0197
2367.00,0.0196
2366.00,0.0195
2365.00,0.0194
2364.00,0.0194
2363.00,0.0195
2362.00,0.0195
2361.00,0.0195
2360.00,0.0195
2359.00,0.0195
2358.00,0.0194
2357.00,0.0194
2356.00,0.0196
2355.00,0.0198
2354.00,0.0201
2353.00,0.0203
2352.00,0.0203
2351.00,0.0202
2350.00,0.0198
2349.00,0.0196
2348.00,0.0195
2347.00,0.0195
2346.00,0.0195
2345.00,0.0193
2344.00,0.0189
2343.00,0.0186
2342.00,0.0188
2341.00,0.0192
2340.00,0.0195
2339.00,0.0196
2338.00,0.0196
2337.00,0.0196
2336.00,0.0195
2335.00,0.0195
2334.00,0.0195
2333.00,0.0196
2332.00,0.0197
2331.00,0.0197
2330.00,0.0197
2329.00,0.0196
2328.00,0.0197
2327.00,0.0198
2326.00,0.0200
2325.00,0.0201
2324.00,0.0202
2323.00,0.0203
2322.00,0.0203
2321.00,0.0202
2320.00,0.0202
2319.00,0.0201
2318.00,0.0201
2317.00,0.0202
2316.00,0.0202
2315.00,0.0202
2314.00,0.0201
2313.00,0.0201
2312.00,0.0200
2311.00,0.0199
2310.00,0.0198
2309.00,0.0197
2308.00,0.0197
2307.00,0.0196
2306.00,0.0196
2305.00,0.0195
2304.00,0.0195
2303.00,0.0195
2302.00,0.0195
2301.00,0.0194
2300.00,0.0194
2299.00,0.0194
2298.00,0.0194
2297.00,0.0195
2296.00,0.0195
2295.00,0.0195
2294.00,0.0195
2293.00,0.0196
2292.00,0.0196
2291.00,0.0197
2290.00,0.0197
2289.00,0.0198
2288.00,0.0199
2287.00,0.0199
2286.00,0.0198
2285.00,0.0198
2284.00,0.0197
2283.00,0.0198
2282.00,0.0198
2281.00,0.0198
2280.00,0.0197
2279.00,0.0197
2278.00,0.0196
2277.00,0.0196
2276.00,0.0195
2275.00,0.0195
2274.00,0.0195
2273.00,0.0195
2272.00,0.0195
2271.00,0.0195
2270.00,0.0196
2269.00,0.0196
2268.00,0.0195
2267.00,0.0195
2266.00,0.0195
2265.00,0.0195
2264.00,0.0195
2263.00,0.0196
2262.00,0.0196
2261.00,0.0197
2260.00,0.0198
2259.00,0.0198
2258.00,0.0198
2257.00,0.0197
2256.00,0.0196
2255.00,0.0195
2254.00,0.0195
2253.00,0.0195
2252.00,0.0195
2251.00,0.0194
2250.00,0.0193
2249.00,0.0193
2248.00,0.0192
2247.00,0.0192
2246.00,0.0192
2245.00,0.0193
2244.00,0.0194
2243.00,0.0195
2242.00,0.0196
2241.00,0.0196
2240.00,0.0197
2239.00,0.0197
2238.00,0.0196
2237.00,0.0196
2236.00,0.0195
2235.00,0.0195
2234.00,0.0196
2233.00,0.0197
2232.00,0.0198
2231.00,0.0199
2230.00,0.0200
2229.00,0.0200
2228.00,0.0199
2227.00,0.0198
2226.00,0.0197
2225.00,0.0196
2224.00,0.0196
2223.00,0.0196
2222.00,0.0196
2221.00,0.0196
2220.00,0.0197
2219.00,0.0196
2218.00,0.0196
2217.00,0.0195
2216.00,0.0195
2215.00,0.0195
2214.00,0.0196
2213.00,0.0197
2212.00,0.0198
2211.00,0.0198
2210.00,0.0197
2209.00,0.0197
2208.00,0.0196
2207.00,0.0195
2206.00,0.0193
2205.00,0.0192
2204.00,0.0191
2203.00,0.0192
2202.00,0.0194
2201.00,0.0195
2200.00,0.0196
2199.00,0.0197
2198.00,0.0197
2197.00,0.0196
2196.00,0.0195
2195.00,0.0195
2194.00,0.0194
2193.00,0.0194
2192.00,0.0193
2191.00,0.0192
2190.00,0.0193
2189.00,0.0194
2188.00,0.0196
2187.00,0.0197
2186.00,0.0198
2185.00,0.0197
2184.00,0.0195
2183.00,0.0193
2182.00,0.0192
2181.00,0.0191
2180.00,0.0192
2179.00,0.0192
2178.00,0.0193
2177.00,0.0193
2176.00,0.0193
2175.00,0.0192
2174.00,0.0193
2173.00,0.0193
2172.00,0.0194
2171.00,0.0194
2170.00,0.0196
2169.00,0.0196
2168.00,0.0196
2167.00,0.0195
2166.00,0.0194
2165.00,0.0193
2164.00,0.0194
2163.00,0.0195
2162.00,0.0195
2161.00,0.0194
2160.00,0.0191
2159.00,0.0189
2158.00,0.0188
2157.00,0.0188
2156.00,0.0188
2155.00,0.0188
2154.00,0.0187
2153.00,0.0187
2152.00,0.0186
2151.00,0.0186
2150.00,0.0185
2149.00,0.0184
2148.00,0.0184
2147.00,0.0184
2146.00,0.0185
2145.00,0.0185
2144.00,0.0186
2143.00,0.0186
2142.00,0.0186
2141.00,0.0185
2140.00,0.0184
2139.00,0.0184
2138.00,0.0183
2137.00,0.0183
2136.00,0.0181
2135.00,0.0180
2134.00,0.0179
2133.00,0.0180
2132.00,0.0180
2131.00,0.0180
2130.00,0.0180
2129.00,0.0180
2128.00,0.0180
2127.00,0.0180
2126.00,0.0180
2125.00,0.0180
2124.00,0.0180
2123.00,0.0180
2122.00,0.0180
2121.00,0.0181
2120.00,0.0181
2119.00,0.0181
2118.00,0.0181
2117.00,0.0182
2116.00,0.0182
2115.00,0.0182
2114.00,0.0182
2113.00,0.0182
2112.00,0.0181
2111.00,0.0181
2110.00,0.0181
2109.00,0.0181
2108.00,0.0180
2107.00,0.0180
2106.00,0.0179
2105.00,0.0179
2104.00,0.0178
2103.00,0.0178
2102.00,0.0178
2101.00,0.0178
2100.00,0.0178
2099.00,0.0178
2098.00,0.0178
2097.00,0.0178
2096.00,0.0177
2095.00,0.0177
2094.00,0.0178
2093.00,0.0178
2092.00,0.0179
2091.00,0.0179
2090.00,0.0179
2089.00,0.0178
2088.00,0.0178
2087.00,0.0177
2086.00,0.0176
2085.00,0.0177
2084.00,0.0177
2083.00,0.0177
2082.00,0.0176
2081.00,0.0175
2080.00,0.0175
2079.00,0.0175
2078.00,0.0176
2077.00,0.0176
2076.00,0.0177
2075.00,0.0177
2074.00,0.0177
2073.00,0.0176
2072.00,0.0176
2071.00,0.0175
2070.00,0.0175
2069.00,0.0175
2068.00,0.0175
2067.00,0.0174
2066.00,0.0174
2065.00,0.0174
2064.00,0.0174
2063.00,0.0173
2062.00,0.0172
2061.00,0.0171
2060.00,0.0171
2059.00,0.0172
2058.00,0.0173
2057.00,0.0174
2056.00,0.0175
2055.00,0.0176
2054.00,0.0176
2053.00,0.0177
2052.00,0.0178
2051.00,0.0178
2050.00,0.0177
2049.00,0.0176
2048.00,0.0176
2047.00,0.0176
2046.00,0.0177
2045.00,0.0179
2044.00,0.0181
2043.00,0.0181
2042.00,0.0180
2041.00,0.0179
2040.00,0.0179
2039.00,0.0180
2038.00,0.0182
2037.00,0.0183
2036.00,0.0182
2035.00,0.0181
2034.00,0.0179
2033.00,0.0178
2032.00,0.0177
2031.00,0.0175
2030.00,0.0175
2029.00,0.0175
2028.00,0.0175
2027.00,0.0175
2026.00,0.0173
2025.00,0.0172
2024.00,0.0170
2023.00,0.0170
2022.00,0.0171
2021.00,0.0173
2020.00,0.0174
2019.00,0.0175
2018.00,0.0175
2017.00,0.0175
2016.00,0.0175
2015.00,0.0175
2014.00,0.0175
2013.00,0.0174
2012.00,0.0174
2011.00,0.0172
2010.00,0.0171
2009.00,0.0170
2008.00,0.0170
2007.00,0.0170
2006.00,0.0170
2005.00,0.0171
2004.00,0.0171
2003.00,0.0171
2002.00,0.0171
2001.00,0.0170
2000.00,0.0170
1999.00,0.0170
1998.00,0.0170
1997.00,0.0170
1996.00,0.0170
1995.00,0.0171
1994.00,0.0171
1993.00,0.0171
1992.00,0.0172
1991.00,0.0171
1990.00,0.0171
1989.00,0.0170
1988.00,0.0169
1987.00,0.0167
1986.00,0.0168
1985.00,0.0169
1984.00,0.0169
1983.00,0.0169
1982.00,0.0169
1981.00,0.0170
1980.00,0.0170
1979.00,0.0170
1978.00,0.0170
1977.00,0.0169
1976.00,0.0168
1975.00,0.0167
1974.00,0.0166
1973.00,0.0165
1972.00,0.0165
1971.00,0.0165
1970.00,0.0165
1969.00,0.0165
1968.00,0.0164
1967.00,0.0164
1966.00,0.0162
1965.00,0.0161
1964.00,0.0160
1963.00,0.0160
1962.00,0.0160
1961.00,0.0160
1960.00,0.0160
1959.00,0.0159
1958.00,0.0158
1957.00,0.0157
1956.00,0.0157
1955.00,0.0156
1954.00,0.0156
1953.00,0.0156
1952.00,0.0155
1951.00,0.0153
1950.00,0.0153
1949.00,0.0153
1948.00,0.0154
1947.00,0.0155
1946.00,0.0155
1945.00,0.0155
1944.00,0.0155
1943.00,0.0155
1942.00,0.0154
1941.00,0.0153
1940.00,0.0152
1939.00,0.0151
1938.00,0.0150
1937.00,0.0149
1936.00,0.0149
1935.00,0.0149
1934.00,0.0148
1933.00,0.0149
1932.00,0.0149
1931.00,0.0150
1930.00,0.0150
1929.00,0.0149
1928.00,0.0148
1927.00,0.0147
1926.00,0.0147
1925.00,0.0148
1924.00,0.0148
1923.00,0.0147
1922.00,0.0147
1921.00,0.0146
1920.00,0.0146
1919.00,0.0146
1918.00,0.0144
1917.00,0.0143
1916.00,0.0143
1915.00,0.0143
1914.00,0.0143
1913.00,0.0143
1912.00,0.0143
1911.00,0.0142
1910.00,0.0141
1909.00,0.0140
1908.00,0.0139
1907.00,0.0138
1906.00,0.0138
1905.00,0.0138
1904.00,0.0138
1903.00,0.0137
1902.00,0.0137
1901.00,0.0138
1900.00,0.0138
1899.00,0.0137
1898.00,0.0137
1897.00,0.0137
1896.00,0.0136
1895.00,0.0136
1894.00,0.0135
1893.00,0.0135
1892.00,0.0136
1891.00,0.0136
1890.00,0.0135
1889.00,0.0133
1888.00,0.0131
1887.00,0.0131
1886.00,0.0132
1885.00,0.0132
1884.00,0.0132
1883.00,0.0132
1882.00,0.0131
1881.00,0.0131
1880.00,0.0130
1879.00,0.0129
1878.00,0.0129
1877.00,0.0129
1876.00,0.0130
1875.00,0.0130
1874.00,0.0129
1873.00,0.0128
1872.00,0.0128
1871.00,0.0128
1870.00,0.0128
1869.00,0.0126
1868.00,0.0124
1867.00,0.0122
1866.00,0.0123
1865.00,0.0124
1864.00,0.0124
1863.00,0.0124
1862.00,0.0124
1861.00,0.0123
1860.00,0.0123
1859.00,0.0122
1858.00,0.0122
1857.00,0.0122
1856.00,0.0122
1855.00,0.0121
1854.00,0.0120
1853.00,0.0120
1852.00,0.0119
1851.00,0.0119
1850.00,0.0119
1849.00,0.0119
1848.00,0.0119
1847.00,0.0119
1846.00,0.0119
1845.00,0.0117
1844.00,0.0115
1843.00,0.0113
1842.00,0.0113
1841.00,0.0114
1840.00,0.0114
1839.00,0.0114
1838.00,0.0112
1837.00,0.0112
1836.00,0.0111
1835.00,0.0111
1834.00,0.0111
1833.00,0.0112
1832.00,0.0113
1831.00,0.0112
1830.00,0.0109
1829.00,0.0107
1828.00,0.0107
1827.00,0.0107
1826.00,0.0108
1825.00,0.0106
1824.00,0.0105
1823.00,0.0105
1822.00,0.0105
1821.00,0.0105
1820.00,0.0105
1819.00,0.0105
1818.00,0.0105
1817.00,0.0104
1816.00,0.0103
1815.00,0.0103
1814.00,0.0102
1813.00,0.0101
1812.00,0.0101
1811.00,0.0099
1810.00,0.0098
1809.00,0.0099
1808.00,0.0099
1807.00,0.0099
1806.00,0.0099
1805.00,0.0099
1804.00,0.0100
1803.00,0.0100
1802.00,0.0099
1801.00,0.0097
1800.00,0.0097
1799.00,0.0096
1798.00,0.0097
1797.00,0.0098
1796.00,0.0099
1795.00,0.0100
1794.00,0.0100
1793.00,0.0099
1792.00,0.0097
1791.00,0.0095
1790.00,0.0095
1789.00,0.0097
1788.00,0.0099
1787.00,0.0100
1786.00,0.0101
1785.00,0.0102
1784.00,0.0102
1783.00,0.0102
1782.00,0.0103
1781.00,0.0103
1780.00,0.0103
1779.00,0.0104
1778.00,0.0105
1777.00,0.0107
1776.00,0.0109
1775.00,0.0111
1774.00,0.0112
1773.00,0.0112
1772.00,0.0111
1771.00,0.0111
1770.00,0.0114
1769.00,0.0117
1768.00,0.0118
1767.00,0.0118
1766.00,0.0119
1765.00,0.0122
1764.00,0.0124
1763.00,0.0125
1762.00,0.0125
1761.00,0.0125
1760.00,0.0126
1759.00,0.0129
1758.00,0.0130
1757.00,0.0131
1756.00,0.0131
1755.00,0.0133
1754.00,0.0136
1753.00,0.0138
1752.00,0.0140
1751.00,0.0141
1750.00,0.0141
1749.00,0.0142
1748.00,0.0142
1747.00,0.0144
1746.00,0.0146
1745.00,0.0148
1744.00,0.0151
1743.00,0.0153
1742.00,0.0156
1741.00,0.0159
1740.00,0.0161
1739.00,0.0163
1738.00,0.0165
1737.00,0.0169
1736.00,0.0173
1735.00,0.0176
1734.00,0.0178
1733.00,0.0178
1732.00,0.0180
1731.00,0.0183
1730.00,0.0186
1729.00,0.0189
1728.00,0.0191
1727.00,0.0195
1726.00,0.0198
1725.00,0.0200
1724.00,0.0203
1723.00,0.0204
1722.00,0.0206
1721.00,0.0208
1720.00,0.0210
1719.00,0.0211
1718.00,0.0211
1717.00,0.0211
1716.00,0.0212
1715.00,0.0214
1714.00,0.0216
1713.00,0.0218
1712.00,0.0220
1711.00,0.0222
1710.00,0.0222
1709.00,0.0223
1708.00,0.0224
1707.00,0.0225
1706.00,0.0226
1705.00,0.0226
1704.00,0.0228
1703.00,0.0230
1702.00,0.0233
1701.00,0.0234
1700.00,0.0234
1699.00,0.0232
1698.00,0.0234
1697.00,0.0237
1696.00,0.0237
1695.00,0.0236
1694.00,0.0236
1693.00,0.0238
1692.00,0.0240
1691.00,0.0240
1690.00,0.0241
1689.00,0.0241
1688.00,0.0242
1687.00,0.0243
1686.00,0.0243
1685.00,0.0244
1684.00,0.0244
1683.00,0.0244
1682.00,0.0247
1681.00,0.0251
1680.00,0.0253
1679.00,0.0254
1678.00,0.0256
1677.00,0.0258
1676.00,0.0260
1675.00,0.0262
1674.00,0.0263
1673.00,0.0264
1672.00,0.0266
1671.00,0.0268
1670.00,0.0270
1669.00,0.0271
1668.00,0.0273
1667.00,0.0275
1666.00,0.0277
1665.00,0.0278
1664.00,0.0280
1663.00,0.0283
1662.00,0.0285
1661.00,0.0287
1660.00,0.0289
1659.00,0.0291
1658.00,0.0292
1657.00,0.0293
1656.00,0.0293
1655.00,0.0293
1654.00,0.0297
1653.00,0.0301
1652.00,0.0300
1651.00,0.0302
1650.00,0.0304
1649.00,0.0306
1648.00,0.0308
1647.00,0.0311
1646.00,0.0313
1645.00,0.0316
1644.00,0.0319
1643.00,0.0321
1642.00,0.0323
1641.00,0.0324
1640.00,0.0325
1639.00,0.0325
1638.00,0.0325
1637.00,0.0328
1636.00,0.0333
1635.00,0.0337
1634.00,0.0340
1633.00,0.0344
1632.00,0.0346
1631.00,0.0348
1630.00,0.0350
1629.00,0.0352
1628.00,0.0354
1627.00,0.0356
1626.00,0.0359
1625.00,0.0361
1624.00,0.0364
1623.00,0.0367
1622.00,0.0369
1621.00,0.0370
1620.00,0.0372
1619.00,0.0373
1618.00,0.0376
1617.00,0.0379
1616.00,0.0382
1615.00,0.0384
1614.00,0.0386
1613.00,0.0389
1612.00,0.0390
1611.00,0.0392
1610.00,0.0394
1609.00,0.0396
1608.00,0.0399
1607.00,0.0401
1606.00,0.0403
1605.00,0.0404
1604.00,0.0405
1603.00,0.0406
1602.00,0.0408
1601.00,0.0409
1600.00,0.0411
1599.00,0.0413
1598.00,0.0414
1597.00,0.0416
1596.00,0.0417
1595.00,0.0418
1594.00,0.0419
1593.00,0.0420
1592.00,0.0421
1591.00,0.0422
1590.00,0.0423
1589.00,0.0424
1588.00,0.0425
1587.00,0.0426
1586.00,0.0427
1585.00,0.0427
1584.00,0.0427
1583.00,0.0428
1582.00,0.0429
1581.00,0.0429
1580.00,0.0428
1579.00,0.0427
1578.00,0.0426
1577.00,0.0427
1576.00,0.0429
1575.00,0.0430
1574.00,0.0430
1573.00,0.0430
1572.00,0.0428
1571.00,0.0428
1570.00,0.0428
1569.00,0.0428
1568.00,0.0428
1567.00,0.0428
1566.00,0.0427
1565.00,0.0426
1564.00,0.0425
1563.00,0.0424
1562.00,0.0421
1561.00,0.0416
1560.00,0.0415
1559.00,0.0421
1558.00,0.0421
1557.00,0.0420
1556.00,0.0420
1555.00,0.0419
1554.00,0.0417
1553.00,0.0415
1552.00,0.0414
1551.00,0.0412
1550.00,0.0411
1549.00,0.0408
1548.00,0.0406
1547.00,0.0404
1546.00,0.0401
1545.00,0.0398
1544.00,0.0394
1543.00,0.0390
1542.00,0.0386
1541.00,0.0384
1540.00,0.0383
1539.00,0.0382
1538.00,0.0381
1537.00,0.0382
1536.00,0.0382
1535.00,0.0380
1534.00,0.0379
1533.00,0.0378
1532.00,0.0377
1531.00,0.0376
1530.00,0.0375
1529.00,0.0373
1528.00,0.0372
1527.00,0.0370
1526.00,0.0367
1525.00,0.0365
1524.00,0.0363
1523.00,0.0362
1522.00,0.0360
1521.00,0.0359
1520.00,0.0357
1519.00,0.0356
1518.00,0.0354
1517.00,0.0353
1516.00,0.0352
1515.00,0.0351
1514.00,0.0351
1513.00,0.0350
1512.00,0.0349
1511.00,0.0347
1510.00,0.0344
1509.00,0.0342
1508.00,0.0341
1507.00,0.0340
1506.00,0.0337
1505.00,0.0336
1504.00,0.0337
1503.00,0.0337
1502.00,0.0336
1501.00,0.0334
1500.00,0.0332
1499.00,0.0330
1498.00,0.0329
1497.00,0.0329
1496.00,0.0330
1495.00,0.0330
1494.00,0.0331
1493.00,0.0332
1492.00,0.0332
1491.00,0.0331
1490.00,0.0330
1489.00,0.0329
1488.00,0.0328
1487.00,0.0328
1486.00,0.0327
1485.00,0.0328
1484.00,0.0328
1483.00,0.0328
1482.00,0.0328
1481.00,0.0327
1480.00,0.0327
1479.00,0.0327
1478.00,0.0327
1477.00,0.0327
1476.00,0.0328
1475.00,0.0328
1474.00,0.0329
1473.00,0.0330
1472.00,0.0330
1471.00,0.0329
1470.00,0.0329
1469.00,0.0329
1468.00,0.0329
1467.00,0.0329
1466.00,0.0329
1465.00,0.0329
1464.00,0.0330
1463.00,0.0330
1462.00,0.0330
1461.00,0.0329
1460.00,0.0329
1459.00,0.0329
1458.00,0.0331
1457.00,0.0333
1456.00,0.0334
1455.00,0.0335
1454.00,0.0335
1453.00,0.0336
1452.00,0.0336
1451.00,0.0337
1450.00,0.0338
1449.00,0.0339
1448.00,0.0341
1447.00,0.0341
1446.00,0.0341
1445.00,0.0341
1444.00,0.0342
1443.00,0.0342
1442.00,0.0342
1441.00,0.0343
1440.00,0.0344
1439.00,0.0345
1438.00,0.0346
1437.00,0.0348
1436.00,0.0349
1435.00,0.0349
1434.00,0.0349
1433.00,0.0350
1432.00,0.0350
1431.00,0.0351
1430.00,0.0352
1429.00,0.0352
1428.00,0.0353
1427.00,0.0353
1426.00,0.0354
1425.00,0.0355
1424.00,0.0356
1423.00,0.0356
1422.00,0.0356
1421.00,0.0356
1420.00,0.0357
1419.00,0.0359
1418.00,0.0360
1417.00,0.0361
1416.00,0.0362
1415.00,0.0363
1414.00,0.0364
1413.00,0.0364
1412.00,0.0364
1411.00,0.0365
1410.00,0.0365
1409.00,0.0365
1408.00,0.0366
1407.00,0.0367
1406.00,0.0368
1405.00,0.0369
1404.00,0.0371
1403.00,0.0372
1402.00,0.0373
1401.00,0.0374
1400.00,0.0375
1399.00,0.0376
1398.00,0.0377
1397.00,0.0378
1396.00,0.0380
1395.00,0.0381
1394.00,0.0382
1393.00,0.0383
1392.00,0.0385
1391.00,0.0386
1390.00,0.0387
1389.00,0.0388
1388.00,0.0390
1387.00,0.0391
1386.00,0.0392
1385.00,0.0392
1384.00,0.0393
1383.00,0.0394
1382.00,0.0395
1381.00,0.0396
1380.00,0.0397
1379.00,0.0397
1378.00,0.0398
1377.00,0.0398
1376.00,0.0398
1375.00,0.0399
1374.00,0.0401
1373.00,0.0401
1372.00,0.0402
1371.00,0.0401
1370.00,0.0401
1369.00,0.0401
1368.00,0.0401
1367.00,0.0401
1366.00,0.0402
1365.00,0.0402
1364.00,0.0402
1363.00,0.0402
1362.00,0.0402
1361.00,0.0401
1360.00,0.0401
1359.00,0.0400
1358.00,0.0400
1357.00,0.0399
1356.00,0.0399
1355.00,0.0399
1354.00,0.0398
1353.00,0.0398
1352.00,0.0398
1351.00,0.0397
1350.00,0.0397
1349.00,0.0396
1348.00,0.0396
1347.00,0.0395
1346.00,0.0395
1345.00,0.0394
1344.00,0.0394
1343.00,0.0393
1342.00,0.0392
1341.00,0.0392
1340.00,0.0392
1339.00,0.0392
1338.00,0.0391
1337.00,0.0391
1336.00,0.0390
1335.00,0.0389
1334.00,0.0389
1333.00,0.0389
1332.00,0.0388
1331.00,0.0388
1330.00,0.0388
1329.00,0.0387
1328.00,0.0386
1327.00,0.0386
1326.00,0.0385
1325.00,0.0384
1324.00,0.0384
1323.00,0.0384
1322.00,0.0384
1321.00,0.0384
1320.00,0.0385
1319.00,0.0385
1318.00,0.0384
1317.00,0.0384
1316.00,0.0384
1315.00,0.0384
1314.00,0.0384
1313.00,0.0384
1312.00,0.0384
1311.00,0.0384
1310.00,0.0384
1309.00,0.0384
1308.00,0.0384
1307.00,0.0384
1306.00,0.0384
1305.00,0.0384
1304.00,0.0384
1303.00,0.0384
1302.00,0.0384
1301.00,0.0384
1300.00,0.0385
1299.00,0.0385
1298.00,0.0385
1297.00,0.0386
1296.00,0.0387
1295.00,0.0387
1294.00,0.0387
1293.00,0.0387
1292.00,0.0388
1291.00,0.0389
1290.00,0.0389
1289.00,0.0390
1288.00,0.0390
1287.00,0.0390
1286.00,0.0390
1285.00,0.0390
1284.00,0.0390
1283.00,0.0391
1282.00,0.0392
1281.00,0.0393
1280.00,0.0394
1279.00,0.0394
1278.00,0.0395
1277.00,0.0395
1276.00,0.0396
1275.00,0.0396
1274.00,0.0397
1273.00,0.0397
1272.00,0.0398
1271.00,0.0398
1270.00,0.0399
1269.00,0.0399
1268.00,0.0400
1267.00,0.0400
1266.00,0.0401
1265.00,0.0401
1264.00,0.0402
1263.00,0.0402
1262.00,0.0403
1261.00,0.0404
1260.00,0.0405
1259.00,0.0405
1258.00,0.0406
1257.00,0.0406
1256.00,0.0406
1255.00,0.0407
1254.00,0.0407
1253.00,0.0407
1252.00,0.0408
1251.00,0.0408
1250.00,0.0408
1249.00,0.0409
1248.00,0.0409
1247.00,0.0410
1246.00,0.0410
1245.00,0.0410
1244.00,0.0410
1243.00,0.0410
1242.00,0.0410
1241.00,0.0411
1240.00,0.0411
1239.00,0.0411
1238.00,0.0411
1237.00,0.0411
1236.00,0.0411
1235.00,0.0412
1234.00,0.0412
1233.00,0.0412
1232.00,0.0412
1231.00,0.0412
1230.00,0.0412
1229.00,0.0411
1228.00,0.0411
1227.00,0.0411
1226.00,0.0410
1225.00,0.0410
1224.00,0.0410
1223.00,0.0409
1222.00,0.0409
1221.00,0.0408
1220.00,0.0407
1219.00,0.0407
1218.00,0.0407
1217.00,0.0406
1216.00,0.0406
1215.00,0.0405
1214.00,0.0405
1213.00,0.0405
1212.00,0.0404
1211.00,0.0404
1210.00,0.0404
1209.00,0.0404
1208.00,0.0404
1207.00,0.0403
1206.00,0.0403
1205.00,0.0402
1204.00,0.0402
1203.00,0.0403
1202.00,0.0403
1201.00,0.0403
1200.00,0.0402
1199.00,0.0402
1198.00,0.0401
1197.00,0.0401
1196.00,0.0401
1195.00,0.0400
1194.00,0.0400
1193.00,0.0400
1192.00,0.0399
1191.00,0.0399
1190.00,0.0399
1189.00,0.0398
1188.00,0.0398
1187.00,0.0398
1186.00,0.0398
1185.00,0.0399
1184.00,0.0399
1183.00,0.0400
1182.00,0.0400
1181.00,0.0400
1180.00,0.0399
1179.00,0.0399
1178.00,0.0400
1177.00,0.0400
1176.00,0.0401
1175.00,0.0401
1174.00,0.0401
1173.00,0.0400
1172.00,0.0400
1171.00,0.0400
1170.00,0.0400
1169.00,0.0400
1168.00,0.0400
1167.00,0.0400
1166.00,0.0400
1165.00,0.0400
1164.00,0.0400
1163.00,0.0400
1162.00,0.0400
1161.00,0.0400
1160.00,0.0400
1159.00,0.0399
1158.00,0.0398
1157.00,0.0398
1156.00,0.0398
1155.00,0.0399
1154.00,0.0399
1153.00,0.0399
1152.00,0.0398
1151.00,0.0398
1150.00,0.0398
1149.00,0.0397
1148.00,0.0398
1147.00,0.0398
1146.00,0.0399
1145.00,0.0400
1144.00,0.0400
1143.00,0.0400
1142.00,0.0400
1141.00,0.0400
1140.00,0.0400
1139.00,0.0401
1138.00,0.0401
1137.00,0.0401
1136.00,0.0402
1135.00,0.0403
1134.00,0.0404
1133.00,0.0405
1132.00,0.0406
1131.00,0.0407
1130.00,0.0408
1129.00,0.0409
1128.00,0.0410
1127.00,0.0411
1126.00,0.0413
1125.00,0.0414
1124.00,0.0416
1123.00,0.0419
1122.00,0.0422
1121.00,0.0426
1120.00,0.0429
1119.00,0.0431
1118.00,0.0433
1117.00,0.0435
1116.00,0.0436
1115.00,0.0437
1114.00,0.0437
1113.00,0.0437
1112.00,0.0437
1111.00,0.0439
1110.00,0.0440
1109.00,0.0442
1108.00,0.0443
1107.00,0.0444
1106.00,0.0444
1105.00,0.0446
1104.00,0.0448
1103.00,0.0450
1102.00,0.0452
1101.00,0.0453
1100.00,0.0454
1099.00,0.0454
1098.00,0.0455
1097.00,0.0455
1096.00,0.0456
1095.00,0.0456
1094.00,0.0457
1093.00,0.0458
1092.00,0.0459
1091.00,0.0461
1090.00,0.0462
1089.00,0.0462
1088.00,0.0462
1087.00,0.0462
1086.00,0.0462
1085.00,0.0462
1084.00,0.0463
1083.00,0.0463
1082.00,0.0463
1081.00,0.0463
1080.00,0.0463
1079.00,0.0463
1078.00,0.0464
1077.00,0.0465
1076.00,0.0466
1075.00,0.0466
1074.00,0.0466
1073.00,0.0466
1072.00,0.0466
1071.00,0.0467
1070.00,0.0468
1069.00,0.0470
1068.00,0.0472
1067.00,0.0473
1066.00,0.0473
1065.00,0.0474
1064.00,0.0475
1063.00,0.0476
1062.00,0.0477
1061.00,0.0478
1060.00,0.0480
1059.00,0.0481
1058.00,0.0482
1057.00,0.0483
1056.00,0.0483
1055.00,0.0483
1054.00,0.0484
1053.00,0.0485
1052.00,0.0488
1051.00,0.0491
1050.00,0.0493
1049.00,0.0494
1048.00,0.0495
1047.00,0.0497
1046.00,0.0498
1045.00,0.0500
1044.00,0.0501
1043.00,0.0503
1042.00,0.0505
1041.00,0.0507
1040.00,0.0509
1039.00,0.0511
1038.00,0.0513
1037.00,0.0515
1036.00,0.0518
1035.00,0.0520
1034.00,0.0521
1033.00,0.0522
1032.00,0.0521
1031.00,0.0520
1030.00,0.0518
1029.00,0.0515
1028.00,0.0511
1027.00,0.0508
1026.00,0.0504
1025.00,0.0500
1024.00,0.0497
1023.00,0.0495
1022.00,0.0493
1021.00,0.0492
1020.00,0.0490
1019.00,0.0489
1018.00,0.0488
1017.00,0.0488
1016.00,0.0488
1015.00,0.0488
1014.00,0.0488
1013.00,0.0488
1012.00,0.0490
1011.00,0.0492
1010.00,0.0493
1009.00,0.0494
1008.00,0.0494
1007.00,0.0493
1006.00,0.0492
1005.00,0.0491
1004.00,0.0491
1003.00,0.0490
1002.00,0.0489
1001.00,0.0486
1000.00,0.0483
999.00,0.0479
998.00,0.0475
997.00,0.0471
996.00,0.0467
995.00,0.0463
994.00,0.0459
993.00,0.0456
992.00,0.0453
991.00,0.0451
990.00,0.0448
989.00,0.0445
988.00,0.0442
987.00,0.0439
986.00,0.0436
985.00,0.0433
984.00,0.0430
983.00,0.0428
982.00,0.0425
981.00,0.0424
980.00,0.0422
979.00,0.0421
978.00,0.0419
977.00,0.0418
976.00,0.0417
975.00,0.0415
974.00,0.0414
973.00,0.0412
972.00,0.0410
971.00,0.0409
970.00,0.0408
969.00,0.0407
968.00,0.0407
967.00,0.0406
966.00,0.0406
965.00,0.0405
964.00,0.0403
963.00,0.0402
962.00,0.0400
961.00,0.0400
960.00,0.0400
959.00,0.0400
958.00,0.0399
957.00,0.0398
956.00,0.0397
955.00,0.0396
954.00,0.0395
953.00,0.0395
952.00,0.0395
951.00,0.0396
950.00,0.0396
949.00,0.0398
948.00,0.0399
947.00,0.0400
946.00,0.0402
945.00,0.0403
944.00,0.0404
943.00,0.0404
942.00,0.0404
941.00,0.0405
940.00,0.0406
939.00,0.0408
938.00,0.0409
937.00,0.0409
936.00,0.0409
935.00,0.0409
934.00,0.0408
933.00,0.0407
932.00,0.0406
931.00,0.0406
930.00,0.0405
929.00,0.0405
928.00,0.0406
927.00,0.0407
926.00,0.0408
925.00,0.0410
924.00,0.0411
923.00,0.0413
922.00,0.0414
921.00,0.0415
920.00,0.0418
919.00,0.0420
918.00,0.0424
917.00,0.0427
916.00,0.0430
915.00,0.0431
914.00,0.0431
913.00,0.0430
912.00,0.0430
911.00,0.0430
910.00,0.0429
909.00,0.0428
908.00,0.0426
907.00,0.0425
906.00,0.0424
905.00,0.0423
904.00,0.0422
903.00,0.0420
902.00,0.0418
901.00,0.0417
900.00,0.0416
899.00,0.0415
898.00,0.0414
897.00,0.0413
896.00,0.0411
895.00,0.0410
894.00,0.0408
893.00,0.0406
892.00,0.0405
891.00,0.0403
890.00,0.0402
889.00,0.0402
888.00,0.0402
887.00,0.0403
886.00,0.0403
885.00,0.0403
884.00,0.0402
883.00,0.0400
882.00,0.0397
881.00,0.0396
880.00,0.0396
879.00,0.0396
878.00,0.0396
877.00,0.0396
876.00,0.0396
875.00,0.0395
874.00,0.0395
873.00,0.0395
872.00,0.0396
871.00,0.0397
870.00,0.0398
869.00,0.0398
868.00,0.0398
867.00,0.0396
866.00,0.0394
865.00,0.0393
864.00,0.0393
863.00,0.0394
862.00,0.0394
861.00,0.0394
860.00,0.0394
859.00,0.0395
858.00,0.0396
857.00,0.0397
856.00,0.0398
855.00,0.0398
854.00,0.0398
853.00,0.0398
852.00,0.0399
851.00,0.0400
850.00,0.0401
849.00,0.0403
848.00,0.0404
847.00,0.0405
846.00,0.0406
845.00,0.0407
844.00,0.0408
843.00,0.0409
842.00,0.0409
841.00,0.0411
840.00,0.0413
839.00,0.0416
838.00,0.0418
837.00,0.0420
836.00,0.0421
835.00,0.0422
834.00,0.0421
833.00,0.0421
832.00,0.0421
831.00,0.0423
830.00,0.0425
829.00,0.0427
828.00,0.0428
827.00,0.0429
826.00,0.0429
825.00,0.0430
824.00,0.0433
823.00,0.0436
822.00,0.0439
821.00,0.0441
820.00,0.0443
819.00,0.0444
818.00,0.0446
817.00,0.0447
816.00,0.0448
815.00,0.0449
814.00,0.0449
813.00,0.0449
812.00,0.0448
811.00,0.0448
810.00,0.0449
809.00,0.0451
808.00,0.0453
807.00,0.0455
806.00,0.0458
805.00,0.0461
804.00,0.0465
803.00,0.0469
802.00,0.0472
801.00,0.0474
800.00,0.0475
799.00,0.0476
798.00,0.0477
797.00,0.0478
796.00,0.0479
795.00,0.0480
794.00,0.0480
793.00,0.0479
792.00,0.0479
791.00,0.0479
790.00,0.0479
789.00,0.0480
788.00,0.0480
787.00,0.0480
786.00,0.0481
785.00,0.0481
784.00,0.0482
783.00,0.0483
782.00,0.0485
781.00,0.0488
780.00,0.0491
779.00,0.0493
778.00,0.0493
777.00,0.0492
776.00,0.0490
775.00,0.0490
774.00,0.0490
773.00,0.0491
772.00,0.0491
771.00,0.0491
770.00,0.0490
769.00,0.0491
768.00,0.0493
767.00,0.0496
766.00,0.0499
765.00,0.0500
764.00,0.0501
763.00,0.0500
762.00,0.0499
761.00,0.0499
760.00,0.0501
759.00,0.0503
758.00,0.0505
757.00,0.0507
756.00,0.0507
755.00,0.0507
754.00,0.0505
753.00,0.0503
752.00,0.0503
751.00,0.0503
750.00,0.0505
749.00,0.0507
748.00,0.0509
747.00,0.0511
746.00,0.0512
745.00,0.0512
744.00,0.0512
743.00,0.0512
742.00,0.0512
741.00,0.0512
740.00,0.0512
739.00,0.0511
738.00,0.0510
737.00,0.0509
736.00,0.0510
735.00,0.0510
734.00,0.0511
733.00,0.0512
732.00,0.0513
731.00,0.0516
730.00,0.0518
729.00,0.0519
728.00,0.0519
727.00,0.0518
726.00,0.0516
725.00,0.0514
724.00,0.0515
723.00,0.0516
722.00,0.0519
721.00,0.0521
720.00,0.0524
719.00,0.0525
718.00,0.0525
717.00,0.0526
716.00,0.0528
715.00,0.0529
714.00,0.0530
713.00,0.0531
712.00,0.0532
711.00,0.0534
710.00,0.0535
709.00,0.0538
708.00,0.0542
707.00,0.0547
706.00,0.0551
705.00,0.0554
704.00,0.0555
703.00,0.0557
702.00,0.0559
701.00,0.0562
700.00,0.0567
699.00,0.0571
698.00,0.0574
697.00,0.0576
696.00,0.0575
695.00,0.0575
694.00,0.0574
693.00,0.0575
692.00,0.0578
691.00,0.0582
690.00,0.0585
689.00,0.0587
688.00,0.0590
687.00,0.0591
686.00,0.0593
685.00,0.0594
684.00,0.0594
683.00,0.0592
682.00,0.0591
681.00,0.0591
680.00,0.0594
679.00,0.0597
678.00,0.0597
677.00,0.0595
676.00,0.0595
675.00,0.0595
674.00,0.0597
673.00,0.0598
672.00,0.0599
671.00,0.0601
670.00,0.0605
669.00,0.0612
668.00,0.0622
667.00,0.0628
666.00,0.0628
665.00,0.0621
664.00,0.0613
663.00,0.0609
662.00,0.0610
661.00,0.0614
660.00,0.0619
659.00,0.0623
658.00,0.0622
657.00,0.0618
656.00,0.0614
655.00,0.0612
654.00,0.0615
653.00,0.0621
652.00,0.0632
651.00,0.0639
650.00,0.0641
