Created as New Dataset,Monday, April 03 2023
cm-1,A
4000.00,0.0063
3999.00,0.0063
3998.00,0.0063
3997.00,0.0063
3996.00,0.0063
3995.00,0.0062
3994.00,0.0063
3993.00,0.0063
3992.00,0.0063
3991.00,0.0063
3990.00,0.0063
3989.00,0.0063
3988.00,0.0063
3987.00,0.0063
3986.00,0.0063
3985.00,0.0063
3984.00,0.0063
3983.00,0.0063
3982.00,0.0063
3981.00,0.0063
3980.00,0.0063
3979.00,0.0063
3978.00,0.0063
3977.00,0.0063
3976.00,0.0063
3975.00,0.0063
3974.00,0.0063
3973.00,0.0063
3972.00,0.0063
3971.00,0.0063
3970.00,0.0063
3969.00,0.0063
3968.00,0.0063
3967.00,0.0063
3966.00,0.0063
3965.00,0.0063
3964.00,0.0063
3963.00,0.0063
3962.00,0.0063
3961.00,0.0063
3960.00,0.0063
3959.00,0.0063
3958.00,0.0063
3957.00,0.0063
3956.00,0.0063
3955.00,0.0063
3954.00,0.0063
3953.00,0.0063
3952.00,0.0063
3951.00,0.0064
3950.00,0.0065
3949.00,0.0065
3948.00,0.0066
3947.00,0.0065
3946.00,0.0065
3945.00,0.0064
3944.00,0.0063
3943.00,0.0062
3942.00,0.0062
3941.00,0.0062
3940.00,0.0063
3939.00,0.0063
3938.00,0.0063
3937.00,0.0064
3936.00,0.0065
3935.00,0.0066
3934.00,0.0067
3933.00,0.0067
3932.00,0.0066
3931.00,0.0066
3930.00,0.0065
3929.00,0.0064
3928.00,0.0064
3927.00,0.0064
3926.00,0.0063
3925.00,0.0063
3924.00,0.0063
3923.00,0.0064
3922.00,0.0064
3921.00,0.0065
3920.00,0.0065
3919.00,0.0066
3918.00,0.0066
3917.00,0.0065
3916.00,0.0065
3915.00,0.0064
3914.00,0.0064
3913.00,0.0064
3912.00,0.0063
3911.00,0.0063
3910.00,0.0063
3909.00,0.0064
3908.00,0.0065
3907.00,0.0066
3906.00,0.0067
3905.00,0.0069
3904.00,0.0070
3903.00,0.0071
3902.00,0.0071
3901.00,0.0070
3900.00,0.0069
3899.00,0.0067
3898.00,0.0067
3897.00,0.0067
3896.00,0.0067
3895.00,0.0067
3894.00,0.0067
3893.00,0.0066
3892.00,0.0066
3891.00,0.0066
3890.00,0.0067
3889.00,0.0068
3888.00,0.0069
3887.00,0.0069
3886.00,0.0069
3885.00,0.0068
3884.00,0.0067
3883.00,0.0067
3882.00,0.0066
3881.00,0.0065
3880.00,0.0064
3879.00,0.0065
3878.00,0.0066
3877.00,0.0066
3876.00,0.0066
3875.00,0.0065
3874.00,0.0065
3873.00,0.0067
3872.00,0.0068
3871.00,0.0069
3870.00,0.0069
3869.00,0.0069
3868.00,0.0069
3867.00,0.0070
3866.00,0.0070
3865.00,0.0069
3864.00,0.0067
3863.00,0.0067
3862.00,0.0068
3861.00,0.0068
3860.00,0.0069
3859.00,0.0068
3858.00,0.0068
3857.00,0.0068
3856.00,0.0069
3855.00,0.0071
3854.00,0.0071
3853.00,0.0070
3852.00,0.0069
3851.00,0.0069
3850.00,0.0069
3849.00,0.0069
3848.00,0.0068
3847.00,0.0068
3846.00,0.0067
3845.00,0.0067
3844.00,0.0067
3843.00,0.0068
3842.00,0.0069
3841.00,0.0070
3840.00,0.0071
3839.00,0.0070
3838.00,0.0070
3837.00,0.0069
3836.00,0.0068
3835.00,0.0068
3834.00,0.0068
3833.00,0.0069
3832.00,0.0069
3831.00,0.0069
3830.00,0.0069
3829.00,0.0068
3828.00,0.0068
3827.00,0.0067
3826.00,0.0067
3825.00,0.0068
3824.00,0.0070
3823.00,0.0071
3822.00,0.0071
3821.00,0.0070
3820.00,0.0070
3819.00,0.0070
3818.00,0.0070
3817.00,0.0069
3816.00,0.0067
3815.00,0.0066
3814.00,0.0066
3813.00,0.0067
3812.00,0.0067
3811.00,0.0067
3810.00,0.0066
3809.00,0.0067
3808.00,0.0068
3807.00,0.0069
3806.00,0.0070
3805.00,0.0070
3804.00,0.0071
3803.00,0.0070
3802.00,0.0069
3801.00,0.0068
3800.00,0.0068
3799.00,0.0068
3798.00,0.0068
3797.00,0.0067
3796.00,0.0066
3795.00,0.0066
3794.00,0.0066
3793.00,0.0066
3792.00,0.0065
3791.00,0.0065
3790.00,0.0065
3789.00,0.0066
3788.00,0.0066
3787.00,0.0066
3786.00,0.0066
3785.00,0.0066
3784.00,0.0066
3783.00,0.0066
3782.00,0.0066
3781.00,0.0066
3780.00,0.0065
3779.00,0.0065
3778.00,0.0065
3777.00,0.0066
3776.00,0.0066
3775.00,0.0066
3774.00,0.0066
3773.00,0.0067
3772.00,0.0068
3771.00,0.0069
3770.00,0.0069
3769.00,0.0069
3768.00,0.0069
3767.00,0.0069
3766.00,0.0069
3765.00,0.0069
3764.00,0.0069
3763.00,0.0070
3762.00,0.0071
3761.00,0.0070
3760.00,0.0070
3759.00,0.0069
3758.00,0.0070
3757.00,0.0071
3756.00,0.0072
3755.00,0.0073
3754.00,0.0074
3753.00,0.0076
3752.00,0.0079
3751.00,0.0081
3750.00,0.0082
3749.00,0.0081
3748.00,0.0080
3747.00,0.0078
3746.00,0.0077
3745.00,0.0076
3744.00,0.0075
3743.00,0.0076
3742.00,0.0077
3741.00,0.0078
3740.00,0.0078
3739.00,0.0079
3738.00,0.0079
3737.00,0.0080
3736.00,0.0079
3735.00,0.0078
3734.00,0.0078
3733.00,0.0078
3732.00,0.0077
3731.00,0.0077
3730.00,0.0076
3729.00,0.0076
3728.00,0.0076
3727.00,0.0076
3726.00,0.0076
3725.00,0.0074
3724.00,0.0073
3723.00,0.0072
3722.00,0.0071
3721.00,0.0070
3720.00,0.0069
3719.00,0.0069
3718.00,0.0069
3717.00,0.0070
3716.00,0.0071
3715.00,0.0072
3714.00,0.0073
3713.00,0.0074
3712.00,0.0074
3711.00,0.0074
3710.00,0.0073
3709.00,0.0073
3708.00,0.0073
3707.00,0.0072
3706.00,0.0071
3705.00,0.0070
3704.00,0.0069
3703.00,0.0068
3702.00,0.0068
3701.00,0.0068
3700.00,0.0069
3699.00,0.0070
3698.00,0.0070
3697.00,0.0070
3696.00,0.0069
3695.00,0.0069
3694.00,0.0070
3693.00,0.0070
3692.00,0.0071
3691.00,0.0071
3690.00,0.0071
3689.00,0.0071
3688.00,0.0071
3687.00,0.0071
3686.00,0.0071
3685.00,0.0071
3684.00,0.0072
3683.00,0.0072
3682.00,0.0072
3681.00,0.0072
3680.00,0.0071
3679.00,0.0071
3678.00,0.0072
3677.00,0.0072
3676.00,0.0072
3675.00,0.0073
3674.00,0.0074
3673.00,0.0077
3672.00,0.0078
3671.00,0.0077
3670.00,0.0074
3669.00,0.0072
3668.00,0.0071
3667.00,0.0071
3666.00,0.0071
3665.00,0.0071
3664.00,0.0070
3663.00,0.0070
3662.00,0.0070
3661.00,0.0070
3660.00,0.0070
3659.00,0.0070
3658.00,0.0071
3657.00,0.0072
3656.00,0.0073
3655.00,0.0073
3654.00,0.0073
3653.00,0.0073
3652.00,0.0073
3651.00,0.0074
3650.00,0.0076
3649.00,0.0076
3648.00,0.0075
3647.00,0.0074
3646.00,0.0074
3645.00,0.0074
3644.00,0.0074
3643.00,0.0073
3642.00,0.0071
3641.00,0.0071
3640.00,0.0070
3639.00,0.0070
3638.00,0.0071
3637.00,0.0071
3636.00,0.0072
3635.00,0.0072
3634.00,0.0073
3633.00,0.0074
3632.00,0.0075
3631.00,0.0077
3630.00,0.0078
3629.00,0.0079
3628.00,0.0078
3627.00,0.0078
3626.00,0.0077
3625.00,0.0076
3624.00,0.0075
3623.00,0.0074
3622.00,0.0073
3621.00,0.0074
3620.00,0.0074
3619.00,0.0075
3618.00,0.0075
3617.00,0.0076
3616.00,0.0076
3615.00,0.0075
3614.00,0.0075
3613.00,0.0075
3612.00,0.0077
3611.00,0.0078
3610.00,0.0079
3609.00,0.0078
3608.00,0.0076
3607.00,0.0074
3606.00,0.0073
3605.00,0.0073
3604.00,0.0073
3603.00,0.0073
3602.00,0.0073
3601.00,0.0073
3600.00,0.0073
3599.00,0.0072
3598.00,0.0072
3597.00,0.0071
3596.00,0.0071
3595.00,0.0071
3594.00,0.0072
3593.00,0.0073
3592.00,0.0074
3591.00,0.0075
3590.00,0.0075
3589.00,0.0074
3588.00,0.0073
3587.00,0.0072
3586.00,0.0071
3585.00,0.0071
3584.00,0.0070
3583.00,0.0070
3582.00,0.0070
3581.00,0.0069
3580.00,0.0069
3579.00,0.0068
3578.00,0.0068
3577.00,0.0068
3576.00,0.0068
3575.00,0.0069
3574.00,0.0069
3573.00,0.0070
3572.00,0.0070
3571.00,0.0071
3570.00,0.0071
3569.00,0.0072
3568.00,0.0073
3567.00,0.0073
3566.00,0.0073
3565.00,0.0073
3564.00,0.0073
3563.00,0.0072
3562.00,0.0071
3561.00,0.0070
3560.00,0.0070
3559.00,0.0070
3558.00,0.0069
3557.00,0.0069
3556.00,0.0070
3555.00,0.0070
3554.00,0.0070
3553.00,0.0070
3552.00,0.0070
3551.00,0.0070
3550.00,0.0071
3549.00,0.0072
3548.00,0.0072
3547.00,0.0072
3546.00,0.0072
3545.00,0.0072
3544.00,0.0072
3543.00,0.0071
3542.00,0.0070
3541.00,0.0070
3540.00,0.0069
3539.00,0.0069
3538.00,0.0069
3537.00,0.0069
3536.00,0.0069
3535.00,0.0069
3534.00,0.0069
3533.00,0.0070
3532.00,0.0070
3531.00,0.0070
3530.00,0.0070
3529.00,0.0070
3528.00,0.0071
3527.00,0.0072
3526.00,0.0072
3525.00,0.0072
3524.00,0.0071
3523.00,0.0071
3522.00,0.0070
3521.00,0.0070
3520.00,0.0069
3519.00,0.0069
3518.00,0.0069
3517.00,0.0069
3516.00,0.0069
3515.00,0.0070
3514.00,0.0069
3513.00,0.0069
3512.00,0.0069
3511.00,0.0069
3510.00,0.0070
3509.00,0.0070
3508.00,0.0070
3507.00,0.0070
3506.00,0.0070
3505.00,0.0070
3504.00,0.0070
3503.00,0.0069
3502.00,0.0069
3501.00,0.0069
3500.00,0.0069
3499.00,0.0069
3498.00,0.0069
3497.00,0.0069
3496.00,0.0069
3495.00,0.0069
3494.00,0.0069
3493.00,0.0069
3492.00,0.0069
3491.00,0.0069
3490.00,0.0069
3489.00,0.0069
3488.00,0.0069
3487.00,0.0069
3486.00,0.0069
3485.00,0.0069
3484.00,0.0069
3483.00,0.0069
3482.00,0.0069
3481.00,0.0069
3480.00,0.0069
3479.00,0.0069
3478.00,0.0068
3477.00,0.0068
3476.00,0.0068
3475.00,0.0068
3474.00,0.0068
3473.00,0.0068
3472.00,0.0068
3471.00,0.0068
3470.00,0.0068
3469.00,0.0068
3468.00,0.0069
3467.00,0.0069
3466.00,0.0069
3465.00,0.0069
3464.00,0.0069
3463.00,0.0068
3462.00,0.0068
3461.00,0.0068
3460.00,0.0068
3459.00,0.0068
3458.00,0.0067
3457.00,0.0067
3456.00,0.0067
3455.00,0.0067
3454.00,0.0067
3453.00,0.0068
3452.00,0.0068
3451.00,0.0069
3450.00,0.0069
3449.00,0.0069
3448.00,0.0068
3447.00,0.0068
3446.00,0.0068
3445.00,0.0068
3444.00,0.0068
3443.00,0.0068
3442.00,0.0068
3441.00,0.0068
3440.00,0.0067
3439.00,0.0066
3438.00,0.0066
3437.00,0.0066
3436.00,0.0067
3435.00,0.0067
3434.00,0.0068
3433.00,0.0068
3432.00,0.0068
3431.00,0.0068
3430.00,0.0068
3429.00,0.0068
3428.00,0.0067
3427.00,0.0067
3426.00,0.0067
3425.00,0.0068
3424.00,0.0068
3423.00,0.0069
3422.00,0.0069
3421.00,0.0069
3420.00,0.0069
3419.00,0.0068
3418.00,0.0067
3417.00,0.0067
3416.00,0.0067
3415.00,0.0067
3414.00,0.0068
3413.00,0.0068
3412.00,0.0067
3411.00,0.0067
3410.00,0.0066
3409.00,0.0066
3408.00,0.0066
3407.00,0.0067
3406.00,0.0067
3405.00,0.0067
3404.00,0.0068
3403.00,0.0068
3402.00,0.0068
3401.00,0.0068
3400.00,0.0068
3399.00,0.0067
3398.00,0.0067
3397.00,0.0067
3396.00,0.0067
3395.00,0.0067
3394.00,0.0068
3393.00,0.0068
3392.00,0.0068
3391.00,0.0068
3390.00,0.0068
3389.00,0.0068
3388.00,0.0068
3387.00,0.0068
3386.00,0.0068
3385.00,0.0068
3384.00,0.0067
3383.00,0.0067
3382.00,0.0067
3381.00,0.0066
3380.00,0.0067
3379.00,0.0067
3378.00,0.0067
3377.00,0.0067
3376.00,0.0067
3375.00,0.0067
3374.00,0.0067
3373.00,0.0067
3372.00,0.0067
3371.00,0.0067
3370.00,0.0067
3369.00,0.0066
3368.00,0.0066
3367.00,0.0066
3366.00,0.0066
3365.00,0.0067
3364.00,0.0067
3363.00,0.0068
3362.00,0.0068
3361.00,0.0068
3360.00,0.0068
3359.00,0.0068
3358.00,0.0067
3357.00,0.0067
3356.00,0.0067
3355.00,0.0067
3354.00,0.0067
3353.00,0.0067
3352.00,0.0067
3351.00,0.0068
3350.00,0.0068
3349.00,0.0068
3348.00,0.0068
3347.00,0.0067
3346.00,0.0067
3345.00,0.0066
3344.00,0.0066
3343.00,0.0067
3342.00,0.0067
3341.00,0.0067
3340.00,0.0067
3339.00,0.0067
3338.00,0.0067
3337.00,0.0067
3336.00,0.0067
3335.00,0.0067
3334.00,0.0067
3333.00,0.0067
3332.00,0.0067
3331.00,0.0067
3330.00,0.0067
3329.00,0.0067
3328.00,0.0067
3327.00,0.0067
3326.00,0.0068
3325.00,0.0068
3324.00,0.0068
3323.00,0.0067
3322.00,0.0067
3321.00,0.0066
3320.00,0.0066
3319.00,0.0067
3318.00,0.0067
3317.00,0.0067
3316.00,0.0067
3315.00,0.0067
3314.00,0.0067
3313.00,0.0067
3312.00,0.0067
3311.00,0.0067
3310.00,0.0067
3309.00,0.0067
3308.00,0.0067
3307.00,0.0067
3306.00,0.0067
3305.00,0.0067
3304.00,0.0067
3303.00,0.0067
3302.00,0.0068
3301.00,0.0068
3300.00,0.0068
3299.00,0.0068
3298.00,0.0068
3297.00,0.0067
3296.00,0.0067
3295.00,0.0067
3294.00,0.0067
3293.00,0.0068
3292.00,0.0068
3291.00,0.0068
3290.00,0.0068
3289.00,0.0068
3288.00,0.0068
3287.00,0.0068
3286.00,0.0068
3285.00,0.0068
3284.00,0.0068
3283.00,0.0068
3282.00,0.0068
3281.00,0.0068
3280.00,0.0068
3279.00,0.0068
3278.00,0.0068
3277.00,0.0068
3276.00,0.0068
3275.00,0.0068
3274.00,0.0068
3273.00,0.0069
3272.00,0.0069
3271.00,0.0069
3270.00,0.0068
3269.00,0.0068
3268.00,0.0068
3267.00,0.0067
3266.00,0.0067
3265.00,0.0067
3264.00,0.0068
3263.00,0.0068
3262.00,0.0068
3261.00,0.0067
3260.00,0.0067
3259.00,0.0067
3258.00,0.0067
3257.00,0.0067
3256.00,0.0067
3255.00,0.0068
3254.00,0.0068
3253.00,0.0068
3252.00,0.0068
3251.00,0.0068
3250.00,0.0068
3249.00,0.0068
3248.00,0.0068
3247.00,0.0069
3246.00,0.0069
3245.00,0.0068
3244.00,0.0068
3243.00,0.0067
3242.00,0.0067
3241.00,0.0067
3240.00,0.0067
3239.00,0.0068
3238.00,0.0068
3237.00,0.0068
3236.00,0.0068
3235.00,0.0068
3234.00,0.0068
3233.00,0.0068
3232.00,0.0068
3231.00,0.0068
3230.00,0.0068
3229.00,0.0068
3228.00,0.0068
3227.00,0.0069
3226.00,0.0068
3225.00,0.0068
3224.00,0.0068
3223.00,0.0067
3222.00,0.0067
3221.00,0.0067
3220.00,0.0067
3219.00,0.0068
3218.00,0.0068
3217.00,0.0068
3216.00,0.0068
3215.00,0.0068
3214.00,0.0068
3213.00,0.0068
3212.00,0.0068
3211.00,0.0068
3210.00,0.0068
3209.00,0.0068
3208.00,0.0068
3207.00,0.0068
3206.00,0.0068
3205.00,0.0068
3204.00,0.0068
3203.00,0.0068
3202.00,0.0068
3201.00,0.0068
3200.00,0.0068
3199.00,0.0068
3198.00,0.0068
3197.00,0.0068
3196.00,0.0068
3195.00,0.0068
3194.00,0.0068
3193.00,0.0068
3192.00,0.0068
3191.00,0.0068
3190.00,0.0068
3189.00,0.0068
3188.00,0.0068
3187.00,0.0068
3186.00,0.0068
3185.00,0.0068
3184.00,0.0068
3183.00,0.0068
3182.00,0.0068
3181.00,0.0068
3180.00,0.0068
3179.00,0.0068
3178.00,0.0067
3177.00,0.0067
3176.00,0.0067
3175.00,0.0067
3174.00,0.0067
3173.00,0.0068
3172.00,0.0068
3171.00,0.0068
3170.00,0.0068
3169.00,0.0068
3168.00,0.0068
3167.00,0.0068
3166.00,0.0068
3165.00,0.0068
3164.00,0.0069
3163.00,0.0069
3162.00,0.0069
3161.00,0.0069
3160.00,0.0068
3159.00,0.0068
3158.00,0.0068
3157.00,0.0067
3156.00,0.0067
3155.00,0.0067
3154.00,0.0067
3153.00,0.0067
3152.00,0.0067
3151.00,0.0067
3150.00,0.0067
3149.00,0.0067
3148.00,0.0067
3147.00,0.0067
3146.00,0.0068
3145.00,0.0068
3144.00,0.0068
3143.00,0.0068
3142.00,0.0068
3141.00,0.0068
3140.00,0.0068
3139.00,0.0068
3138.00,0.0068
3137.00,0.0068
3136.00,0.0068
3135.00,0.0068
3134.00,0.0068
3133.00,0.0067
3132.00,0.0067
3131.00,0.0068
3130.00,0.0067
3129.00,0.0067
3128.00,0.0067
3127.00,0.0067
3126.00,0.0067
3125.00,0.0067
3124.00,0.0067
3123.00,0.0067
3122.00,0.0067
3121.00,0.0067
3120.00,0.0068
3119.00,0.0068
3118.00,0.0068
3117.00,0.0068
3116.00,0.0068
3115.00,0.0068
3114.00,0.0067
3113.00,0.0067
3112.00,0.0067
3111.00,0.0068
3110.00,0.0068
3109.00,0.0068
3108.00,0.0068
3107.00,0.0068
3106.00,0.0067
3105.00,0.0067
3104.00,0.0067
3103.00,0.0068
3102.00,0.0068
3101.00,0.0068
3100.00,0.0068
3099.00,0.0067
3098.00,0.0067
3097.00,0.0066
3096.00,0.0067
3095.00,0.0067
3094.00,0.0067
3093.00,0.0068
3092.00,0.0068
3091.00,0.0068
3090.00,0.0068
3089.00,0.0068
3088.00,0.0068
3087.00,0.0068
3086.00,0.0068
3085.00,0.0068
3084.00,0.0067
3083.00,0.0067
3082.00,0.0067
3081.00,0.0068
3080.00,0.0068
3079.00,0.0068
3078.00,0.0068
3077.00,0.0068
3076.00,0.0068
3075.00,0.0068
3074.00,0.0068
3073.00,0.0067
3072.00,0.0067
3071.00,0.0066
3070.00,0.0066
3069.00,0.0066
3068.00,0.0067
3067.00,0.0067
3066.00,0.0068
3065.00,0.0068
3064.00,0.0068
3063.00,0.0068
3062.00,0.0068
3061.00,0.0067
3060.00,0.0067
3059.00,0.0067
3058.00,0.0067
3057.00,0.0067
3056.00,0.0067
3055.00,0.0067
3054.00,0.0067
3053.00,0.0067
3052.00,0.0067
3051.00,0.0067
3050.00,0.0068
3049.00,0.0068
3048.00,0.0068
3047.00,0.0068
3046.00,0.0068
3045.00,0.0068
3044.00,0.0067
3043.00,0.0067
3042.00,0.0067
3041.00,0.0067
3040.00,0.0067
3039.00,0.0067
3038.00,0.0068
3037.00,0.0068
3036.00,0.0068
3035.00,0.0068
3034.00,0.0067
3033.00,0.0067
3032.00,0.0066
3031.00,0.0066
3030.00,0.0066
3029.00,0.0066
3028.00,0.0066
3027.00,0.0066
3026.00,0.0066
3025.00,0.0067
3024.00,0.0067
3023.00,0.0067
3022.00,0.0066
3021.00,0.0066
3020.00,0.0066
3019.00,0.0066
3018.00,0.0066
3017.00,0.0066
3016.00,0.0067
3015.00,0.0068
3014.00,0.0068
3013.00,0.0068
3012.00,0.0068
3011.00,0.0067
3010.00,0.0067
3009.00,0.0066
3008.00,0.0066
3007.00,0.0066
3006.00,0.0067
3005.00,0.0067
3004.00,0.0067
3003.00,0.0068
3002.00,0.0068
3001.00,0.0068
3000.00,0.0068
2999.00,0.0068
2998.00,0.0068
2997.00,0.0068
2996.00,0.0068
2995.00,0.0069
2994.00,0.0069
2993.00,0.0069
2992.00,0.0068
2991.00,0.0068
2990.00,0.0068
2989.00,0.0068
2988.00,0.0068
2987.00,0.0068
2986.00,0.0068
2985.00,0.0069
2984.00,0.0069
2983.00,0.0069
2982.00,0.0069
2981.00,0.0068
2980.00,0.0068
2979.00,0.0068
2978.00,0.0067
2977.00,0.0067
2976.00,0.0067
2975.00,0.0067
2974.00,0.0066
2973.00,0.0066
2972.00,0.0066
2971.00,0.0066
2970.00,0.0065
2969.00,0.0065
2968.00,0.0064
2967.00,0.0064
2966.00,0.0063
2965.00,0.0062
2964.00,0.0062
2963.00,0.0061
2962.00,0.0061
2961.00,0.0060
2960.00,0.0060
2959.00,0.0059
2958.00,0.0059
2957.00,0.0059
2956.00,0.0059
2955.00,0.0059
2954.00,0.0059
2953.00,0.0059
2952.00,0.0060
2951.00,0.0060
2950.00,0.0060
2949.00,0.0059
2948.00,0.0059
2947.00,0.0058
2946.00,0.0058
2945.00,0.0058
2944.00,0.0058
2943.00,0.0058
2942.00,0.0058
2941.00,0.0057
2940.00,0.0056
2939.00,0.0056
2938.00,0.0055
2937.00,0.0054
2936.00,0.0053
2935.00,0.0052
2934.00,0.0051
2933.00,0.0050
2932.00,0.0049
2931.00,0.0049
2930.00,0.0048
2929.00,0.0047
2928.00,0.0046
2927.00,0.0045
2926.00,0.0045
2925.00,0.0045
2924.00,0.0045
2923.00,0.0045
2922.00,0.0044
2921.00,0.0044
2920.00,0.0044
2919.00,0.0044
2918.00,0.0044
2917.00,0.0044
2916.00,0.0045
2915.00,0.0046
2914.00,0.0048
2913.00,0.0050
2912.00,0.0051
2911.00,0.0052
2910.00,0.0053
2909.00,0.0053
2908.00,0.0054
2907.00,0.0055
2906.00,0.0056
2905.00,0.0057
2904.00,0.0057
2903.00,0.0057
2902.00,0.0057
2901.00,0.0058
2900.00,0.0058
2899.00,0.0058
2898.00,0.0058
2897.00,0.0058
2896.00,0.0059
2895.00,0.0059
2894.00,0.0059
2893.00,0.0060
2892.00,0.0060
2891.00,0.0060
2890.00,0.0060
2889.00,0.0060
2888.00,0.0060
2887.00,0.0061
2886.00,0.0061
2885.00,0.0060
2884.00,0.0060
2883.00,0.0060
2882.00,0.0060
2881.00,0.0060
2880.00,0.0060
2879.00,0.0061
2878.00,0.0061
2877.00,0.0060
2876.00,0.0060
2875.00,0.0060
2874.00,0.0060
2873.00,0.0059
2872.00,0.0059
2871.00,0.0059
2870.00,0.0058
2869.00,0.0058
2868.00,0.0057
2867.00,0.0057
2866.00,0.0057
2865.00,0.0056
2864.00,0.0056
2863.00,0.0056
2862.00,0.0055
2861.00,0.0055
2860.00,0.0055
2859.00,0.0054
2858.00,0.0054
2857.00,0.0053
2856.00,0.0052
2855.00,0.0052
2854.00,0.0052
2853.00,0.0052
2852.00,0.0052
2851.00,0.0053
2850.00,0.0053
2849.00,0.0053
2848.00,0.0054
2847.00,0.0055
2846.00,0.0056
2845.00,0.0057
2844.00,0.0057
2843.00,0.0058
2842.00,0.0058
2841.00,0.0058
2840.00,0.0059
2839.00,0.0060
2838.00,0.0060
2837.00,0.0060
2836.00,0.0060
2835.00,0.0060
2834.00,0.0060
2833.00,0.0061
2832.00,0.0061
2831.00,0.0061
2830.00,0.0061
2829.00,0.0061
2828.00,0.0061
2827.00,0.0061
2826.00,0.0061
2825.00,0.0061
2824.00,0.0061
2823.00,0.0061
2822.00,0.0062
2821.00,0.0062
2820.00,0.0062
2819.00,0.0062
2818.00,0.0062
2817.00,0.0062
2816.00,0.0062
2815.00,0.0062
2814.00,0.0062
2813.00,0.0061
2812.00,0.0061
2811.00,0.0061
2810.00,0.0062
2809.00,0.0062
2808.00,0.0062
2807.00,0.0062
2806.00,0.0062
2805.00,0.0062
2804.00,0.0062
2803.00,0.0062
2802.00,0.0062
2801.00,0.0062
2800.00,0.0061
2799.00,0.0061
2798.00,0.0061
2797.00,0.0061
2796.00,0.0062
2795.00,0.0062
2794.00,0.0062
2793.00,0.0061
2792.00,0.0061
2791.00,0.0061
2790.00,0.0061
2789.00,0.0061
2788.00,0.0061
2787.00,0.0061
2786.00,0.0061
2785.00,0.0061
2784.00,0.0061
2783.00,0.0061
2782.00,0.0061
2781.00,0.0061
2780.00,0.0060
2779.00,0.0060
2778.00,0.0060
2777.00,0.0060
2776.00,0.0060
2775.00,0.0061
2774.00,0.0061
2773.00,0.0061
2772.00,0.0061
2771.00,0.0061
2770.00,0.0061
2769.00,0.0061
2768.00,0.0061
2767.00,0.0061
2766.00,0.0061
2765.00,0.0061
2764.00,0.0061
2763.00,0.0061
2762.00,0.0061
2761.00,0.0060
2760.00,0.0060
2759.00,0.0060
2758.00,0.0060
2757.00,0.0060
2756.00,0.0060
2755.00,0.0061
2754.00,0.0061
2753.00,0.0061
2752.00,0.0061
2751.00,0.0061
2750.00,0.0061
2749.00,0.0061
2748.00,0.0060
2747.00,0.0060
2746.00,0.0060
2745.00,0.0060
2744.00,0.0060
2743.00,0.0060
2742.00,0.0060
2741.00,0.0060
2740.00,0.0060
2739.00,0.0060
2738.00,0.0060
2737.00,0.0060
2736.00,0.0060
2735.00,0.0060
2734.00,0.0060
2733.00,0.0060
2732.00,0.0059
2731.00,0.0059
2730.00,0.0059
2729.00,0.0059
2728.00,0.0059
2727.00,0.0059
2726.00,0.0060
2725.00,0.0060
2724.00,0.0060
2723.00,0.0060
2722.00,0.0060
2721.00,0.0060
2720.00,0.0060
2719.00,0.0060
2718.00,0.0060
2717.00,0.0060
2716.00,0.0060
2715.00,0.0060
2714.00,0.0059
2713.00,0.0059
2712.00,0.0060
2711.00,0.0060
2710.00,0.0060
2709.00,0.0060
2708.00,0.0060
2707.00,0.0060
2706.00,0.0060
2705.00,0.0060
2704.00,0.0060
2703.00,0.0060
2702.00,0.0060
2701.00,0.0060
2700.00,0.0060
2699.00,0.0060
2698.00,0.0060
2697.00,0.0060
2696.00,0.0060
2695.00,0.0060
2694.00,0.0060
2693.00,0.0060
2692.00,0.0059
2691.00,0.0059
2690.00,0.0059
2689.00,0.0059
2688.00,0.0059
2687.00,0.0059
2686.00,0.0059
2685.00,0.0059
2684.00,0.0059
2683.00,0.0059
2682.00,0.0060
2681.00,0.0060
2680.00,0.0060
2679.00,0.0060
2678.00,0.0060
2677.00,0.0059
2676.00,0.0059
2675.00,0.0059
2674.00,0.0059
2673.00,0.0060
2672.00,0.0060
2671.00,0.0060
2670.00,0.0059
2669.00,0.0059
2668.00,0.0059
2667.00,0.0060
2666.00,0.0060
2665.00,0.0061
2664.00,0.0061
2663.00,0.0061
2662.00,0.0061
2661.00,0.0061
2660.00,0.0061
2659.00,0.0061
2658.00,0.0061
2657.00,0.0061
2656.00,0.0061
2655.00,0.0062
2654.00,0.0062
2653.00,0.0062
2652.00,0.0062
2651.00,0.0062
2650.00,0.0061
2649.00,0.0061
2648.00,0.0061
2647.00,0.0061
2646.00,0.0061
2645.00,0.0061
2644.00,0.0061
2643.00,0.0061
2642.00,0.0062
2641.00,0.0062
2640.00,0.0062
2639.00,0.0062
2638.00,0.0061
2637.00,0.0061
2636.00,0.0061
2635.00,0.0061
2634.00,0.0061
2633.00,0.0061
2632.00,0.0061
2631.00,0.0061
2630.00,0.0062
2629.00,0.0062
2628.00,0.0062
2627.00,0.0062
2626.00,0.0062
2625.00,0.0062
2624.00,0.0062
2623.00,0.0062
2622.00,0.0062
2621.00,0.0062
2620.00,0.0061
2619.00,0.0061
2618.00,0.0061
2617.00,0.0061
2616.00,0.0061
2615.00,0.0061
2614.00,0.0061
2613.00,0.0062
2612.00,0.0062
2611.00,0.0062
2610.00,0.0062
2609.00,0.0062
2608.00,0.0062
2607.00,0.0062
2606.00,0.0062
2605.00,0.0062
2604.00,0.0062
2603.00,0.0062
2602.00,0.0062
2601.00,0.0062
2600.00,0.0062
2599.00,0.0062
2598.00,0.0062
2597.00,0.0062
2596.00,0.0061
2595.00,0.0061
2594.00,0.0061
2593.00,0.0061
2592.00,0.0062
2591.00,0.0062
2590.00,0.0062
2589.00,0.0062
2588.00,0.0062
2587.00,0.0061
2586.00,0.0062
2585.00,0.0062
2584.00,0.0062
2583.00,0.0062
2582.00,0.0062
2581.00,0.0062
2580.00,0.0063
2579.00,0.0063
2578.00,0.0062
2577.00,0.0062
2576.00,0.0062
2575.00,0.0062
2574.00,0.0062
2573.00,0.0062
2572.00,0.0062
2571.00,0.0062
2570.00,0.0062
2569.00,0.0062
2568.00,0.0062
2567.00,0.0062
2566.00,0.0062
2565.00,0.0063
2564.00,0.0063
2563.00,0.0062
2562.00,0.0062
2561.00,0.0061
2560.00,0.0061
2559.00,0.0061
2558.00,0.0061
2557.00,0.0061
2556.00,0.0061
2555.00,0.0061
2554.00,0.0061
2553.00,0.0062
2552.00,0.0062
2551.00,0.0062
2550.00,0.0062
2549.00,0.0062
2548.00,0.0061
2547.00,0.0061
2546.00,0.0061
2545.00,0.0061
2544.00,0.0061
2543.00,0.0061
2542.00,0.0060
2541.00,0.0060
2540.00,0.0061
2539.00,0.0062
2538.00,0.0062
2537.00,0.0062
2536.00,0.0062
2535.00,0.0061
2534.00,0.0061
2533.00,0.0062
2532.00,0.0062
2531.00,0.0062
2530.00,0.0062
2529.00,0.0062
2528.00,0.0062
2527.00,0.0062
2526.00,0.0062
2525.00,0.0062
2524.00,0.0061
2523.00,0.0062
2522.00,0.0062
2521.00,0.0062
2520.00,0.0062
2519.00,0.0062
2518.00,0.0062
2517.00,0.0062
2516.00,0.0062
2515.00,0.0062
2514.00,0.0062
2513.00,0.0063
2512.00,0.0062
2511.00,0.0062
2510.00,0.0061
2509.00,0.0061
2508.00,0.0060
2507.00,0.0060
2506.00,0.0061
2505.00,0.0062
2504.00,0.0062
2503.00,0.0062
2502.00,0.0062
2501.00,0.0062
2500.00,0.0062
2499.00,0.0061
2498.00,0.0062
2497.00,0.0062
2496.00,0.0062
2495.00,0.0063
2494.00,0.0062
2493.00,0.0062
2492.00,0.0062
2491.00,0.0062
2490.00,0.0062
2489.00,0.0062
2488.00,0.0062
2487.00,0.0062
2486.00,0.0062
2485.00,0.0062
2484.00,0.0062
2483.00,0.0062
2482.00,0.0062
2481.00,0.0062
2480.00,0.0062
2479.00,0.0062
2478.00,0.0062
2477.00,0.0062
2476.00,0.0062
2475.00,0.0062
2474.00,0.0063
2473.00,0.0063
2472.00,0.0063
2471.00,0.0063
2470.00,0.0063
2469.00,0.0063
2468.00,0.0063
2467.00,0.0063
2466.00,0.0063
2465.00,0.0063
2464.00,0.0063
2463.00,0.0063
2462.00,0.0063
2461.00,0.0063
2460.00,0.0063
2459.00,0.0063
2458.00,0.0063
2457.00,0.0063
2456.00,0.0063
2455.00,0.0063
2454.00,0.0063
2453.00,0.0063
2452.00,0.0063
2451.00,0.0064
2450.00,0.0064
2449.00,0.0064
2448.00,0.0063
2447.00,0.0063
2446.00,0.0063
2445.00,0.0063
2444.00,0.0063
2443.00,0.0063
2442.00,0.0062
2441.00,0.0062
2440.00,0.0062
2439.00,0.0062
2438.00,0.0062
2437.00,0.0062
2436.00,0.0062
2435.00,0.0062
2434.00,0.0062
2433.00,0.0063
2432.00,0.0063
2431.00,0.0063
2430.00,0.0063
2429.00,0.0062
2428.00,0.0062
2427.00,0.0063
2426.00,0.0063
2425.00,0.0063
2424.00,0.0063
2423.00,0.0063
2422.00,0.0063
2421.00,0.0062
2420.00,0.0062
2419.00,0.0062
2418.00,0.0062
2417.00,0.0062
2416.00,0.0063
2415.00,0.0063
2414.00,0.0063
2413.00,0.0063
2412.00,0.0063
2411.00,0.0063
2410.00,0.0062
2409.00,0.0062
2408.00,0.0061
2407.00,0.0061
2406.00,0.0062
2405.00,0.0062
2404.00,0.0062
2403.00,0.0063
2402.00,0.0063
2401.00,0.0062
2400.00,0.0062
2399.00,0.0061
2398.00,0.0061
2397.00,0.0062
2396.00,0.0062
2395.00,0.0063
2394.00,0.0063
2393.00,0.0063
2392.00,0.0063
2391.00,0.0063
2390.00,0.0063
2389.00,0.0063
2388.00,0.0063
2387.00,0.0063
2386.00,0.0064
2385.00,0.0064
2384.00,0.0065
2383.00,0.0065
2382.00,0.0066
2381.00,0.0065
2380.00,0.0064
2379.00,0.0062
2378.00,0.0061
2377.00,0.0061
2376.00,0.0060
2375.00,0.0061
2374.00,0.0061
2373.00,0.0061
2372.00,0.0062
2371.00,0.0063
2370.00,0.0065
2369.00,0.0066
2368.00,0.0067
2367.00,0.0067
2366.00,0.0067
2365.00,0.0065
2364.00,0.0064
2363.00,0.0063
2362.00,0.0063
2361.00,0.0064
2360.00,0.0066
2359.00,0.0067
2358.00,0.0067
2357.00,0.0066
2356.00,0.0065
2355.00,0.0065
2354.00,0.0065
2353.00,0.0065
2352.00,0.0065
2351.00,0.0066
2350.00,0.0066
2349.00,0.0066
2348.00,0.0066
2347.00,0.0065
2346.00,0.0065
2345.00,0.0066
2344.00,0.0067
2343.00,0.0067
2342.00,0.0067
2341.00,0.0067
2340.00,0.0067
2339.00,0.0067
2338.00,0.0066
2337.00,0.0065
2336.00,0.0064
2335.00,0.0064
2334.00,0.0064
2333.00,0.0065
2332.00,0.0065
2331.00,0.0066
2330.00,0.0066
2329.00,0.0068
2328.00,0.0069
2327.00,0.0071
2326.00,0.0072
2325.00,0.0072
2324.00,0.0071
2323.00,0.0070
2322.00,0.0069
2321.00,0.0068
2320.00,0.0067
2319.00,0.0067
2318.00,0.0067
2317.00,0.0068
2316.00,0.0069
2315.00,0.0069
2314.00,0.0068
2313.00,0.0068
2312.00,0.0068
2311.00,0.0068
2310.00,0.0068
2309.00,0.0068
2308.00,0.0068
2307.00,0.0068
2306.00,0.0068
2305.00,0.0068
2304.00,0.0068
2303.00,0.0068
2302.00,0.0067
2301.00,0.0067
2300.00,0.0067
2299.00,0.0067
2298.00,0.0066
2297.00,0.0066
2296.00,0.0066
2295.00,0.0065
2294.00,0.0066
2293.00,0.0066
2292.00,0.0066
2291.00,0.0066
2290.00,0.0067
2289.00,0.0067
2288.00,0.0067
2287.00,0.0067
2286.00,0.0066
2285.00,0.0065
2284.00,0.0064
2283.00,0.0064
2282.00,0.0065
2281.00,0.0065
2280.00,0.0066
2279.00,0.0065
2278.00,0.0064
2277.00,0.0064
2276.00,0.0063
2275.00,0.0064
2274.00,0.0064
2273.00,0.0065
2272.00,0.0065
2271.00,0.0064
2270.00,0.0064
2269.00,0.0063
2268.00,0.0062
2267.00,0.0062
2266.00,0.0063
2265.00,0.0064
2264.00,0.0065
2263.00,0.0065
2262.00,0.0066
2261.00,0.0066
2260.00,0.0066
2259.00,0.0065
2258.00,0.0065
2257.00,0.0064
2256.00,0.0062
2255.00,0.0062
2254.00,0.0062
2253.00,0.0063
2252.00,0.0064
2251.00,0.0064
2250.00,0.0064
2249.00,0.0064
2248.00,0.0064
2247.00,0.0064
2246.00,0.0064
2245.00,0.0064
2244.00,0.0064
2243.00,0.0063
2242.00,0.0063
2241.00,0.0063
2240.00,0.0063
2239.00,0.0064
2238.00,0.0065
2237.00,0.0065
2236.00,0.0064
2235.00,0.0064
2234.00,0.0064
2233.00,0.0065
2232.00,0.0065
2231.00,0.0065
2230.00,0.0064
2229.00,0.0064
2228.00,0.0063
2227.00,0.0063
2226.00,0.0063
2225.00,0.0064
2224.00,0.0064
2223.00,0.0065
2222.00,0.0065
2221.00,0.0066
2220.00,0.0067
2219.00,0.0067
2218.00,0.0067
2217.00,0.0066
2216.00,0.0065
2215.00,0.0065
2214.00,0.0066
2213.00,0.0066
2212.00,0.0066
2211.00,0.0065
2210.00,0.0064
2209.00,0.0063
2208.00,0.0063
2207.00,0.0062
2206.00,0.0062
2205.00,0.0062
2204.00,0.0064
2203.00,0.0065
2202.00,0.0066
2201.00,0.0067
2200.00,0.0068
2199.00,0.0069
2198.00,0.0069
2197.00,0.0067
2196.00,0.0066
2195.00,0.0065
2194.00,0.0065
2193.00,0.0065
2192.00,0.0065
2191.00,0.0064
2190.00,0.0064
2189.00,0.0065
2188.00,0.0067
2187.00,0.0068
2186.00,0.0068
2185.00,0.0067
2184.00,0.0066
2183.00,0.0066
2182.00,0.0067
2181.00,0.0067
2180.00,0.0067
2179.00,0.0066
2178.00,0.0065
2177.00,0.0062
2176.00,0.0061
2175.00,0.0061
2174.00,0.0064
2173.00,0.0066
2172.00,0.0068
2171.00,0.0070
2170.00,0.0071
2169.00,0.0071
2168.00,0.0071
2167.00,0.0070
2166.00,0.0069
2165.00,0.0069
2164.00,0.0069
2163.00,0.0070
2162.00,0.0069
2161.00,0.0066
2160.00,0.0062
2159.00,0.0060
2158.00,0.0060
2157.00,0.0061
2156.00,0.0062
2155.00,0.0062
2154.00,0.0062
2153.00,0.0062
2152.00,0.0062
2151.00,0.0062
2150.00,0.0061
2149.00,0.0060
2148.00,0.0059
2147.00,0.0059
2146.00,0.0059
2145.00,0.0059
2144.00,0.0060
2143.00,0.0061
2142.00,0.0061
2141.00,0.0061
2140.00,0.0060
2139.00,0.0059
2138.00,0.0059
2137.00,0.0058
2136.00,0.0058
2135.00,0.0057
2134.00,0.0057
2133.00,0.0058
2132.00,0.0059
2131.00,0.0059
2130.00,0.0059
2129.00,0.0059
2128.00,0.0060
2127.00,0.0060
2126.00,0.0061
2125.00,0.0061
2124.00,0.0061
2123.00,0.0061
2122.00,0.0061
2121.00,0.0061
2120.00,0.0062
2119.00,0.0063
2118.00,0.0064
2117.00,0.0064
2116.00,0.0063
2115.00,0.0063
2114.00,0.0062
2113.00,0.0062
2112.00,0.0063
2111.00,0.0063
2110.00,0.0064
2109.00,0.0064
2108.00,0.0064
2107.00,0.0064
2106.00,0.0064
2105.00,0.0063
2104.00,0.0063
2103.00,0.0062
2102.00,0.0062
2101.00,0.0062
2100.00,0.0061
2099.00,0.0061
2098.00,0.0061
2097.00,0.0062
2096.00,0.0061
2095.00,0.0061
2094.00,0.0061
2093.00,0.0061
2092.00,0.0062
2091.00,0.0062
2090.00,0.0062
2089.00,0.0062
2088.00,0.0062
2087.00,0.0062
2086.00,0.0062
2085.00,0.0063
2084.00,0.0062
2083.00,0.0062
2082.00,0.0061
2081.00,0.0061
2080.00,0.0062
2079.00,0.0063
2078.00,0.0065
2077.00,0.0065
2076.00,0.0065
2075.00,0.0064
2074.00,0.0063
2073.00,0.0062
2072.00,0.0061
2071.00,0.0062
2070.00,0.0062
2069.00,0.0062
2068.00,0.0061
2067.00,0.0061
2066.00,0.0061
2065.00,0.0061
2064.00,0.0061
2063.00,0.0061
2062.00,0.0061
2061.00,0.0060
2060.00,0.0060
2059.00,0.0061
2058.00,0.0061
2057.00,0.0062
2056.00,0.0063
2055.00,0.0064
2054.00,0.0066
2053.00,0.0067
2052.00,0.0068
2051.00,0.0068
2050.00,0.0067
2049.00,0.0065
2048.00,0.0064
2047.00,0.0063
2046.00,0.0063
2045.00,0.0063
2044.00,0.0064
2043.00,0.0064
2042.00,0.0065
2041.00,0.0065
2040.00,0.0065
2039.00,0.0066
2038.00,0.0068
2037.00,0.0070
2036.00,0.0072
2035.00,0.0072
2034.00,0.0070
2033.00,0.0068
2032.00,0.0066
2031.00,0.0065
2030.00,0.0064
2029.00,0.0065
2028.00,0.0066
2027.00,0.0066
2026.00,0.0066
2025.00,0.0066
2024.00,0.0065
2023.00,0.0064
2022.00,0.0064
2021.00,0.0063
2020.00,0.0063
2019.00,0.0063
2018.00,0.0064
2017.00,0.0065
2016.00,0.0066
2015.00,0.0067
2014.00,0.0068
2013.00,0.0068
2012.00,0.0069
2011.00,0.0068
2010.00,0.0067
2009.00,0.0065
2008.00,0.0063
2007.00,0.0062
2006.00,0.0061
2005.00,0.0062
2004.00,0.0064
2003.00,0.0065
2002.00,0.0065
2001.00,0.0065
2000.00,0.0065
1999.00,0.0065
1998.00,0.0066
1997.00,0.0067
1996.00,0.0069
1995.00,0.0069
1994.00,0.0069
1993.00,0.0069
1992.00,0.0068
1991.00,0.0068
1990.00,0.0068
1989.00,0.0067
1988.00,0.0066
1987.00,0.0066
1986.00,0.0066
1985.00,0.0068
1984.00,0.0071
1983.00,0.0072
1982.00,0.0073
1981.00,0.0074
1980.00,0.0074
1979.00,0.0072
1978.00,0.0071
1977.00,0.0069
1976.00,0.0068
1975.00,0.0067
1974.00,0.0066
1973.00,0.0066
1972.00,0.0065
1971.00,0.0065
1970.00,0.0064
1969.00,0.0063
1968.00,0.0063
1967.00,0.0063
1966.00,0.0064
1965.00,0.0065
1964.00,0.0065
1963.00,0.0065
1962.00,0.0064
1961.00,0.0064
1960.00,0.0063
1959.00,0.0063
1958.00,0.0062
1957.00,0.0062
1956.00,0.0062
1955.00,0.0063
1954.00,0.0064
1953.00,0.0064
1952.00,0.0064
1951.00,0.0064
1950.00,0.0064
1949.00,0.0064
1948.00,0.0064
1947.00,0.0065
1946.00,0.0064
1945.00,0.0064
1944.00,0.0064
1943.00,0.0063
1942.00,0.0063
1941.00,0.0063
1940.00,0.0062
1939.00,0.0062
1938.00,0.0061
1937.00,0.0062
1936.00,0.0062
1935.00,0.0062
1934.00,0.0062
1933.00,0.0062
1932.00,0.0062
1931.00,0.0062
1930.00,0.0062
1929.00,0.0062
1928.00,0.0061
1927.00,0.0060
1926.00,0.0060
1925.00,0.0060
1924.00,0.0060
1923.00,0.0060
1922.00,0.0061
1921.00,0.0062
1920.00,0.0063
1919.00,0.0063
1918.00,0.0063
1917.00,0.0062
1916.00,0.0062
1915.00,0.0062
1914.00,0.0062
1913.00,0.0061
1912.00,0.0060
1911.00,0.0060
1910.00,0.0060
1909.00,0.0060
1908.00,0.0061
1907.00,0.0062
1906.00,0.0062
1905.00,0.0062
1904.00,0.0062
1903.00,0.0061
1902.00,0.0061
1901.00,0.0060
1900.00,0.0060
1899.00,0.0061
1898.00,0.0061
1897.00,0.0061
1896.00,0.0061
1895.00,0.0061
1894.00,0.0061
1893.00,0.0061
1892.00,0.0061
1891.00,0.0060
1890.00,0.0060
1889.00,0.0059
1888.00,0.0060
1887.00,0.0060
1886.00,0.0061
1885.00,0.0062
1884.00,0.0062
1883.00,0.0061
1882.00,0.0061
1881.00,0.0061
1880.00,0.0060
1879.00,0.0060
1878.00,0.0060
1877.00,0.0060
1876.00,0.0060
1875.00,0.0060
1874.00,0.0060
1873.00,0.0060
1872.00,0.0061
1871.00,0.0062
1870.00,0.0062
1869.00,0.0063
1868.00,0.0062
1867.00,0.0062
1866.00,0.0062
1865.00,0.0062
1864.00,0.0062
1863.00,0.0061
1862.00,0.0060
1861.00,0.0060
1860.00,0.0059
1859.00,0.0060
1858.00,0.0060
1857.00,0.0061
1856.00,0.0061
1855.00,0.0061
1854.00,0.0061
1853.00,0.0060
1852.00,0.0060
1851.00,0.0060
1850.00,0.0061
1849.00,0.0061
1848.00,0.0061
1847.00,0.0062
1846.00,0.0062
1845.00,0.0063
1844.00,0.0062
1843.00,0.0061
1842.00,0.0061
1841.00,0.0061
1840.00,0.0061
1839.00,0.0061
1838.00,0.0060
1837.00,0.0060
1836.00,0.0060
1835.00,0.0060
1834.00,0.0060
1833.00,0.0060
1832.00,0.0060
1831.00,0.0060
1830.00,0.0060
1829.00,0.0060
1828.00,0.0059
1827.00,0.0058
1826.00,0.0058
1825.00,0.0058
1824.00,0.0059
1823.00,0.0059
1822.00,0.0060
1821.00,0.0060
1820.00,0.0060
1819.00,0.0060
1818.00,0.0059
1817.00,0.0059
1816.00,0.0059
1815.00,0.0059
1814.00,0.0058
1813.00,0.0058
1812.00,0.0058
1811.00,0.0058
1810.00,0.0059
1809.00,0.0059
1808.00,0.0060
1807.00,0.0060
1806.00,0.0060
1805.00,0.0059
1804.00,0.0059
1803.00,0.0058
1802.00,0.0058
1801.00,0.0059
1800.00,0.0059
1799.00,0.0060
1798.00,0.0061
1797.00,0.0062
1796.00,0.0062
1795.00,0.0062
1794.00,0.0062
1793.00,0.0062
1792.00,0.0061
1791.00,0.0060
1790.00,0.0060
1789.00,0.0060
1788.00,0.0060
1787.00,0.0059
1786.00,0.0059
1785.00,0.0059
1784.00,0.0059
1783.00,0.0058
1782.00,0.0058
1781.00,0.0058
1780.00,0.0058
1779.00,0.0059
1778.00,0.0059
1777.00,0.0060
1776.00,0.0060
1775.00,0.0061
1774.00,0.0061
1773.00,0.0062
1772.00,0.0061
1771.00,0.0060
1770.00,0.0060
1769.00,0.0060
1768.00,0.0061
1767.00,0.0061
1766.00,0.0060
1765.00,0.0060
1764.00,0.0059
1763.00,0.0059
1762.00,0.0058
1761.00,0.0059
1760.00,0.0059
1759.00,0.0060
1758.00,0.0059
1757.00,0.0059
1756.00,0.0059
1755.00,0.0059
1754.00,0.0059
1753.00,0.0059
1752.00,0.0060
1751.00,0.0061
1750.00,0.0061
1749.00,0.0060
1748.00,0.0060
1747.00,0.0060
1746.00,0.0059
1745.00,0.0058
1744.00,0.0058
1743.00,0.0057
1742.00,0.0057
1741.00,0.0058
1740.00,0.0060
1739.00,0.0060
1738.00,0.0060
1737.00,0.0060
1736.00,0.0062
1735.00,0.0064
1734.00,0.0065
1733.00,0.0064
1732.00,0.0061
1731.00,0.0059
1730.00,0.0058
1729.00,0.0058
1728.00,0.0059
1727.00,0.0060
1726.00,0.0060
1725.00,0.0060
1724.00,0.0061
1723.00,0.0061
1722.00,0.0061
1721.00,0.0059
1720.00,0.0058
1719.00,0.0057
1718.00,0.0060
1717.00,0.0062
1716.00,0.0063
1715.00,0.0062
1714.00,0.0061
1713.00,0.0061
1712.00,0.0061
1711.00,0.0061
1710.00,0.0061
1709.00,0.0061
1708.00,0.0060
1707.00,0.0060
1706.00,0.0059
1705.00,0.0059
1704.00,0.0059
1703.00,0.0060
1702.00,0.0061
1701.00,0.0063
1700.00,0.0066
1699.00,0.0066
1698.00,0.0066
1697.00,0.0065
1696.00,0.0063
1695.00,0.0062
1694.00,0.0062
1693.00,0.0062
1692.00,0.0062
1691.00,0.0062
1690.00,0.0063
1689.00,0.0064
1688.00,0.0063
1687.00,0.0062
1686.00,0.0059
1685.00,0.0057
1684.00,0.0056
1683.00,0.0057
1682.00,0.0059
1681.00,0.0060
1680.00,0.0061
1679.00,0.0061
1678.00,0.0062
1677.00,0.0062
1676.00,0.0063
1675.00,0.0063
1674.00,0.0063
1673.00,0.0062
1672.00,0.0062
1671.00,0.0062
1670.00,0.0062
1669.00,0.0061
1668.00,0.0060
1667.00,0.0060
1666.00,0.0061
1665.00,0.0061
1664.00,0.0061
1663.00,0.0062
1662.00,0.0062
1661.00,0.0062
1660.00,0.0063
1659.00,0.0063
1658.00,0.0062
1657.00,0.0061
1656.00,0.0058
1655.00,0.0055
1654.00,0.0055
1653.00,0.0056
1652.00,0.0059
1651.00,0.0060
1650.00,0.0061
1649.00,0.0061
1648.00,0.0064
1647.00,0.0066
1646.00,0.0066
1645.00,0.0065
1644.00,0.0065
1643.00,0.0064
1642.00,0.0064
1641.00,0.0064
1640.00,0.0063
1639.00,0.0062
1638.00,0.0062
1637.00,0.0062
1636.00,0.0061
1635.00,0.0060
1634.00,0.0060
1633.00,0.0061
1632.00,0.0062
1631.00,0.0062
1630.00,0.0062
1629.00,0.0061
1628.00,0.0060
1627.00,0.0060
1626.00,0.0061
1625.00,0.0061
1624.00,0.0062
1623.00,0.0062
1622.00,0.0062
1621.00,0.0062
1620.00,0.0061
1619.00,0.0061
1618.00,0.0062
1617.00,0.0063
1616.00,0.0063
1615.00,0.0062
1614.00,0.0062
1613.00,0.0063
1612.00,0.0063
1611.00,0.0063
1610.00,0.0063
1609.00,0.0063
1608.00,0.0063
1607.00,0.0063
1606.00,0.0062
1605.00,0.0062
1604.00,0.0062
1603.00,0.0062
1602.00,0.0062
1601.00,0.0062
1600.00,0.0062
1599.00,0.0062
1598.00,0.0062
1597.00,0.0062
1596.00,0.0062
1595.00,0.0062
1594.00,0.0061
1593.00,0.0061
1592.00,0.0061
1591.00,0.0061
1590.00,0.0061
1589.00,0.0061
1588.00,0.0061
1587.00,0.0061
1586.00,0.0061
1585.00,0.0061
1584.00,0.0060
1583.00,0.0061
1582.00,0.0061
1581.00,0.0061
1580.00,0.0060
1579.00,0.0060
1578.00,0.0060
1577.00,0.0061
1576.00,0.0061
1575.00,0.0061
1574.00,0.0061
1573.00,0.0061
1572.00,0.0061
1571.00,0.0061
1570.00,0.0061
1569.00,0.0061
1568.00,0.0061
1567.00,0.0062
1566.00,0.0062
1565.00,0.0062
1564.00,0.0062
1563.00,0.0061
1562.00,0.0059
1561.00,0.0054
1560.00,0.0053
1559.00,0.0058
1558.00,0.0061
1557.00,0.0063
1556.00,0.0065
1555.00,0.0065
1554.00,0.0065
1553.00,0.0064
1552.00,0.0062
1551.00,0.0061
1550.00,0.0061
1549.00,0.0061
1548.00,0.0061
1547.00,0.0062
1546.00,0.0062
1545.00,0.0063
1544.00,0.0064
1543.00,0.0066
1542.00,0.0067
1541.00,0.0066
1540.00,0.0061
1539.00,0.0056
1538.00,0.0056
1537.00,0.0057
1536.00,0.0058
1535.00,0.0058
1534.00,0.0058
1533.00,0.0058
1532.00,0.0059
1531.00,0.0060
1530.00,0.0061
1529.00,0.0062
1528.00,0.0062
1527.00,0.0063
1526.00,0.0065
1525.00,0.0066
1524.00,0.0066
1523.00,0.0066
1522.00,0.0066
1521.00,0.0065
1520.00,0.0062
1519.00,0.0061
1518.00,0.0060
1517.00,0.0060
1516.00,0.0060
1515.00,0.0061
1514.00,0.0062
1513.00,0.0063
1512.00,0.0063
1511.00,0.0062
1510.00,0.0060
1509.00,0.0060
1508.00,0.0062
1507.00,0.0062
1506.00,0.0060
1505.00,0.0061
1504.00,0.0063
1503.00,0.0063
1502.00,0.0062
1501.00,0.0062
1500.00,0.0061
1499.00,0.0060
1498.00,0.0060
1497.00,0.0061
1496.00,0.0061
1495.00,0.0060
1494.00,0.0060
1493.00,0.0061
1492.00,0.0061
1491.00,0.0062
1490.00,0.0062
1489.00,0.0060
1488.00,0.0058
1487.00,0.0058
1486.00,0.0058
1485.00,0.0058
1484.00,0.0058
1483.00,0.0058
1482.00,0.0059
1481.00,0.0059
1480.00,0.0058
1479.00,0.0058
1478.00,0.0057
1477.00,0.0057
1476.00,0.0058
1475.00,0.0061
1474.00,0.0064
1473.00,0.0065
1472.00,0.0063
1471.00,0.0060
1470.00,0.0059
1469.00,0.0058
1468.00,0.0057
1467.00,0.0056
1466.00,0.0056
1465.00,0.0056
1464.00,0.0057
1463.00,0.0057
1462.00,0.0056
1461.00,0.0055
1460.00,0.0054
1459.00,0.0055
1458.00,0.0058
1457.00,0.0060
1456.00,0.0060
1455.00,0.0059
1454.00,0.0058
1453.00,0.0058
1452.00,0.0058
1451.00,0.0058
1450.00,0.0058
1449.00,0.0058
1448.00,0.0058
1447.00,0.0058
1446.00,0.0058
1445.00,0.0059
1444.00,0.0059
1443.00,0.0059
1442.00,0.0059
1441.00,0.0059
1440.00,0.0059
1439.00,0.0059
1438.00,0.0060
1437.00,0.0061
1436.00,0.0061
1435.00,0.0060
1434.00,0.0060
1433.00,0.0060
1432.00,0.0060
1431.00,0.0060
1430.00,0.0059
1429.00,0.0059
1428.00,0.0059
1427.00,0.0059
1426.00,0.0059
1425.00,0.0059
1424.00,0.0059
1423.00,0.0059
1422.00,0.0059
1421.00,0.0058
1420.00,0.0058
1419.00,0.0058
1418.00,0.0058
1417.00,0.0059
1416.00,0.0060
1415.00,0.0060
1414.00,0.0060
1413.00,0.0060
1412.00,0.0060
1411.00,0.0060
1410.00,0.0059
1409.00,0.0059
1408.00,0.0059
1407.00,0.0059
1406.00,0.0058
1405.00,0.0059
1404.00,0.0060
1403.00,0.0060
1402.00,0.0060
1401.00,0.0060
1400.00,0.0060
1399.00,0.0060
1398.00,0.0061
1397.00,0.0061
1396.00,0.0061
1395.00,0.0061
1394.00,0.0061
1393.00,0.0061
1392.00,0.0062
1391.00,0.0062
1390.00,0.0062
1389.00,0.0062
1388.00,0.0062
1387.00,0.0062
1386.00,0.0062
1385.00,0.0062
1384.00,0.0062
1383.00,0.0062
1382.00,0.0062
1381.00,0.0062
1380.00,0.0062
1379.00,0.0062
1378.00,0.0062
1377.00,0.0061
1376.00,0.0061
1375.00,0.0061
1374.00,0.0061
1373.00,0.0061
1372.00,0.0062
1371.00,0.0062
1370.00,0.0062
1369.00,0.0062
1368.00,0.0062
1367.00,0.0062
1366.00,0.0061
1365.00,0.0060
1364.00,0.0060
1363.00,0.0059
1362.00,0.0059
1361.00,0.0059
1360.00,0.0060
1359.00,0.0060
1358.00,0.0061
1357.00,0.0061
1356.00,0.0061
1355.00,0.0060
1354.00,0.0060
1353.00,0.0060
1352.00,0.0060
1351.00,0.0060
1350.00,0.0061
1349.00,0.0061
1348.00,0.0061
1347.00,0.0061
1346.00,0.0061
1345.00,0.0060
1344.00,0.0060
1343.00,0.0060
1342.00,0.0060
1341.00,0.0060
1340.00,0.0060
1339.00,0.0060
1338.00,0.0060
1337.00,0.0060
1336.00,0.0060
1335.00,0.0060
1334.00,0.0059
1333.00,0.0059
1332.00,0.0059
1331.00,0.0059
1330.00,0.0059
1329.00,0.0059
1328.00,0.0059
1327.00,0.0059
1326.00,0.0059
1325.00,0.0059
1324.00,0.0059
1323.00,0.0060
1322.00,0.0060
1321.00,0.0061
1320.00,0.0061
1319.00,0.0061
1318.00,0.0061
1317.00,0.0061
1316.00,0.0061
1315.00,0.0061
1314.00,0.0061
1313.00,0.0061
1312.00,0.0061
1311.00,0.0062
1310.00,0.0062
1309.00,0.0062
1308.00,0.0062
1307.00,0.0062
1306.00,0.0061
1305.00,0.0061
1304.00,0.0061
1303.00,0.0062
1302.00,0.0063
1301.00,0.0063
1300.00,0.0063
1299.00,0.0062
1298.00,0.0062
1297.00,0.0062
1296.00,0.0062
1295.00,0.0062
1294.00,0.0062
1293.00,0.0063
1292.00,0.0063
1291.00,0.0063
1290.00,0.0063
1289.00,0.0063
1288.00,0.0063
1287.00,0.0063
1286.00,0.0063
1285.00,0.0063
1284.00,0.0063
1283.00,0.0063
1282.00,0.0063
1281.00,0.0064
1280.00,0.0064
1279.00,0.0064
1278.00,0.0064
1277.00,0.0064
1276.00,0.0064
1275.00,0.0064
1274.00,0.0064
1273.00,0.0064
1272.00,0.0064
1271.00,0.0064
1270.00,0.0064
1269.00,0.0064
1268.00,0.0064
1267.00,0.0064
1266.00,0.0065
1265.00,0.0065
1264.00,0.0064
1263.00,0.0064
1262.00,0.0065
1261.00,0.0065
1260.00,0.0065
1259.00,0.0065
1258.00,0.0065
1257.00,0.0065
1256.00,0.0065
1255.00,0.0065
1254.00,0.0064
1253.00,0.0064
1252.00,0.0064
1251.00,0.0065
1250.00,0.0065
1249.00,0.0066
1248.00,0.0066
1247.00,0.0066
1246.00,0.0066
1245.00,0.0066
1244.00,0.0065
1243.00,0.0065
1242.00,0.0066
1241.00,0.0067
1240.00,0.0067
1239.00,0.0067
1238.00,0.0067
1237.00,0.0067
1236.00,0.0067
1235.00,0.0067
1234.00,0.0067
1233.00,0.0067
1232.00,0.0067
1231.00,0.0068
1230.00,0.0068
1229.00,0.0068
1228.00,0.0068
1227.00,0.0068
1226.00,0.0068
1225.00,0.0068
1224.00,0.0068
1223.00,0.0069
1222.00,0.0069
1221.00,0.0069
1220.00,0.0070
1219.00,0.0069
1218.00,0.0069
1217.00,0.0068
1216.00,0.0067
1215.00,0.0067
1214.00,0.0067
1213.00,0.0068
1212.00,0.0068
1211.00,0.0069
1210.00,0.0068
1209.00,0.0068
1208.00,0.0068
1207.00,0.0068
1206.00,0.0068
1205.00,0.0068
1204.00,0.0069
1203.00,0.0069
1202.00,0.0069
1201.00,0.0069
1200.00,0.0069
1199.00,0.0069
1198.00,0.0069
1197.00,0.0069
1196.00,0.0070
1195.00,0.0070
1194.00,0.0070
1193.00,0.0070
1192.00,0.0070
1191.00,0.0070
1190.00,0.0069
1189.00,0.0069
1188.00,0.0069
1187.00,0.0069
1186.00,0.0070
1185.00,0.0071
1184.00,0.0072
1183.00,0.0072
1182.00,0.0072
1181.00,0.0072
1180.00,0.0072
1179.00,0.0073
1178.00,0.0074
1177.00,0.0074
1176.00,0.0074
1175.00,0.0075
1174.00,0.0074
1173.00,0.0073
1172.00,0.0072
1171.00,0.0072
1170.00,0.0072
1169.00,0.0073
1168.00,0.0073
1167.00,0.0073
1166.00,0.0073
1165.00,0.0073
1164.00,0.0073
1163.00,0.0074
1162.00,0.0074
1161.00,0.0073
1160.00,0.0073
1159.00,0.0073
1158.00,0.0073
1157.00,0.0074
1156.00,0.0074
1155.00,0.0075
1154.00,0.0074
1153.00,0.0073
1152.00,0.0073
1151.00,0.0073
1150.00,0.0073
1149.00,0.0074
1148.00,0.0074
1147.00,0.0075
1146.00,0.0075
1145.00,0.0074
1144.00,0.0074
1143.00,0.0074
1142.00,0.0074
1141.00,0.0074
1140.00,0.0074
1139.00,0.0074
1138.00,0.0074
1137.00,0.0073
1136.00,0.0073
1135.00,0.0073
1134.00,0.0073
1133.00,0.0073
1132.00,0.0073
1131.00,0.0073
1130.00,0.0073
1129.00,0.0074
1128.00,0.0074
1127.00,0.0073
1126.00,0.0073
1125.00,0.0073
1124.00,0.0073
1123.00,0.0073
1122.00,0.0073
1121.00,0.0073
1120.00,0.0073
1119.00,0.0073
1118.00,0.0074
1117.00,0.0074
1116.00,0.0075
1115.00,0.0075
1114.00,0.0074
1113.00,0.0073
1112.00,0.0073
1111.00,0.0074
1110.00,0.0074
1109.00,0.0073
1108.00,0.0073
1107.00,0.0073
1106.00,0.0073
1105.00,0.0073
1104.00,0.0073
1103.00,0.0073
1102.00,0.0073
1101.00,0.0073
1100.00,0.0073
1099.00,0.0073
1098.00,0.0073
1097.00,0.0074
1096.00,0.0074
1095.00,0.0074
1094.00,0.0074
1093.00,0.0073
1092.00,0.0074
1091.00,0.0074
1090.00,0.0074
1089.00,0.0074
1088.00,0.0074
1087.00,0.0074
1086.00,0.0074
1085.00,0.0074
1084.00,0.0073
1083.00,0.0072
1082.00,0.0071
1081.00,0.0071
1080.00,0.0073
1079.00,0.0074
1078.00,0.0074
1077.00,0.0074
1076.00,0.0074
1075.00,0.0075
1074.00,0.0075
1073.00,0.0075
1072.00,0.0075
1071.00,0.0074
1070.00,0.0075
1069.00,0.0076
1068.00,0.0077
1067.00,0.0078
1066.00,0.0079
1065.00,0.0078
1064.00,0.0077
1063.00,0.0077
1062.00,0.0077
1061.00,0.0077
1060.00,0.0077
1059.00,0.0077
1058.00,0.0077
1057.00,0.0077
1056.00,0.0078
1055.00,0.0078
1054.00,0.0079
1053.00,0.0079
1052.00,0.0080
1051.00,0.0081
1050.00,0.0082
1049.00,0.0081
1048.00,0.0080
1047.00,0.0079
1046.00,0.0078
1045.00,0.0078
1044.00,0.0078
1043.00,0.0078
1042.00,0.0079
1041.00,0.0079
1040.00,0.0079
1039.00,0.0079
1038.00,0.0080
1037.00,0.0079
1036.00,0.0079
1035.00,0.0079
1034.00,0.0078
1033.00,0.0078
1032.00,0.0078
1031.00,0.0079
1030.00,0.0079
1029.00,0.0079
1028.00,0.0079
1027.00,0.0078
1026.00,0.0076
1025.00,0.0076
1024.00,0.0076
1023.00,0.0076
1022.00,0.0076
1021.00,0.0076
1020.00,0.0077
1019.00,0.0077
1018.00,0.0078
1017.00,0.0078
1016.00,0.0078
1015.00,0.0077
1014.00,0.0077
1013.00,0.0077
1012.00,0.0077
1011.00,0.0077
1010.00,0.0077
1009.00,0.0077
1008.00,0.0077
1007.00,0.0077
1006.00,0.0077
1005.00,0.0076
1004.00,0.0075
1003.00,0.0075
1002.00,0.0074
1001.00,0.0075
1000.00,0.0075
999.00,0.0075
998.00,0.0076
997.00,0.0076
996.00,0.0076
995.00,0.0076
994.00,0.0076
993.00,0.0076
992.00,0.0076
991.00,0.0076
990.00,0.0076
989.00,0.0076
988.00,0.0076
987.00,0.0075
986.00,0.0076
985.00,0.0076
984.00,0.0077
983.00,0.0077
982.00,0.0077
981.00,0.0077
980.00,0.0077
979.00,0.0078
978.00,0.0078
977.00,0.0077
976.00,0.0077
975.00,0.0076
974.00,0.0076
973.00,0.0076
972.00,0.0077
971.00,0.0077
970.00,0.0077
969.00,0.0077
968.00,0.0077
967.00,0.0077
966.00,0.0077
965.00,0.0077
964.00,0.0076
963.00,0.0076
962.00,0.0076
961.00,0.0076
960.00,0.0077
959.00,0.0077
958.00,0.0078
957.00,0.0078
956.00,0.0078
955.00,0.0078
954.00,0.0078
953.00,0.0078
952.00,0.0077
951.00,0.0077
950.00,0.0077
949.00,0.0077
948.00,0.0078
947.00,0.0078
946.00,0.0078
945.00,0.0078
944.00,0.0077
943.00,0.0077
942.00,0.0077
941.00,0.0077
940.00,0.0077
939.00,0.0077
938.00,0.0077
937.00,0.0078
936.00,0.0078
935.00,0.0079
934.00,0.0079
933.00,0.0078
932.00,0.0078
931.00,0.0077
930.00,0.0076
929.00,0.0076
928.00,0.0076
927.00,0.0076
926.00,0.0076
925.00,0.0077
924.00,0.0077
923.00,0.0077
922.00,0.0076
921.00,0.0076
920.00,0.0076
919.00,0.0077
918.00,0.0078
917.00,0.0080
916.00,0.0080
915.00,0.0080
914.00,0.0079
913.00,0.0078
912.00,0.0077
911.00,0.0078
910.00,0.0078
909.00,0.0078
908.00,0.0078
907.00,0.0078
906.00,0.0077
905.00,0.0078
904.00,0.0078
903.00,0.0078
902.00,0.0079
901.00,0.0080
900.00,0.0080
899.00,0.0080
898.00,0.0080
897.00,0.0080
896.00,0.0080
895.00,0.0080
894.00,0.0079
893.00,0.0079
892.00,0.0078
891.00,0.0078
890.00,0.0078
889.00,0.0078
888.00,0.0078
887.00,0.0078
886.00,0.0077
885.00,0.0077
884.00,0.0077
883.00,0.0077
882.00,0.0077
881.00,0.0078
880.00,0.0078
879.00,0.0079
878.00,0.0079
877.00,0.0079
876.00,0.0078
875.00,0.0077
874.00,0.0076
873.00,0.0076
872.00,0.0077
871.00,0.0078
870.00,0.0079
869.00,0.0079
868.00,0.0079
867.00,0.0078
866.00,0.0077
865.00,0.0076
864.00,0.0077
863.00,0.0078
862.00,0.0079
861.00,0.0079
860.00,0.0079
859.00,0.0078
858.00,0.0078
857.00,0.0078
856.00,0.0079
855.00,0.0079
854.00,0.0078
853.00,0.0078
852.00,0.0077
851.00,0.0077
850.00,0.0077
849.00,0.0077
848.00,0.0077
847.00,0.0076
846.00,0.0076
845.00,0.0077
844.00,0.0078
843.00,0.0078
842.00,0.0077
841.00,0.0076
840.00,0.0077
839.00,0.0078
838.00,0.0078
837.00,0.0077
836.00,0.0076
835.00,0.0075
834.00,0.0074
833.00,0.0074
832.00,0.0075
831.00,0.0077
830.00,0.0079
829.00,0.0080
828.00,0.0080
827.00,0.0080
826.00,0.0080
825.00,0.0079
824.00,0.0079
823.00,0.0078
822.00,0.0078
821.00,0.0078
820.00,0.0078
819.00,0.0077
818.00,0.0077
817.00,0.0077
816.00,0.0078
815.00,0.0079
814.00,0.0080
813.00,0.0081
812.00,0.0081
811.00,0.0080
810.00,0.0079
809.00,0.0079
808.00,0.0078
807.00,0.0077
806.00,0.0077
805.00,0.0077
804.00,0.0078
803.00,0.0079
802.00,0.0079
801.00,0.0079
800.00,0.0079
799.00,0.0080
798.00,0.0080
797.00,0.0080
796.00,0.0079
795.00,0.0078
794.00,0.0078
793.00,0.0078
792.00,0.0079
791.00,0.0080
790.00,0.0082
789.00,0.0084
788.00,0.0084
787.00,0.0084
786.00,0.0083
785.00,0.0081
784.00,0.0080
783.00,0.0080
782.00,0.0081
781.00,0.0083
780.00,0.0084
779.00,0.0084
778.00,0.0083
777.00,0.0081
776.00,0.0080
775.00,0.0080
774.00,0.0080
773.00,0.0082
772.00,0.0082
771.00,0.0082
770.00,0.0081
769.00,0.0081
768.00,0.0081
767.00,0.0082
766.00,0.0083
765.00,0.0083
764.00,0.0083
763.00,0.0082
762.00,0.0081
761.00,0.0081
760.00,0.0081
759.00,0.0083
758.00,0.0085
757.00,0.0086
756.00,0.0086
755.00,0.0084
754.00,0.0080
753.00,0.0077
752.00,0.0076
751.00,0.0078
750.00,0.0080
749.00,0.0082
748.00,0.0084
747.00,0.0084
746.00,0.0085
745.00,0.0084
744.00,0.0083
743.00,0.0082
742.00,0.0082
741.00,0.0082
740.00,0.0082
739.00,0.0081
738.00,0.0081
737.00,0.0082
736.00,0.0082
735.00,0.0083
734.00,0.0083
733.00,0.0083
732.00,0.0084
731.00,0.0086
730.00,0.0087
729.00,0.0088
728.00,0.0088
727.00,0.0088
726.00,0.0086
725.00,0.0084
724.00,0.0083
723.00,0.0084
722.00,0.0084
721.00,0.0084
720.00,0.0084
719.00,0.0083
718.00,0.0084
717.00,0.0084
716.00,0.0084
715.00,0.0084
714.00,0.0084
713.00,0.0085
712.00,0.0086
711.00,0.0086
710.00,0.0086
709.00,0.0086
708.00,0.0087
707.00,0.0088
706.00,0.0088
705.00,0.0087
704.00,0.0085
703.00,0.0085
702.00,0.0085
701.00,0.0086
700.00,0.0087
699.00,0.0087
698.00,0.0087
697.00,0.0088
696.00,0.0087
695.00,0.0086
694.00,0.0085
693.00,0.0084
692.00,0.0085
691.00,0.0085
690.00,0.0086
689.00,0.0086
688.00,0.0086
687.00,0.0087
686.00,0.0089
685.00,0.0091
684.00,0.0093
683.00,0.0094
682.00,0.0093
681.00,0.0093
680.00,0.0092
679.00,0.0091
678.00,0.0088
677.00,0.0085
676.00,0.0084
675.00,0.0085
674.00,0.0087
673.00,0.0091
672.00,0.0093
671.00,0.0092
670.00,0.0087
669.00,0.0078
668.00,0.0070
667.00,0.0071
666.00,0.0079
665.00,0.0084
664.00,0.0087
663.00,0.0088
662.00,0.0089
661.00,0.0091
660.00,0.0093
659.00,0.0095
658.00,0.0096
657.00,0.0095
656.00,0.0094
655.00,0.0092
654.00,0.0092
653.00,0.0092
652.00,0.0092
651.00,0.0103
650.00,0.0102
