Created as New Dataset,Monday, April 03 2023
cm-1,A
4000.00,0.0631
3999.00,0.0631
3998.00,0.0631
3997.00,0.0631
3996.00,0.0631
3995.00,0.0630
3994.00,0.0630
3993.00,0.0631
3992.00,0.0631
3991.00,0.0631
3990.00,0.0631
3989.00,0.0631
3988.00,0.0631
3987.00,0.0631
3986.00,0.0631
3985.00,0.0631
3984.00,0.0630
3983.00,0.0630
3982.00,0.0630
3981.00,0.0630
3980.00,0.0630
3979.00,0.0630
3978.00,0.0631
3977.00,0.0631
3976.00,0.0631
3975.00,0.0630
3974.00,0.0630
3973.00,0.0630
3972.00,0.0630
3971.00,0.0630
3970.00,0.0629
3969.00,0.0629
3968.00,0.0629
3967.00,0.0629
3966.00,0.0630
3965.00,0.0630
3964.00,0.0630
3963.00,0.0630
3962.00,0.0630
3961.00,0.0630
3960.00,0.0630
3959.00,0.0630
3958.00,0.0629
3957.00,0.0629
3956.00,0.0629
3955.00,0.0629
3954.00,0.0629
3953.00,0.0629
3952.00,0.0629
3951.00,0.0629
3950.00,0.0630
3949.00,0.0630
3948.00,0.0630
3947.00,0.0631
3946.00,0.0631
3945.00,0.0630
3944.00,0.0629
3943.00,0.0627
3942.00,0.0627
3941.00,0.0628
3940.00,0.0628
3939.00,0.0628
3938.00,0.0628
3937.00,0.0628
3936.00,0.0629
3935.00,0.0629
3934.00,0.0630
3933.00,0.0630
3932.00,0.0630
3931.00,0.0630
3930.00,0.0629
3929.00,0.0629
3928.00,0.0628
3927.00,0.0628
3926.00,0.0627
3925.00,0.0626
3924.00,0.0625
3923.00,0.0626
3922.00,0.0627
3921.00,0.0628
3920.00,0.0628
3919.00,0.0629
3918.00,0.0629
3917.00,0.0628
3916.00,0.0628
3915.00,0.0627
3914.00,0.0626
3913.00,0.0626
3912.00,0.0625
3911.00,0.0625
3910.00,0.0626
3909.00,0.0627
3908.00,0.0628
3907.00,0.0628
3906.00,0.0629
3905.00,0.0629
3904.00,0.0630
3903.00,0.0631
3902.00,0.0631
3901.00,0.0630
3900.00,0.0628
3899.00,0.0626
3898.00,0.0625
3897.00,0.0627
3896.00,0.0628
3895.00,0.0628
3894.00,0.0628
3893.00,0.0627
3892.00,0.0625
3891.00,0.0624
3890.00,0.0625
3889.00,0.0626
3888.00,0.0628
3887.00,0.0628
3886.00,0.0628
3885.00,0.0629
3884.00,0.0629
3883.00,0.0628
3882.00,0.0625
3881.00,0.0622
3880.00,0.0620
3879.00,0.0622
3878.00,0.0625
3877.00,0.0627
3876.00,0.0627
3875.00,0.0626
3874.00,0.0626
3873.00,0.0628
3872.00,0.0629
3871.00,0.0629
3870.00,0.0627
3869.00,0.0627
3868.00,0.0629
3867.00,0.0630
3866.00,0.0629
3865.00,0.0627
3864.00,0.0625
3863.00,0.0625
3862.00,0.0626
3861.00,0.0627
3860.00,0.0629
3859.00,0.0629
3858.00,0.0628
3857.00,0.0627
3856.00,0.0626
3855.00,0.0629
3854.00,0.0631
3853.00,0.0627
3852.00,0.0624
3851.00,0.0624
3850.00,0.0625
3849.00,0.0626
3848.00,0.0626
3847.00,0.0626
3846.00,0.0626
3845.00,0.0626
3844.00,0.0626
3843.00,0.0626
3842.00,0.0628
3841.00,0.0629
3840.00,0.0630
3839.00,0.0630
3838.00,0.0629
3837.00,0.0627
3836.00,0.0626
3835.00,0.0625
3834.00,0.0624
3833.00,0.0623
3832.00,0.0623
3831.00,0.0624
3830.00,0.0626
3829.00,0.0627
3828.00,0.0626
3827.00,0.0626
3826.00,0.0625
3825.00,0.0627
3824.00,0.0628
3823.00,0.0630
3822.00,0.0629
3821.00,0.0627
3820.00,0.0626
3819.00,0.0628
3818.00,0.0628
3817.00,0.0626
3816.00,0.0623
3815.00,0.0622
3814.00,0.0623
3813.00,0.0624
3812.00,0.0624
3811.00,0.0624
3810.00,0.0624
3809.00,0.0625
3808.00,0.0626
3807.00,0.0627
3806.00,0.0628
3805.00,0.0631
3804.00,0.0632
3803.00,0.0631
3802.00,0.0628
3801.00,0.0626
3800.00,0.0626
3799.00,0.0626
3798.00,0.0624
3797.00,0.0622
3796.00,0.0621
3795.00,0.0622
3794.00,0.0624
3793.00,0.0625
3792.00,0.0624
3791.00,0.0624
3790.00,0.0624
3789.00,0.0624
3788.00,0.0625
3787.00,0.0625
3786.00,0.0624
3785.00,0.0623
3784.00,0.0623
3783.00,0.0624
3782.00,0.0624
3781.00,0.0624
3780.00,0.0623
3779.00,0.0622
3778.00,0.0622
3777.00,0.0623
3776.00,0.0623
3775.00,0.0624
3774.00,0.0624
3773.00,0.0624
3772.00,0.0624
3771.00,0.0625
3770.00,0.0625
3769.00,0.0625
3768.00,0.0625
3767.00,0.0625
3766.00,0.0623
3765.00,0.0622
3764.00,0.0623
3763.00,0.0624
3762.00,0.0624
3761.00,0.0624
3760.00,0.0623
3759.00,0.0623
3758.00,0.0623
3757.00,0.0624
3756.00,0.0624
3755.00,0.0625
3754.00,0.0625
3753.00,0.0627
3752.00,0.0631
3751.00,0.0634
3750.00,0.0634
3749.00,0.0633
3748.00,0.0632
3747.00,0.0629
3746.00,0.0626
3745.00,0.0623
3744.00,0.0623
3743.00,0.0625
3742.00,0.0627
3741.00,0.0627
3740.00,0.0627
3739.00,0.0626
3738.00,0.0626
3737.00,0.0627
3736.00,0.0627
3735.00,0.0625
3734.00,0.0623
3733.00,0.0621
3732.00,0.0621
3731.00,0.0622
3730.00,0.0623
3729.00,0.0623
3728.00,0.0623
3727.00,0.0623
3726.00,0.0622
3725.00,0.0622
3724.00,0.0621
3723.00,0.0620
3722.00,0.0618
3721.00,0.0618
3720.00,0.0618
3719.00,0.0618
3718.00,0.0618
3717.00,0.0619
3716.00,0.0620
3715.00,0.0621
3714.00,0.0621
3713.00,0.0622
3712.00,0.0623
3711.00,0.0622
3710.00,0.0620
3709.00,0.0620
3708.00,0.0620
3707.00,0.0620
3706.00,0.0619
3705.00,0.0618
3704.00,0.0617
3703.00,0.0616
3702.00,0.0615
3701.00,0.0615
3700.00,0.0616
3699.00,0.0617
3698.00,0.0618
3697.00,0.0618
3696.00,0.0618
3695.00,0.0618
3694.00,0.0619
3693.00,0.0619
3692.00,0.0619
3691.00,0.0619
3690.00,0.0618
3689.00,0.0616
3688.00,0.0615
3687.00,0.0615
3686.00,0.0617
3685.00,0.0617
3684.00,0.0617
3683.00,0.0617
3682.00,0.0618
3681.00,0.0618
3680.00,0.0618
3679.00,0.0618
3678.00,0.0620
3677.00,0.0622
3676.00,0.0622
3675.00,0.0620
3674.00,0.0621
3673.00,0.0624
3672.00,0.0624
3671.00,0.0621
3670.00,0.0617
3669.00,0.0614
3668.00,0.0615
3667.00,0.0616
3666.00,0.0617
3665.00,0.0618
3664.00,0.0618
3663.00,0.0618
3662.00,0.0618
3661.00,0.0618
3660.00,0.0618
3659.00,0.0618
3658.00,0.0619
3657.00,0.0620
3656.00,0.0622
3655.00,0.0623
3654.00,0.0625
3653.00,0.0625
3652.00,0.0624
3651.00,0.0625
3650.00,0.0628
3649.00,0.0626
3648.00,0.0621
3647.00,0.0619
3646.00,0.0620
3645.00,0.0622
3644.00,0.0623
3643.00,0.0623
3642.00,0.0622
3641.00,0.0622
3640.00,0.0622
3639.00,0.0622
3638.00,0.0622
3637.00,0.0623
3636.00,0.0624
3635.00,0.0624
3634.00,0.0625
3633.00,0.0625
3632.00,0.0626
3631.00,0.0627
3630.00,0.0629
3629.00,0.0630
3628.00,0.0629
3627.00,0.0629
3626.00,0.0629
3625.00,0.0629
3624.00,0.0628
3623.00,0.0628
3622.00,0.0629
3621.00,0.0630
3620.00,0.0630
3619.00,0.0630
3618.00,0.0630
3617.00,0.0631
3616.00,0.0632
3615.00,0.0632
3614.00,0.0631
3613.00,0.0631
3612.00,0.0633
3611.00,0.0635
3610.00,0.0637
3609.00,0.0637
3608.00,0.0636
3607.00,0.0634
3606.00,0.0634
3605.00,0.0635
3604.00,0.0635
3603.00,0.0635
3602.00,0.0634
3601.00,0.0634
3600.00,0.0634
3599.00,0.0634
3598.00,0.0634
3597.00,0.0635
3596.00,0.0635
3595.00,0.0636
3594.00,0.0636
3593.00,0.0637
3592.00,0.0638
3591.00,0.0638
3590.00,0.0638
3589.00,0.0638
3588.00,0.0638
3587.00,0.0637
3586.00,0.0638
3585.00,0.0639
3584.00,0.0640
3583.00,0.0640
3582.00,0.0639
3581.00,0.0639
3580.00,0.0639
3579.00,0.0639
3578.00,0.0639
3577.00,0.0639
3576.00,0.0640
3575.00,0.0640
3574.00,0.0641
3573.00,0.0642
3572.00,0.0643
3571.00,0.0644
3570.00,0.0644
3569.00,0.0645
3568.00,0.0646
3567.00,0.0647
3566.00,0.0647
3565.00,0.0647
3564.00,0.0647
3563.00,0.0647
3562.00,0.0647
3561.00,0.0646
3560.00,0.0646
3559.00,0.0646
3558.00,0.0646
3557.00,0.0646
3556.00,0.0647
3555.00,0.0648
3554.00,0.0648
3553.00,0.0649
3552.00,0.0650
3551.00,0.0650
3550.00,0.0651
3549.00,0.0652
3548.00,0.0652
3547.00,0.0652
3546.00,0.0653
3545.00,0.0652
3544.00,0.0652
3543.00,0.0651
3542.00,0.0650
3541.00,0.0651
3540.00,0.0651
3539.00,0.0652
3538.00,0.0652
3537.00,0.0652
3536.00,0.0653
3535.00,0.0653
3534.00,0.0654
3533.00,0.0654
3532.00,0.0654
3531.00,0.0655
3530.00,0.0655
3529.00,0.0655
3528.00,0.0656
3527.00,0.0657
3526.00,0.0658
3525.00,0.0658
3524.00,0.0658
3523.00,0.0657
3522.00,0.0657
3521.00,0.0657
3520.00,0.0657
3519.00,0.0657
3518.00,0.0658
3517.00,0.0659
3516.00,0.0660
3515.00,0.0660
3514.00,0.0660
3513.00,0.0660
3512.00,0.0660
3511.00,0.0660
3510.00,0.0660
3509.00,0.0660
3508.00,0.0661
3507.00,0.0662
3506.00,0.0663
3505.00,0.0663
3504.00,0.0664
3503.00,0.0664
3502.00,0.0664
3501.00,0.0664
3500.00,0.0664
3499.00,0.0664
3498.00,0.0664
3497.00,0.0664
3496.00,0.0664
3495.00,0.0665
3494.00,0.0665
3493.00,0.0665
3492.00,0.0665
3491.00,0.0666
3490.00,0.0666
3489.00,0.0666
3488.00,0.0666
3487.00,0.0667
3486.00,0.0667
3485.00,0.0668
3484.00,0.0668
3483.00,0.0669
3482.00,0.0669
3481.00,0.0669
3480.00,0.0669
3479.00,0.0669
3478.00,0.0669
3477.00,0.0669
3476.00,0.0670
3475.00,0.0670
3474.00,0.0671
3473.00,0.0672
3472.00,0.0672
3471.00,0.0673
3470.00,0.0673
3469.00,0.0673
3468.00,0.0673
3467.00,0.0673
3466.00,0.0674
3465.00,0.0674
3464.00,0.0674
3463.00,0.0674
3462.00,0.0674
3461.00,0.0675
3460.00,0.0675
3459.00,0.0675
3458.00,0.0675
3457.00,0.0675
3456.00,0.0675
3455.00,0.0675
3454.00,0.0675
3453.00,0.0675
3452.00,0.0676
3451.00,0.0677
3450.00,0.0678
3449.00,0.0679
3448.00,0.0679
3447.00,0.0679
3446.00,0.0679
3445.00,0.0679
3444.00,0.0679
3443.00,0.0679
3442.00,0.0679
3441.00,0.0679
3440.00,0.0679
3439.00,0.0679
3438.00,0.0680
3437.00,0.0681
3436.00,0.0682
3435.00,0.0682
3434.00,0.0681
3433.00,0.0681
3432.00,0.0681
3431.00,0.0681
3430.00,0.0682
3429.00,0.0682
3428.00,0.0682
3427.00,0.0683
3426.00,0.0683
3425.00,0.0684
3424.00,0.0685
3423.00,0.0685
3422.00,0.0685
3421.00,0.0685
3420.00,0.0685
3419.00,0.0685
3418.00,0.0685
3417.00,0.0685
3416.00,0.0685
3415.00,0.0686
3414.00,0.0686
3413.00,0.0687
3412.00,0.0687
3411.00,0.0687
3410.00,0.0686
3409.00,0.0686
3408.00,0.0686
3407.00,0.0686
3406.00,0.0686
3405.00,0.0687
3404.00,0.0688
3403.00,0.0689
3402.00,0.0689
3401.00,0.0689
3400.00,0.0689
3399.00,0.0689
3398.00,0.0688
3397.00,0.0688
3396.00,0.0689
3395.00,0.0689
3394.00,0.0690
3393.00,0.0690
3392.00,0.0691
3391.00,0.0691
3390.00,0.0692
3389.00,0.0692
3388.00,0.0692
3387.00,0.0691
3386.00,0.0691
3385.00,0.0690
3384.00,0.0690
3383.00,0.0691
3382.00,0.0691
3381.00,0.0692
3380.00,0.0692
3379.00,0.0693
3378.00,0.0693
3377.00,0.0693
3376.00,0.0693
3375.00,0.0693
3374.00,0.0693
3373.00,0.0693
3372.00,0.0694
3371.00,0.0694
3370.00,0.0695
3369.00,0.0695
3368.00,0.0695
3367.00,0.0695
3366.00,0.0695
3365.00,0.0695
3364.00,0.0695
3363.00,0.0695
3362.00,0.0695
3361.00,0.0695
3360.00,0.0696
3359.00,0.0696
3358.00,0.0697
3357.00,0.0697
3356.00,0.0697
3355.00,0.0697
3354.00,0.0697
3353.00,0.0697
3352.00,0.0697
3351.00,0.0698
3350.00,0.0698
3349.00,0.0698
3348.00,0.0697
3347.00,0.0697
3346.00,0.0697
3345.00,0.0697
3344.00,0.0698
3343.00,0.0698
3342.00,0.0699
3341.00,0.0698
3340.00,0.0698
3339.00,0.0697
3338.00,0.0697
3337.00,0.0697
3336.00,0.0698
3335.00,0.0698
3334.00,0.0699
3333.00,0.0700
3332.00,0.0700
3331.00,0.0699
3330.00,0.0699
3329.00,0.0698
3328.00,0.0698
3327.00,0.0699
3326.00,0.0699
3325.00,0.0700
3324.00,0.0700
3323.00,0.0700
3322.00,0.0700
3321.00,0.0700
3320.00,0.0700
3319.00,0.0700
3318.00,0.0701
3317.00,0.0700
3316.00,0.0700
3315.00,0.0700
3314.00,0.0701
3313.00,0.0701
3312.00,0.0702
3311.00,0.0703
3310.00,0.0703
3309.00,0.0703
3308.00,0.0702
3307.00,0.0701
3306.00,0.0701
3305.00,0.0700
3304.00,0.0700
3303.00,0.0700
3302.00,0.0701
3301.00,0.0702
3300.00,0.0703
3299.00,0.0703
3298.00,0.0704
3297.00,0.0703
3296.00,0.0703
3295.00,0.0702
3294.00,0.0702
3293.00,0.0703
3292.00,0.0704
3291.00,0.0704
3290.00,0.0704
3289.00,0.0704
3288.00,0.0704
3287.00,0.0704
3286.00,0.0704
3285.00,0.0704
3284.00,0.0703
3283.00,0.0703
3282.00,0.0703
3281.00,0.0703
3280.00,0.0704
3279.00,0.0704
3278.00,0.0705
3277.00,0.0706
3276.00,0.0706
3275.00,0.0706
3274.00,0.0705
3273.00,0.0705
3272.00,0.0705
3271.00,0.0704
3270.00,0.0704
3269.00,0.0704
3268.00,0.0704
3267.00,0.0705
3266.00,0.0705
3265.00,0.0706
3264.00,0.0706
3263.00,0.0706
3262.00,0.0705
3261.00,0.0705
3260.00,0.0705
3259.00,0.0705
3258.00,0.0705
3257.00,0.0706
3256.00,0.0706
3255.00,0.0706
3254.00,0.0707
3253.00,0.0707
3252.00,0.0707
3251.00,0.0706
3250.00,0.0706
3249.00,0.0706
3248.00,0.0706
3247.00,0.0707
3246.00,0.0707
3245.00,0.0707
3244.00,0.0707
3243.00,0.0707
3242.00,0.0708
3241.00,0.0708
3240.00,0.0708
3239.00,0.0708
3238.00,0.0708
3237.00,0.0707
3236.00,0.0707
3235.00,0.0707
3234.00,0.0707
3233.00,0.0708
3232.00,0.0709
3231.00,0.0709
3230.00,0.0709
3229.00,0.0709
3228.00,0.0709
3227.00,0.0709
3226.00,0.0708
3225.00,0.0708
3224.00,0.0707
3223.00,0.0707
3222.00,0.0708
3221.00,0.0709
3220.00,0.0710
3219.00,0.0710
3218.00,0.0710
3217.00,0.0710
3216.00,0.0709
3215.00,0.0709
3214.00,0.0709
3213.00,0.0709
3212.00,0.0708
3211.00,0.0709
3210.00,0.0709
3209.00,0.0709
3208.00,0.0709
3207.00,0.0710
3206.00,0.0710
3205.00,0.0710
3204.00,0.0710
3203.00,0.0709
3202.00,0.0709
3201.00,0.0709
3200.00,0.0709
3199.00,0.0710
3198.00,0.0710
3197.00,0.0710
3196.00,0.0710
3195.00,0.0710
3194.00,0.0709
3193.00,0.0709
3192.00,0.0708
3191.00,0.0708
3190.00,0.0708
3189.00,0.0709
3188.00,0.0709
3187.00,0.0710
3186.00,0.0710
3185.00,0.0710
3184.00,0.0710
3183.00,0.0709
3182.00,0.0709
3181.00,0.0709
3180.00,0.0708
3179.00,0.0708
3178.00,0.0708
3177.00,0.0708
3176.00,0.0708
3175.00,0.0708
3174.00,0.0709
3173.00,0.0709
3172.00,0.0709
3171.00,0.0710
3170.00,0.0709
3169.00,0.0709
3168.00,0.0708
3167.00,0.0708
3166.00,0.0708
3165.00,0.0708
3164.00,0.0709
3163.00,0.0709
3162.00,0.0709
3161.00,0.0709
3160.00,0.0709
3159.00,0.0708
3158.00,0.0708
3157.00,0.0707
3156.00,0.0707
3155.00,0.0707
3154.00,0.0707
3153.00,0.0707
3152.00,0.0707
3151.00,0.0708
3150.00,0.0708
3149.00,0.0708
3148.00,0.0708
3147.00,0.0707
3146.00,0.0707
3145.00,0.0707
3144.00,0.0707
3143.00,0.0707
3142.00,0.0707
3141.00,0.0707
3140.00,0.0708
3139.00,0.0708
3138.00,0.0708
3137.00,0.0708
3136.00,0.0707
3135.00,0.0707
3134.00,0.0706
3133.00,0.0706
3132.00,0.0706
3131.00,0.0706
3130.00,0.0706
3129.00,0.0706
3128.00,0.0707
3127.00,0.0707
3126.00,0.0707
3125.00,0.0706
3124.00,0.0706
3123.00,0.0705
3122.00,0.0705
3121.00,0.0705
3120.00,0.0705
3119.00,0.0705
3118.00,0.0706
3117.00,0.0706
3116.00,0.0706
3115.00,0.0706
3114.00,0.0706
3113.00,0.0705
3112.00,0.0704
3111.00,0.0704
3110.00,0.0703
3109.00,0.0703
3108.00,0.0703
3107.00,0.0704
3106.00,0.0704
3105.00,0.0705
3104.00,0.0705
3103.00,0.0705
3102.00,0.0705
3101.00,0.0704
3100.00,0.0704
3099.00,0.0703
3098.00,0.0703
3097.00,0.0703
3096.00,0.0703
3095.00,0.0704
3094.00,0.0705
3093.00,0.0705
3092.00,0.0704
3091.00,0.0704
3090.00,0.0704
3089.00,0.0703
3088.00,0.0703
3087.00,0.0703
3086.00,0.0703
3085.00,0.0703
3084.00,0.0703
3083.00,0.0704
3082.00,0.0704
3081.00,0.0704
3080.00,0.0704
3079.00,0.0704
3078.00,0.0703
3077.00,0.0702
3076.00,0.0702
3075.00,0.0702
3074.00,0.0702
3073.00,0.0702
3072.00,0.0702
3071.00,0.0703
3070.00,0.0703
3069.00,0.0703
3068.00,0.0703
3067.00,0.0703
3066.00,0.0703
3065.00,0.0702
3064.00,0.0702
3063.00,0.0702
3062.00,0.0701
3061.00,0.0702
3060.00,0.0702
3059.00,0.0702
3058.00,0.0702
3057.00,0.0702
3056.00,0.0701
3055.00,0.0701
3054.00,0.0700
3053.00,0.0700
3052.00,0.0700
3051.00,0.0701
3050.00,0.0701
3049.00,0.0701
3048.00,0.0701
3047.00,0.0701
3046.00,0.0701
3045.00,0.0700
3044.00,0.0700
3043.00,0.0700
3042.00,0.0699
3041.00,0.0698
3040.00,0.0698
3039.00,0.0698
3038.00,0.0699
3037.00,0.0699
3036.00,0.0700
3035.00,0.0700
3034.00,0.0699
3033.00,0.0699
3032.00,0.0698
3031.00,0.0697
3030.00,0.0696
3029.00,0.0696
3028.00,0.0696
3027.00,0.0696
3026.00,0.0696
3025.00,0.0697
3024.00,0.0697
3023.00,0.0697
3022.00,0.0696
3021.00,0.0696
3020.00,0.0696
3019.00,0.0696
3018.00,0.0696
3017.00,0.0697
3016.00,0.0698
3015.00,0.0698
3014.00,0.0698
3013.00,0.0698
3012.00,0.0698
3011.00,0.0697
3010.00,0.0696
3009.00,0.0696
3008.00,0.0696
3007.00,0.0696
3006.00,0.0696
3005.00,0.0697
3004.00,0.0697
3003.00,0.0698
3002.00,0.0698
3001.00,0.0698
3000.00,0.0698
2999.00,0.0698
2998.00,0.0697
2997.00,0.0697
2996.00,0.0696
2995.00,0.0696
2994.00,0.0696
2993.00,0.0697
2992.00,0.0697
2991.00,0.0697
2990.00,0.0697
2989.00,0.0697
2988.00,0.0697
2987.00,0.0697
2986.00,0.0697
2985.00,0.0697
2984.00,0.0698
2983.00,0.0698
2982.00,0.0698
2981.00,0.0698
2980.00,0.0698
2979.00,0.0697
2978.00,0.0697
2977.00,0.0697
2976.00,0.0696
2975.00,0.0696
2974.00,0.0695
2973.00,0.0695
2972.00,0.0695
2971.00,0.0694
2970.00,0.0694
2969.00,0.0694
2968.00,0.0694
2967.00,0.0693
2966.00,0.0692
2965.00,0.0692
2964.00,0.0691
2963.00,0.0690
2962.00,0.0689
2961.00,0.0689
2960.00,0.0689
2959.00,0.0689
2958.00,0.0689
2957.00,0.0689
2956.00,0.0689
2955.00,0.0689
2954.00,0.0689
2953.00,0.0688
2952.00,0.0688
2951.00,0.0687
2950.00,0.0686
2949.00,0.0686
2948.00,0.0686
2947.00,0.0685
2946.00,0.0685
2945.00,0.0686
2944.00,0.0685
2943.00,0.0685
2942.00,0.0684
2941.00,0.0684
2940.00,0.0683
2939.00,0.0682
2938.00,0.0682
2937.00,0.0682
2936.00,0.0682
2935.00,0.0681
2934.00,0.0681
2933.00,0.0680
2932.00,0.0680
2931.00,0.0679
2930.00,0.0678
2929.00,0.0678
2928.00,0.0677
2927.00,0.0676
2926.00,0.0676
2925.00,0.0676
2924.00,0.0677
2923.00,0.0678
2922.00,0.0679
2921.00,0.0680
2920.00,0.0680
2919.00,0.0680
2918.00,0.0679
2917.00,0.0679
2916.00,0.0680
2915.00,0.0681
2914.00,0.0682
2913.00,0.0683
2912.00,0.0683
2911.00,0.0683
2910.00,0.0684
2909.00,0.0684
2908.00,0.0684
2907.00,0.0684
2906.00,0.0684
2905.00,0.0683
2904.00,0.0683
2903.00,0.0683
2902.00,0.0684
2901.00,0.0684
2900.00,0.0685
2899.00,0.0685
2898.00,0.0686
2897.00,0.0685
2896.00,0.0685
2895.00,0.0684
2894.00,0.0684
2893.00,0.0684
2892.00,0.0684
2891.00,0.0685
2890.00,0.0685
2889.00,0.0685
2888.00,0.0685
2887.00,0.0685
2886.00,0.0685
2885.00,0.0685
2884.00,0.0684
2883.00,0.0683
2882.00,0.0683
2881.00,0.0682
2880.00,0.0682
2879.00,0.0682
2878.00,0.0682
2877.00,0.0682
2876.00,0.0682
2875.00,0.0682
2874.00,0.0682
2873.00,0.0681
2872.00,0.0680
2871.00,0.0679
2870.00,0.0678
2869.00,0.0678
2868.00,0.0677
2867.00,0.0677
2866.00,0.0677
2865.00,0.0677
2864.00,0.0677
2863.00,0.0677
2862.00,0.0677
2861.00,0.0677
2860.00,0.0677
2859.00,0.0676
2858.00,0.0675
2857.00,0.0675
2856.00,0.0674
2855.00,0.0674
2854.00,0.0674
2853.00,0.0674
2852.00,0.0675
2851.00,0.0675
2850.00,0.0675
2849.00,0.0675
2848.00,0.0675
2847.00,0.0676
2846.00,0.0676
2845.00,0.0677
2844.00,0.0677
2843.00,0.0678
2842.00,0.0678
2841.00,0.0678
2840.00,0.0678
2839.00,0.0678
2838.00,0.0678
2837.00,0.0677
2836.00,0.0677
2835.00,0.0677
2834.00,0.0677
2833.00,0.0677
2832.00,0.0677
2831.00,0.0678
2830.00,0.0678
2829.00,0.0677
2828.00,0.0677
2827.00,0.0676
2826.00,0.0676
2825.00,0.0676
2824.00,0.0676
2823.00,0.0676
2822.00,0.0676
2821.00,0.0676
2820.00,0.0676
2819.00,0.0676
2818.00,0.0676
2817.00,0.0676
2816.00,0.0676
2815.00,0.0676
2814.00,0.0675
2813.00,0.0675
2812.00,0.0674
2811.00,0.0674
2810.00,0.0674
2809.00,0.0674
2808.00,0.0674
2807.00,0.0674
2806.00,0.0674
2805.00,0.0673
2804.00,0.0673
2803.00,0.0673
2802.00,0.0672
2801.00,0.0672
2800.00,0.0672
2799.00,0.0672
2798.00,0.0672
2797.00,0.0672
2796.00,0.0672
2795.00,0.0672
2794.00,0.0672
2793.00,0.0671
2792.00,0.0671
2791.00,0.0670
2790.00,0.0670
2789.00,0.0670
2788.00,0.0670
2787.00,0.0670
2786.00,0.0670
2785.00,0.0670
2784.00,0.0670
2783.00,0.0670
2782.00,0.0670
2781.00,0.0669
2780.00,0.0669
2779.00,0.0668
2778.00,0.0668
2777.00,0.0668
2776.00,0.0668
2775.00,0.0668
2774.00,0.0668
2773.00,0.0668
2772.00,0.0668
2771.00,0.0668
2770.00,0.0668
2769.00,0.0668
2768.00,0.0667
2767.00,0.0667
2766.00,0.0667
2765.00,0.0667
2764.00,0.0667
2763.00,0.0667
2762.00,0.0667
2761.00,0.0667
2760.00,0.0667
2759.00,0.0667
2758.00,0.0666
2757.00,0.0666
2756.00,0.0665
2755.00,0.0665
2754.00,0.0665
2753.00,0.0665
2752.00,0.0665
2751.00,0.0665
2750.00,0.0665
2749.00,0.0666
2748.00,0.0666
2747.00,0.0665
2746.00,0.0665
2745.00,0.0664
2744.00,0.0664
2743.00,0.0663
2742.00,0.0663
2741.00,0.0664
2740.00,0.0664
2739.00,0.0664
2738.00,0.0664
2737.00,0.0664
2736.00,0.0663
2735.00,0.0663
2734.00,0.0662
2733.00,0.0662
2732.00,0.0662
2731.00,0.0662
2730.00,0.0662
2729.00,0.0662
2728.00,0.0662
2727.00,0.0663
2726.00,0.0663
2725.00,0.0662
2724.00,0.0662
2723.00,0.0662
2722.00,0.0661
2721.00,0.0661
2720.00,0.0662
2719.00,0.0662
2718.00,0.0662
2717.00,0.0662
2716.00,0.0662
2715.00,0.0662
2714.00,0.0662
2713.00,0.0661
2712.00,0.0661
2711.00,0.0660
2710.00,0.0660
2709.00,0.0659
2708.00,0.0659
2707.00,0.0660
2706.00,0.0660
2705.00,0.0660
2704.00,0.0660
2703.00,0.0660
2702.00,0.0659
2701.00,0.0659
2700.00,0.0659
2699.00,0.0658
2698.00,0.0658
2697.00,0.0658
2696.00,0.0658
2695.00,0.0659
2694.00,0.0659
2693.00,0.0659
2692.00,0.0659
2691.00,0.0658
2690.00,0.0658
2689.00,0.0658
2688.00,0.0657
2687.00,0.0657
2686.00,0.0657
2685.00,0.0657
2684.00,0.0657
2683.00,0.0657
2682.00,0.0658
2681.00,0.0658
2680.00,0.0658
2679.00,0.0657
2678.00,0.0657
2677.00,0.0657
2676.00,0.0656
2675.00,0.0656
2674.00,0.0657
2673.00,0.0657
2672.00,0.0657
2671.00,0.0657
2670.00,0.0657
2669.00,0.0657
2668.00,0.0657
2667.00,0.0657
2666.00,0.0657
2665.00,0.0657
2664.00,0.0657
2663.00,0.0656
2662.00,0.0656
2661.00,0.0657
2660.00,0.0657
2659.00,0.0657
2658.00,0.0657
2657.00,0.0657
2656.00,0.0657
2655.00,0.0657
2654.00,0.0657
2653.00,0.0657
2652.00,0.0657
2651.00,0.0657
2650.00,0.0657
2649.00,0.0657
2648.00,0.0658
2647.00,0.0658
2646.00,0.0657
2645.00,0.0657
2644.00,0.0657
2643.00,0.0657
2642.00,0.0656
2641.00,0.0656
2640.00,0.0657
2639.00,0.0657
2638.00,0.0657
2637.00,0.0657
2636.00,0.0657
2635.00,0.0658
2634.00,0.0658
2633.00,0.0657
2632.00,0.0657
2631.00,0.0657
2630.00,0.0657
2629.00,0.0657
2628.00,0.0658
2627.00,0.0658
2626.00,0.0658
2625.00,0.0658
2624.00,0.0658
2623.00,0.0657
2622.00,0.0657
2621.00,0.0657
2620.00,0.0656
2619.00,0.0656
2618.00,0.0655
2617.00,0.0655
2616.00,0.0656
2615.00,0.0657
2614.00,0.0657
2613.00,0.0657
2612.00,0.0657
2611.00,0.0656
2610.00,0.0656
2609.00,0.0656
2608.00,0.0656
2607.00,0.0656
2606.00,0.0656
2605.00,0.0656
2604.00,0.0657
2603.00,0.0657
2602.00,0.0657
2601.00,0.0657
2600.00,0.0656
2599.00,0.0656
2598.00,0.0656
2597.00,0.0656
2596.00,0.0655
2595.00,0.0655
2594.00,0.0655
2593.00,0.0655
2592.00,0.0655
2591.00,0.0656
2590.00,0.0657
2589.00,0.0657
2588.00,0.0656
2587.00,0.0655
2586.00,0.0655
2585.00,0.0654
2584.00,0.0654
2583.00,0.0655
2582.00,0.0655
2581.00,0.0656
2580.00,0.0657
2579.00,0.0657
2578.00,0.0657
2577.00,0.0657
2576.00,0.0656
2575.00,0.0655
2574.00,0.0655
2573.00,0.0654
2572.00,0.0654
2571.00,0.0654
2570.00,0.0654
2569.00,0.0655
2568.00,0.0655
2567.00,0.0656
2566.00,0.0656
2565.00,0.0656
2564.00,0.0655
2563.00,0.0655
2562.00,0.0654
2561.00,0.0653
2560.00,0.0653
2559.00,0.0653
2558.00,0.0654
2557.00,0.0654
2556.00,0.0655
2555.00,0.0656
2554.00,0.0656
2553.00,0.0656
2552.00,0.0655
2551.00,0.0655
2550.00,0.0655
2549.00,0.0654
2548.00,0.0654
2547.00,0.0654
2546.00,0.0654
2545.00,0.0654
2544.00,0.0654
2543.00,0.0653
2542.00,0.0653
2541.00,0.0653
2540.00,0.0653
2539.00,0.0653
2538.00,0.0653
2537.00,0.0653
2536.00,0.0653
2535.00,0.0653
2534.00,0.0653
2533.00,0.0653
2532.00,0.0653
2531.00,0.0652
2530.00,0.0652
2529.00,0.0652
2528.00,0.0652
2527.00,0.0652
2526.00,0.0652
2525.00,0.0652
2524.00,0.0653
2523.00,0.0653
2522.00,0.0653
2521.00,0.0653
2520.00,0.0653
2519.00,0.0653
2518.00,0.0653
2517.00,0.0652
2516.00,0.0652
2515.00,0.0652
2514.00,0.0653
2513.00,0.0653
2512.00,0.0653
2511.00,0.0654
2510.00,0.0653
2509.00,0.0653
2508.00,0.0652
2507.00,0.0652
2506.00,0.0652
2505.00,0.0652
2504.00,0.0652
2503.00,0.0651
2502.00,0.0651
2501.00,0.0651
2500.00,0.0651
2499.00,0.0651
2498.00,0.0652
2497.00,0.0652
2496.00,0.0652
2495.00,0.0652
2494.00,0.0651
2493.00,0.0651
2492.00,0.0651
2491.00,0.0651
2490.00,0.0651
2489.00,0.0652
2488.00,0.0652
2487.00,0.0652
2486.00,0.0652
2485.00,0.0651
2484.00,0.0651
2483.00,0.0651
2482.00,0.0651
2481.00,0.0650
2480.00,0.0650
2479.00,0.0651
2478.00,0.0651
2477.00,0.0651
2476.00,0.0652
2475.00,0.0652
2474.00,0.0652
2473.00,0.0651
2472.00,0.0651
2471.00,0.0650
2470.00,0.0650
2469.00,0.0649
2468.00,0.0649
2467.00,0.0649
2466.00,0.0649
2465.00,0.0650
2464.00,0.0651
2463.00,0.0651
2462.00,0.0651
2461.00,0.0651
2460.00,0.0650
2459.00,0.0650
2458.00,0.0650
2457.00,0.0650
2456.00,0.0650
2455.00,0.0651
2454.00,0.0651
2453.00,0.0651
2452.00,0.0652
2451.00,0.0652
2450.00,0.0652
2449.00,0.0652
2448.00,0.0651
2447.00,0.0650
2446.00,0.0650
2445.00,0.0650
2444.00,0.0650
2443.00,0.0650
2442.00,0.0650
2441.00,0.0650
2440.00,0.0650
2439.00,0.0650
2438.00,0.0649
2437.00,0.0648
2436.00,0.0648
2435.00,0.0647
2434.00,0.0648
2433.00,0.0648
2432.00,0.0648
2431.00,0.0649
2430.00,0.0649
2429.00,0.0649
2428.00,0.0649
2427.00,0.0649
2426.00,0.0649
2425.00,0.0649
2424.00,0.0649
2423.00,0.0648
2422.00,0.0648
2421.00,0.0648
2420.00,0.0648
2419.00,0.0648
2418.00,0.0648
2417.00,0.0648
2416.00,0.0648
2415.00,0.0647
2414.00,0.0647
2413.00,0.0647
2412.00,0.0647
2411.00,0.0646
2410.00,0.0646
2409.00,0.0646
2408.00,0.0647
2407.00,0.0647
2406.00,0.0647
2405.00,0.0647
2404.00,0.0647
2403.00,0.0646
2402.00,0.0646
2401.00,0.0645
2400.00,0.0645
2399.00,0.0645
2398.00,0.0645
2397.00,0.0645
2396.00,0.0645
2395.00,0.0645
2394.00,0.0645
2393.00,0.0644
2392.00,0.0643
2391.00,0.0643
2390.00,0.0642
2389.00,0.0641
2388.00,0.0641
2387.00,0.0641
2386.00,0.0640
2385.00,0.0640
2384.00,0.0639
2383.00,0.0638
2382.00,0.0637
2381.00,0.0635
2380.00,0.0632
2379.00,0.0629
2378.00,0.0627
2377.00,0.0624
2376.00,0.0623
2375.00,0.0623
2374.00,0.0624
2373.00,0.0625
2372.00,0.0626
2371.00,0.0627
2370.00,0.0627
2369.00,0.0626
2368.00,0.0624
2367.00,0.0622
2366.00,0.0620
2365.00,0.0618
2364.00,0.0617
2363.00,0.0617
2362.00,0.0618
2361.00,0.0620
2360.00,0.0621
2359.00,0.0622
2358.00,0.0621
2357.00,0.0620
2356.00,0.0619
2355.00,0.0619
2354.00,0.0620
2353.00,0.0622
2352.00,0.0623
2351.00,0.0622
2350.00,0.0619
2349.00,0.0617
2348.00,0.0619
2347.00,0.0621
2346.00,0.0624
2345.00,0.0623
2344.00,0.0619
2343.00,0.0615
2342.00,0.0616
2341.00,0.0620
2340.00,0.0622
2339.00,0.0623
2338.00,0.0623
2337.00,0.0623
2336.00,0.0622
2335.00,0.0622
2334.00,0.0621
2333.00,0.0620
2332.00,0.0620
2331.00,0.0620
2330.00,0.0621
2329.00,0.0622
2328.00,0.0624
2327.00,0.0627
2326.00,0.0629
2325.00,0.0631
2324.00,0.0632
2323.00,0.0631
2322.00,0.0631
2321.00,0.0630
2320.00,0.0630
2319.00,0.0631
2318.00,0.0632
2317.00,0.0633
2316.00,0.0634
2315.00,0.0634
2314.00,0.0635
2313.00,0.0634
2312.00,0.0634
2311.00,0.0633
2310.00,0.0632
2309.00,0.0631
2308.00,0.0631
2307.00,0.0631
2306.00,0.0632
2305.00,0.0632
2304.00,0.0632
2303.00,0.0632
2302.00,0.0632
2301.00,0.0632
2300.00,0.0632
2299.00,0.0631
2298.00,0.0631
2297.00,0.0631
2296.00,0.0632
2295.00,0.0632
2294.00,0.0634
2293.00,0.0635
2292.00,0.0636
2291.00,0.0636
2290.00,0.0637
2289.00,0.0637
2288.00,0.0636
2287.00,0.0636
2286.00,0.0636
2285.00,0.0635
2284.00,0.0635
2283.00,0.0636
2282.00,0.0636
2281.00,0.0637
2280.00,0.0637
2279.00,0.0637
2278.00,0.0636
2277.00,0.0635
2276.00,0.0634
2275.00,0.0633
2274.00,0.0633
2273.00,0.0634
2272.00,0.0634
2271.00,0.0635
2270.00,0.0635
2269.00,0.0634
2268.00,0.0633
2267.00,0.0632
2266.00,0.0633
2265.00,0.0634
2264.00,0.0635
2263.00,0.0635
2262.00,0.0635
2261.00,0.0636
2260.00,0.0636
2259.00,0.0636
2258.00,0.0635
2257.00,0.0635
2256.00,0.0634
2255.00,0.0633
2254.00,0.0632
2253.00,0.0632
2252.00,0.0631
2251.00,0.0631
2250.00,0.0631
2249.00,0.0631
2248.00,0.0631
2247.00,0.0631
2246.00,0.0631
2245.00,0.0631
2244.00,0.0630
2243.00,0.0630
2242.00,0.0630
2241.00,0.0630
2240.00,0.0630
2239.00,0.0630
2238.00,0.0631
2237.00,0.0632
2236.00,0.0632
2235.00,0.0633
2234.00,0.0634
2233.00,0.0634
2232.00,0.0634
2231.00,0.0633
2230.00,0.0632
2229.00,0.0630
2228.00,0.0630
2227.00,0.0629
2226.00,0.0629
2225.00,0.0630
2224.00,0.0630
2223.00,0.0631
2222.00,0.0632
2221.00,0.0633
2220.00,0.0632
2219.00,0.0630
2218.00,0.0629
2217.00,0.0628
2216.00,0.0628
2215.00,0.0629
2214.00,0.0631
2213.00,0.0632
2212.00,0.0632
2211.00,0.0631
2210.00,0.0629
2209.00,0.0628
2208.00,0.0626
2207.00,0.0624
2206.00,0.0623
2205.00,0.0623
2204.00,0.0624
2203.00,0.0626
2202.00,0.0629
2201.00,0.0632
2200.00,0.0633
2199.00,0.0634
2198.00,0.0635
2197.00,0.0634
2196.00,0.0632
2195.00,0.0630
2194.00,0.0629
2193.00,0.0628
2192.00,0.0628
2191.00,0.0627
2190.00,0.0627
2189.00,0.0627
2188.00,0.0627
2187.00,0.0627
2186.00,0.0627
2185.00,0.0626
2184.00,0.0624
2183.00,0.0623
2182.00,0.0623
2181.00,0.0624
2180.00,0.0625
2179.00,0.0625
2178.00,0.0624
2177.00,0.0623
2176.00,0.0620
2175.00,0.0619
2174.00,0.0619
2173.00,0.0620
2172.00,0.0622
2171.00,0.0624
2170.00,0.0626
2169.00,0.0627
2168.00,0.0628
2167.00,0.0629
2166.00,0.0629
2165.00,0.0630
2164.00,0.0631
2163.00,0.0631
2162.00,0.0628
2161.00,0.0623
2160.00,0.0617
2159.00,0.0612
2158.00,0.0612
2157.00,0.0614
2156.00,0.0617
2155.00,0.0619
2154.00,0.0620
2153.00,0.0620
2152.00,0.0619
2151.00,0.0616
2150.00,0.0613
2149.00,0.0611
2148.00,0.0611
2147.00,0.0612
2146.00,0.0613
2145.00,0.0615
2144.00,0.0616
2143.00,0.0618
2142.00,0.0618
2141.00,0.0617
2140.00,0.0616
2139.00,0.0615
2138.00,0.0614
2137.00,0.0613
2136.00,0.0612
2135.00,0.0610
2134.00,0.0610
2133.00,0.0610
2132.00,0.0610
2131.00,0.0610
2130.00,0.0609
2129.00,0.0609
2128.00,0.0609
2127.00,0.0609
2126.00,0.0609
2125.00,0.0610
2124.00,0.0611
2123.00,0.0612
2122.00,0.0613
2121.00,0.0614
2120.00,0.0615
2119.00,0.0616
2118.00,0.0616
2117.00,0.0616
2116.00,0.0615
2115.00,0.0613
2114.00,0.0612
2113.00,0.0611
2112.00,0.0612
2111.00,0.0613
2110.00,0.0613
2109.00,0.0614
2108.00,0.0614
2107.00,0.0613
2106.00,0.0612
2105.00,0.0611
2104.00,0.0609
2103.00,0.0609
2102.00,0.0609
2101.00,0.0609
2100.00,0.0610
2099.00,0.0610
2098.00,0.0610
2097.00,0.0610
2096.00,0.0610
2095.00,0.0609
2094.00,0.0608
2093.00,0.0607
2092.00,0.0607
2091.00,0.0607
2090.00,0.0607
2089.00,0.0607
2088.00,0.0607
2087.00,0.0607
2086.00,0.0607
2085.00,0.0607
2084.00,0.0607
2083.00,0.0606
2082.00,0.0605
2081.00,0.0604
2080.00,0.0603
2079.00,0.0603
2078.00,0.0604
2077.00,0.0605
2076.00,0.0606
2075.00,0.0606
2074.00,0.0606
2073.00,0.0606
2072.00,0.0605
2071.00,0.0605
2070.00,0.0605
2069.00,0.0604
2068.00,0.0604
2067.00,0.0603
2066.00,0.0603
2065.00,0.0602
2064.00,0.0602
2063.00,0.0602
2062.00,0.0602
2061.00,0.0603
2060.00,0.0604
2059.00,0.0603
2058.00,0.0602
2057.00,0.0601
2056.00,0.0600
2055.00,0.0602
2054.00,0.0604
2053.00,0.0605
2052.00,0.0606
2051.00,0.0604
2050.00,0.0603
2049.00,0.0601
2048.00,0.0599
2047.00,0.0598
2046.00,0.0598
2045.00,0.0599
2044.00,0.0600
2043.00,0.0601
2042.00,0.0601
2041.00,0.0601
2040.00,0.0601
2039.00,0.0601
2038.00,0.0601
2037.00,0.0602
2036.00,0.0601
2035.00,0.0599
2034.00,0.0597
2033.00,0.0595
2032.00,0.0594
2031.00,0.0595
2030.00,0.0597
2029.00,0.0599
2028.00,0.0599
2027.00,0.0597
2026.00,0.0596
2025.00,0.0594
2024.00,0.0593
2023.00,0.0592
2022.00,0.0591
2021.00,0.0592
2020.00,0.0594
2019.00,0.0596
2018.00,0.0599
2017.00,0.0601
2016.00,0.0601
2015.00,0.0599
2014.00,0.0598
2013.00,0.0597
2012.00,0.0595
2011.00,0.0595
2010.00,0.0596
2009.00,0.0598
2008.00,0.0598
2007.00,0.0598
2006.00,0.0597
2005.00,0.0596
2004.00,0.0595
2003.00,0.0595
2002.00,0.0594
2001.00,0.0594
2000.00,0.0593
1999.00,0.0591
1998.00,0.0591
1997.00,0.0591
1996.00,0.0591
1995.00,0.0592
1994.00,0.0592
1993.00,0.0593
1992.00,0.0593
1991.00,0.0593
1990.00,0.0593
1989.00,0.0593
1988.00,0.0591
1987.00,0.0590
1986.00,0.0590
1985.00,0.0591
1984.00,0.0593
1983.00,0.0594
1982.00,0.0596
1981.00,0.0596
1980.00,0.0595
1979.00,0.0591
1978.00,0.0588
1977.00,0.0586
1976.00,0.0586
1975.00,0.0586
1974.00,0.0587
1973.00,0.0588
1972.00,0.0589
1971.00,0.0590
1970.00,0.0589
1969.00,0.0587
1968.00,0.0585
1967.00,0.0583
1966.00,0.0582
1965.00,0.0583
1964.00,0.0584
1963.00,0.0585
1962.00,0.0585
1961.00,0.0585
1960.00,0.0585
1959.00,0.0584
1958.00,0.0583
1957.00,0.0583
1956.00,0.0582
1955.00,0.0581
1954.00,0.0580
1953.00,0.0579
1952.00,0.0579
1951.00,0.0579
1950.00,0.0579
1949.00,0.0579
1948.00,0.0579
1947.00,0.0580
1946.00,0.0580
1945.00,0.0581
1944.00,0.0580
1943.00,0.0578
1942.00,0.0576
1941.00,0.0574
1940.00,0.0573
1939.00,0.0573
1938.00,0.0573
1937.00,0.0574
1936.00,0.0575
1935.00,0.0575
1934.00,0.0575
1933.00,0.0573
1932.00,0.0572
1931.00,0.0571
1930.00,0.0570
1929.00,0.0570
1928.00,0.0570
1927.00,0.0571
1926.00,0.0571
1925.00,0.0572
1924.00,0.0572
1923.00,0.0571
1922.00,0.0571
1921.00,0.0570
1920.00,0.0570
1919.00,0.0569
1918.00,0.0568
1917.00,0.0568
1916.00,0.0568
1915.00,0.0568
1914.00,0.0569
1913.00,0.0569
1912.00,0.0569
1911.00,0.0568
1910.00,0.0567
1909.00,0.0566
1908.00,0.0565
1907.00,0.0565
1906.00,0.0566
1905.00,0.0565
1904.00,0.0565
1903.00,0.0564
1902.00,0.0563
1901.00,0.0563
1900.00,0.0563
1899.00,0.0562
1898.00,0.0562
1897.00,0.0562
1896.00,0.0561
1895.00,0.0560
1894.00,0.0559
1893.00,0.0559
1892.00,0.0559
1891.00,0.0559
1890.00,0.0558
1889.00,0.0557
1888.00,0.0556
1887.00,0.0555
1886.00,0.0555
1885.00,0.0555
1884.00,0.0554
1883.00,0.0554
1882.00,0.0554
1881.00,0.0554
1880.00,0.0554
1879.00,0.0554
1878.00,0.0554
1877.00,0.0554
1876.00,0.0554
1875.00,0.0553
1874.00,0.0553
1873.00,0.0552
1872.00,0.0552
1871.00,0.0552
1870.00,0.0552
1869.00,0.0551
1868.00,0.0549
1867.00,0.0547
1866.00,0.0547
1865.00,0.0548
1864.00,0.0548
1863.00,0.0548
1862.00,0.0547
1861.00,0.0547
1860.00,0.0545
1859.00,0.0545
1858.00,0.0545
1857.00,0.0545
1856.00,0.0545
1855.00,0.0544
1854.00,0.0544
1853.00,0.0544
1852.00,0.0543
1851.00,0.0543
1850.00,0.0542
1849.00,0.0542
1848.00,0.0542
1847.00,0.0541
1846.00,0.0541
1845.00,0.0540
1844.00,0.0539
1843.00,0.0537
1842.00,0.0536
1841.00,0.0536
1840.00,0.0536
1839.00,0.0535
1838.00,0.0534
1837.00,0.0534
1836.00,0.0533
1835.00,0.0533
1834.00,0.0533
1833.00,0.0533
1832.00,0.0533
1831.00,0.0531
1830.00,0.0529
1829.00,0.0527
1828.00,0.0526
1827.00,0.0526
1826.00,0.0526
1825.00,0.0525
1824.00,0.0524
1823.00,0.0524
1822.00,0.0524
1821.00,0.0525
1820.00,0.0524
1819.00,0.0524
1818.00,0.0523
1817.00,0.0522
1816.00,0.0521
1815.00,0.0520
1814.00,0.0519
1813.00,0.0519
1812.00,0.0518
1811.00,0.0517
1810.00,0.0516
1809.00,0.0516
1808.00,0.0516
1807.00,0.0515
1806.00,0.0514
1805.00,0.0514
1804.00,0.0513
1803.00,0.0512
1802.00,0.0512
1801.00,0.0511
1800.00,0.0511
1799.00,0.0511
1798.00,0.0512
1797.00,0.0513
1796.00,0.0513
1795.00,0.0512
1794.00,0.0511
1793.00,0.0510
1792.00,0.0506
1791.00,0.0503
1790.00,0.0503
1789.00,0.0504
1788.00,0.0505
1787.00,0.0505
1786.00,0.0505
1785.00,0.0504
1784.00,0.0504
1783.00,0.0503
1782.00,0.0502
1781.00,0.0501
1780.00,0.0501
1779.00,0.0502
1778.00,0.0503
1777.00,0.0504
1776.00,0.0505
1775.00,0.0506
1774.00,0.0506
1773.00,0.0505
1772.00,0.0503
1771.00,0.0501
1770.00,0.0501
1769.00,0.0502
1768.00,0.0503
1767.00,0.0504
1766.00,0.0505
1765.00,0.0506
1764.00,0.0506
1763.00,0.0506
1762.00,0.0505
1761.00,0.0504
1760.00,0.0505
1759.00,0.0506
1758.00,0.0506
1757.00,0.0506
1756.00,0.0507
1755.00,0.0509
1754.00,0.0511
1753.00,0.0513
1752.00,0.0515
1751.00,0.0517
1750.00,0.0517
1749.00,0.0516
1748.00,0.0515
1747.00,0.0516
1746.00,0.0517
1745.00,0.0518
1744.00,0.0518
1743.00,0.0519
1742.00,0.0520
1741.00,0.0522
1740.00,0.0525
1739.00,0.0526
1738.00,0.0528
1737.00,0.0529
1736.00,0.0531
1735.00,0.0535
1734.00,0.0537
1733.00,0.0535
1732.00,0.0535
1731.00,0.0535
1730.00,0.0535
1729.00,0.0536
1728.00,0.0538
1727.00,0.0541
1726.00,0.0542
1725.00,0.0544
1724.00,0.0545
1723.00,0.0546
1722.00,0.0547
1721.00,0.0547
1720.00,0.0547
1719.00,0.0548
1718.00,0.0552
1717.00,0.0555
1716.00,0.0554
1715.00,0.0553
1714.00,0.0552
1713.00,0.0553
1712.00,0.0555
1711.00,0.0555
1710.00,0.0555
1709.00,0.0556
1708.00,0.0557
1707.00,0.0556
1706.00,0.0556
1705.00,0.0557
1704.00,0.0557
1703.00,0.0556
1702.00,0.0557
1701.00,0.0560
1700.00,0.0564
1699.00,0.0565
1698.00,0.0565
1697.00,0.0563
1696.00,0.0560
1695.00,0.0559
1694.00,0.0561
1693.00,0.0564
1692.00,0.0565
1691.00,0.0566
1690.00,0.0567
1689.00,0.0567
1688.00,0.0568
1687.00,0.0567
1686.00,0.0566
1685.00,0.0565
1684.00,0.0563
1683.00,0.0562
1682.00,0.0566
1681.00,0.0570
1680.00,0.0572
1679.00,0.0573
1678.00,0.0574
1677.00,0.0575
1676.00,0.0577
1675.00,0.0580
1674.00,0.0582
1673.00,0.0584
1672.00,0.0584
1671.00,0.0586
1670.00,0.0587
1669.00,0.0586
1668.00,0.0587
1667.00,0.0589
1666.00,0.0591
1665.00,0.0593
1664.00,0.0595
1663.00,0.0598
1662.00,0.0600
1661.00,0.0603
1660.00,0.0605
1659.00,0.0608
1658.00,0.0609
1657.00,0.0608
1656.00,0.0605
1655.00,0.0603
1654.00,0.0606
1653.00,0.0609
1652.00,0.0613
1651.00,0.0620
1650.00,0.0623
1649.00,0.0625
1648.00,0.0627
1647.00,0.0630
1646.00,0.0630
1645.00,0.0632
1644.00,0.0635
1643.00,0.0638
1642.00,0.0640
1641.00,0.0643
1640.00,0.0645
1639.00,0.0646
1638.00,0.0648
1637.00,0.0650
1636.00,0.0653
1635.00,0.0655
1634.00,0.0659
1633.00,0.0663
1632.00,0.0666
1631.00,0.0668
1630.00,0.0670
1629.00,0.0672
1628.00,0.0675
1627.00,0.0678
1626.00,0.0681
1625.00,0.0685
1624.00,0.0689
1623.00,0.0694
1622.00,0.0697
1621.00,0.0699
1620.00,0.0700
1619.00,0.0702
1618.00,0.0706
1617.00,0.0712
1616.00,0.0715
1615.00,0.0717
1614.00,0.0718
1613.00,0.0720
1612.00,0.0723
1611.00,0.0726
1610.00,0.0730
1609.00,0.0733
1608.00,0.0736
1607.00,0.0739
1606.00,0.0741
1605.00,0.0744
1604.00,0.0746
1603.00,0.0749
1602.00,0.0752
1601.00,0.0754
1600.00,0.0756
1599.00,0.0758
1598.00,0.0760
1597.00,0.0762
1596.00,0.0764
1595.00,0.0767
1594.00,0.0770
1593.00,0.0772
1592.00,0.0773
1591.00,0.0775
1590.00,0.0777
1589.00,0.0778
1588.00,0.0780
1587.00,0.0781
1586.00,0.0783
1585.00,0.0784
1584.00,0.0785
1583.00,0.0787
1582.00,0.0788
1581.00,0.0789
1580.00,0.0789
1579.00,0.0789
1578.00,0.0789
1577.00,0.0792
1576.00,0.0794
1575.00,0.0796
1574.00,0.0795
1573.00,0.0794
1572.00,0.0792
1571.00,0.0792
1570.00,0.0793
1569.00,0.0794
1568.00,0.0795
1567.00,0.0796
1566.00,0.0796
1565.00,0.0796
1564.00,0.0795
1563.00,0.0793
1562.00,0.0788
1561.00,0.0782
1560.00,0.0787
1559.00,0.0799
1558.00,0.0798
1557.00,0.0796
1556.00,0.0796
1555.00,0.0794
1554.00,0.0792
1553.00,0.0790
1552.00,0.0787
1551.00,0.0784
1550.00,0.0782
1549.00,0.0782
1548.00,0.0782
1547.00,0.0782
1546.00,0.0783
1545.00,0.0784
1544.00,0.0784
1543.00,0.0783
1542.00,0.0783
1541.00,0.0783
1540.00,0.0776
1539.00,0.0769
1538.00,0.0768
1537.00,0.0769
1536.00,0.0768
1535.00,0.0765
1534.00,0.0763
1533.00,0.0761
1532.00,0.0758
1531.00,0.0757
1530.00,0.0756
1529.00,0.0756
1528.00,0.0755
1527.00,0.0755
1526.00,0.0756
1525.00,0.0756
1524.00,0.0755
1523.00,0.0754
1522.00,0.0752
1521.00,0.0748
1520.00,0.0744
1519.00,0.0740
1518.00,0.0737
1517.00,0.0735
1516.00,0.0734
1515.00,0.0735
1514.00,0.0736
1513.00,0.0738
1512.00,0.0738
1511.00,0.0737
1510.00,0.0734
1509.00,0.0732
1508.00,0.0732
1507.00,0.0728
1506.00,0.0722
1505.00,0.0724
1504.00,0.0727
1503.00,0.0727
1502.00,0.0725
1501.00,0.0723
1500.00,0.0722
1499.00,0.0720
1498.00,0.0719
1497.00,0.0719
1496.00,0.0720
1495.00,0.0720
1494.00,0.0721
1493.00,0.0721
1492.00,0.0722
1491.00,0.0722
1490.00,0.0721
1489.00,0.0718
1488.00,0.0714
1487.00,0.0711
1486.00,0.0711
1485.00,0.0711
1484.00,0.0712
1483.00,0.0712
1482.00,0.0712
1481.00,0.0712
1480.00,0.0711
1479.00,0.0711
1478.00,0.0710
1477.00,0.0709
1476.00,0.0710
1475.00,0.0711
1474.00,0.0714
1473.00,0.0716
1472.00,0.0714
1471.00,0.0711
1470.00,0.0710
1469.00,0.0710
1468.00,0.0709
1467.00,0.0709
1466.00,0.0709
1465.00,0.0710
1464.00,0.0711
1463.00,0.0712
1462.00,0.0712
1461.00,0.0710
1460.00,0.0709
1459.00,0.0710
1458.00,0.0715
1457.00,0.0719
1456.00,0.0719
1455.00,0.0717
1454.00,0.0716
1453.00,0.0714
1452.00,0.0714
1451.00,0.0713
1450.00,0.0713
1449.00,0.0712
1448.00,0.0712
1447.00,0.0712
1446.00,0.0712
1445.00,0.0712
1444.00,0.0712
1443.00,0.0713
1442.00,0.0713
1441.00,0.0713
1440.00,0.0712
1439.00,0.0712
1438.00,0.0711
1437.00,0.0713
1436.00,0.0714
1435.00,0.0714
1434.00,0.0714
1433.00,0.0713
1432.00,0.0714
1431.00,0.0714
1430.00,0.0713
1429.00,0.0713
1428.00,0.0714
1427.00,0.0714
1426.00,0.0714
1425.00,0.0714
1424.00,0.0714
1423.00,0.0715
1422.00,0.0714
1421.00,0.0713
1420.00,0.0714
1419.00,0.0714
1418.00,0.0713
1417.00,0.0713
1416.00,0.0715
1415.00,0.0716
1414.00,0.0716
1413.00,0.0716
1412.00,0.0716
1411.00,0.0717
1410.00,0.0717
1409.00,0.0717
1408.00,0.0717
1407.00,0.0717
1406.00,0.0717
1405.00,0.0718
1404.00,0.0720
1403.00,0.0721
1402.00,0.0722
1401.00,0.0723
1400.00,0.0725
1399.00,0.0727
1398.00,0.0728
1397.00,0.0728
1396.00,0.0729
1395.00,0.0729
1394.00,0.0728
1393.00,0.0729
1392.00,0.0730
1391.00,0.0731
1390.00,0.0731
1389.00,0.0731
1388.00,0.0733
1387.00,0.0733
1386.00,0.0734
1385.00,0.0734
1384.00,0.0735
1383.00,0.0735
1382.00,0.0736
1381.00,0.0737
1380.00,0.0737
1379.00,0.0738
1378.00,0.0738
1377.00,0.0738
1376.00,0.0738
1375.00,0.0738
1374.00,0.0739
1373.00,0.0739
1372.00,0.0740
1371.00,0.0740
1370.00,0.0739
1369.00,0.0739
1368.00,0.0739
1367.00,0.0739
1366.00,0.0739
1365.00,0.0738
1364.00,0.0737
1363.00,0.0737
1362.00,0.0737
1361.00,0.0737
1360.00,0.0738
1359.00,0.0738
1358.00,0.0739
1357.00,0.0739
1356.00,0.0739
1355.00,0.0739
1354.00,0.0739
1353.00,0.0739
1352.00,0.0739
1351.00,0.0739
1350.00,0.0739
1349.00,0.0739
1348.00,0.0739
1347.00,0.0740
1346.00,0.0740
1345.00,0.0740
1344.00,0.0740
1343.00,0.0740
1342.00,0.0739
1341.00,0.0739
1340.00,0.0739
1339.00,0.0739
1338.00,0.0738
1337.00,0.0737
1336.00,0.0737
1335.00,0.0737
1334.00,0.0737
1333.00,0.0737
1332.00,0.0738
1331.00,0.0738
1330.00,0.0739
1329.00,0.0739
1328.00,0.0739
1327.00,0.0739
1326.00,0.0739
1325.00,0.0739
1324.00,0.0739
1323.00,0.0740
1322.00,0.0741
1321.00,0.0742
1320.00,0.0743
1319.00,0.0744
1318.00,0.0744
1317.00,0.0745
1316.00,0.0746
1315.00,0.0746
1314.00,0.0747
1313.00,0.0747
1312.00,0.0747
1311.00,0.0747
1310.00,0.0748
1309.00,0.0748
1308.00,0.0748
1307.00,0.0749
1306.00,0.0749
1305.00,0.0750
1304.00,0.0750
1303.00,0.0751
1302.00,0.0752
1301.00,0.0752
1300.00,0.0753
1299.00,0.0754
1298.00,0.0754
1297.00,0.0756
1296.00,0.0757
1295.00,0.0758
1294.00,0.0759
1293.00,0.0759
1292.00,0.0760
1291.00,0.0761
1290.00,0.0762
1289.00,0.0762
1288.00,0.0762
1287.00,0.0763
1286.00,0.0763
1285.00,0.0764
1284.00,0.0764
1283.00,0.0765
1282.00,0.0766
1281.00,0.0767
1280.00,0.0768
1279.00,0.0769
1278.00,0.0769
1277.00,0.0770
1276.00,0.0770
1275.00,0.0771
1274.00,0.0773
1273.00,0.0774
1272.00,0.0776
1271.00,0.0777
1270.00,0.0778
1269.00,0.0779
1268.00,0.0780
1267.00,0.0781
1266.00,0.0782
1265.00,0.0783
1264.00,0.0785
1263.00,0.0786
1262.00,0.0787
1261.00,0.0789
1260.00,0.0790
1259.00,0.0791
1258.00,0.0792
1257.00,0.0794
1256.00,0.0795
1255.00,0.0795
1254.00,0.0795
1253.00,0.0796
1252.00,0.0797
1251.00,0.0799
1250.00,0.0801
1249.00,0.0803
1248.00,0.0805
1247.00,0.0806
1246.00,0.0807
1245.00,0.0808
1244.00,0.0809
1243.00,0.0810
1242.00,0.0812
1241.00,0.0813
1240.00,0.0815
1239.00,0.0818
1238.00,0.0820
1237.00,0.0822
1236.00,0.0824
1235.00,0.0827
1234.00,0.0828
1233.00,0.0830
1232.00,0.0831
1231.00,0.0832
1230.00,0.0833
1229.00,0.0834
1228.00,0.0836
1227.00,0.0839
1226.00,0.0841
1225.00,0.0842
1224.00,0.0844
1223.00,0.0845
1222.00,0.0846
1221.00,0.0847
1220.00,0.0849
1219.00,0.0851
1218.00,0.0853
1217.00,0.0855
1216.00,0.0857
1215.00,0.0859
1214.00,0.0861
1213.00,0.0862
1212.00,0.0864
1211.00,0.0866
1210.00,0.0867
1209.00,0.0867
1208.00,0.0868
1207.00,0.0870
1206.00,0.0872
1205.00,0.0874
1204.00,0.0877
1203.00,0.0879
1202.00,0.0881
1201.00,0.0882
1200.00,0.0883
1199.00,0.0884
1198.00,0.0886
1197.00,0.0887
1196.00,0.0889
1195.00,0.0891
1194.00,0.0893
1193.00,0.0894
1192.00,0.0896
1191.00,0.0897
1190.00,0.0898
1189.00,0.0898
1188.00,0.0899
1187.00,0.0901
1186.00,0.0902
1185.00,0.0904
1184.00,0.0905
1183.00,0.0906
1182.00,0.0907
1181.00,0.0909
1180.00,0.0910
1179.00,0.0912
1178.00,0.0914
1177.00,0.0914
1176.00,0.0914
1175.00,0.0915
1174.00,0.0915
1173.00,0.0915
1172.00,0.0917
1171.00,0.0919
1170.00,0.0920
1169.00,0.0922
1168.00,0.0924
1167.00,0.0926
1166.00,0.0927
1165.00,0.0928
1164.00,0.0929
1163.00,0.0930
1162.00,0.0930
1161.00,0.0932
1160.00,0.0933
1159.00,0.0935
1158.00,0.0937
1157.00,0.0938
1156.00,0.0940
1155.00,0.0941
1154.00,0.0941
1153.00,0.0942
1152.00,0.0942
1151.00,0.0942
1150.00,0.0942
1149.00,0.0941
1148.00,0.0941
1147.00,0.0942
1146.00,0.0943
1145.00,0.0944
1144.00,0.0946
1143.00,0.0948
1142.00,0.0948
1141.00,0.0949
1140.00,0.0950
1139.00,0.0952
1138.00,0.0953
1137.00,0.0955
1136.00,0.0958
1135.00,0.0960
1134.00,0.0962
1133.00,0.0963
1132.00,0.0965
1131.00,0.0966
1130.00,0.0967
1129.00,0.0968
1128.00,0.0970
1127.00,0.0971
1126.00,0.0971
1125.00,0.0972
1124.00,0.0974
1123.00,0.0975
1122.00,0.0977
1121.00,0.0979
1120.00,0.0981
1119.00,0.0982
1118.00,0.0983
1117.00,0.0985
1116.00,0.0988
1115.00,0.0990
1114.00,0.0992
1113.00,0.0994
1112.00,0.0997
1111.00,0.1000
1110.00,0.1004
1109.00,0.1008
1108.00,0.1012
1107.00,0.1015
1106.00,0.1018
1105.00,0.1021
1104.00,0.1024
1103.00,0.1027
1102.00,0.1030
1101.00,0.1033
1100.00,0.1036
1099.00,0.1039
1098.00,0.1041
1097.00,0.1043
1096.00,0.1044
1095.00,0.1045
1094.00,0.1046
1093.00,0.1048
1092.00,0.1050
1091.00,0.1053
1090.00,0.1056
1089.00,0.1060
1088.00,0.1064
1087.00,0.1067
1086.00,0.1069
1085.00,0.1071
1084.00,0.1073
1083.00,0.1075
1082.00,0.1077
1081.00,0.1080
1080.00,0.1084
1079.00,0.1088
1078.00,0.1092
1077.00,0.1096
1076.00,0.1100
1075.00,0.1104
1074.00,0.1106
1073.00,0.1108
1072.00,0.1110
1071.00,0.1111
1070.00,0.1112
1069.00,0.1113
1068.00,0.1114
1067.00,0.1115
1066.00,0.1116
1065.00,0.1117
1064.00,0.1119
1063.00,0.1121
1062.00,0.1122
1061.00,0.1124
1060.00,0.1127
1059.00,0.1129
1058.00,0.1131
1057.00,0.1133
1056.00,0.1135
1055.00,0.1139
1054.00,0.1142
1053.00,0.1146
1052.00,0.1151
1051.00,0.1154
1050.00,0.1157
1049.00,0.1158
1048.00,0.1160
1047.00,0.1161
1046.00,0.1162
1045.00,0.1163
1044.00,0.1164
1043.00,0.1166
1042.00,0.1166
1041.00,0.1167
1040.00,0.1166
1039.00,0.1165
1038.00,0.1164
1037.00,0.1164
1036.00,0.1164
1035.00,0.1164
1034.00,0.1163
1033.00,0.1162
1032.00,0.1163
1031.00,0.1164
1030.00,0.1165
1029.00,0.1166
1028.00,0.1166
1027.00,0.1167
1026.00,0.1167
1025.00,0.1168
1024.00,0.1169
1023.00,0.1170
1022.00,0.1170
1021.00,0.1171
1020.00,0.1173
1019.00,0.1173
1018.00,0.1173
1017.00,0.1171
1016.00,0.1170
1015.00,0.1168
1014.00,0.1166
1013.00,0.1164
1012.00,0.1163
1011.00,0.1162
1010.00,0.1161
1009.00,0.1160
1008.00,0.1160
1007.00,0.1160
1006.00,0.1158
1005.00,0.1157
1004.00,0.1155
1003.00,0.1153
1002.00,0.1152
1001.00,0.1151
1000.00,0.1150
999.00,0.1148
998.00,0.1146
997.00,0.1144
996.00,0.1142
995.00,0.1141
994.00,0.1139
993.00,0.1137
992.00,0.1135
991.00,0.1133
990.00,0.1130
989.00,0.1126
988.00,0.1124
987.00,0.1121
986.00,0.1120
985.00,0.1118
984.00,0.1117
983.00,0.1114
982.00,0.1112
981.00,0.1109
980.00,0.1106
979.00,0.1102
978.00,0.1099
977.00,0.1096
976.00,0.1094
975.00,0.1092
974.00,0.1089
973.00,0.1086
972.00,0.1083
971.00,0.1080
970.00,0.1076
969.00,0.1073
968.00,0.1070
967.00,0.1067
966.00,0.1065
965.00,0.1063
964.00,0.1061
963.00,0.1059
962.00,0.1056
961.00,0.1053
960.00,0.1051
959.00,0.1049
958.00,0.1046
957.00,0.1043
956.00,0.1041
955.00,0.1039
954.00,0.1037
953.00,0.1036
952.00,0.1035
951.00,0.1035
950.00,0.1034
949.00,0.1035
948.00,0.1035
947.00,0.1034
946.00,0.1033
945.00,0.1032
944.00,0.1029
943.00,0.1026
942.00,0.1023
941.00,0.1021
940.00,0.1020
939.00,0.1018
938.00,0.1016
937.00,0.1014
936.00,0.1011
935.00,0.1008
934.00,0.1004
933.00,0.1001
932.00,0.0998
931.00,0.0996
930.00,0.0996
929.00,0.0996
928.00,0.0997
927.00,0.0998
926.00,0.0999
925.00,0.1001
924.00,0.1001
923.00,0.1001
922.00,0.1001
921.00,0.1000
920.00,0.0999
919.00,0.0998
918.00,0.0998
917.00,0.0998
916.00,0.0997
915.00,0.0995
914.00,0.0992
913.00,0.0989
912.00,0.0986
911.00,0.0985
910.00,0.0983
909.00,0.0981
908.00,0.0980
907.00,0.0979
906.00,0.0977
905.00,0.0976
904.00,0.0975
903.00,0.0973
902.00,0.0971
901.00,0.0971
900.00,0.0972
899.00,0.0975
898.00,0.0978
897.00,0.0982
896.00,0.0984
895.00,0.0986
894.00,0.0987
893.00,0.0988
892.00,0.0988
891.00,0.0987
890.00,0.0986
889.00,0.0984
888.00,0.0983
887.00,0.0981
886.00,0.0979
885.00,0.0975
884.00,0.0970
883.00,0.0965
882.00,0.0960
881.00,0.0955
880.00,0.0952
879.00,0.0949
878.00,0.0947
877.00,0.0944
876.00,0.0942
875.00,0.0941
874.00,0.0941
873.00,0.0943
872.00,0.0946
871.00,0.0951
870.00,0.0956
869.00,0.0960
868.00,0.0964
867.00,0.0965
866.00,0.0964
865.00,0.0963
864.00,0.0961
863.00,0.0960
862.00,0.0960
861.00,0.0959
860.00,0.0959
859.00,0.0958
858.00,0.0956
857.00,0.0952
856.00,0.0947
855.00,0.0941
854.00,0.0935
853.00,0.0930
852.00,0.0927
851.00,0.0925
850.00,0.0924
849.00,0.0923
848.00,0.0922
847.00,0.0922
846.00,0.0923
845.00,0.0926
844.00,0.0931
843.00,0.0937
842.00,0.0943
841.00,0.0949
840.00,0.0955
839.00,0.0960
838.00,0.0963
837.00,0.0965
836.00,0.0967
835.00,0.0968
834.00,0.0969
833.00,0.0969
832.00,0.0969
831.00,0.0969
830.00,0.0968
829.00,0.0968
828.00,0.0966
827.00,0.0962
826.00,0.0957
825.00,0.0952
824.00,0.0948
823.00,0.0946
822.00,0.0945
821.00,0.0945
820.00,0.0945
819.00,0.0945
818.00,0.0947
817.00,0.0952
816.00,0.0960
815.00,0.0970
814.00,0.0980
813.00,0.0989
812.00,0.0996
811.00,0.1000
810.00,0.1002
809.00,0.1003
808.00,0.1005
807.00,0.1007
806.00,0.1008
805.00,0.1009
804.00,0.1009
803.00,0.1008
802.00,0.1006
801.00,0.1004
800.00,0.1001
799.00,0.0999
798.00,0.0996
797.00,0.0993
796.00,0.0991
795.00,0.0989
794.00,0.0988
793.00,0.0988
792.00,0.0989
791.00,0.0992
790.00,0.0996
789.00,0.1000
788.00,0.1005
787.00,0.1011
786.00,0.1016
785.00,0.1020
784.00,0.1023
783.00,0.1025
782.00,0.1026
781.00,0.1028
780.00,0.1030
779.00,0.1031
778.00,0.1031
777.00,0.1030
776.00,0.1029
775.00,0.1027
774.00,0.1025
773.00,0.1022
772.00,0.1019
771.00,0.1016
770.00,0.1013
769.00,0.1012
768.00,0.1012
767.00,0.1012
766.00,0.1011
765.00,0.1010
764.00,0.1009
763.00,0.1009
762.00,0.1010
761.00,0.1013
760.00,0.1018
759.00,0.1025
758.00,0.1032
757.00,0.1039
756.00,0.1043
755.00,0.1046
754.00,0.1045
753.00,0.1043
752.00,0.1041
751.00,0.1040
750.00,0.1039
749.00,0.1039
748.00,0.1039
747.00,0.1039
746.00,0.1038
745.00,0.1035
744.00,0.1032
743.00,0.1029
742.00,0.1026
741.00,0.1022
740.00,0.1019
739.00,0.1017
738.00,0.1017
737.00,0.1019
736.00,0.1023
735.00,0.1029
734.00,0.1035
733.00,0.1042
732.00,0.1051
731.00,0.1059
730.00,0.1064
729.00,0.1064
728.00,0.1062
727.00,0.1058
726.00,0.1054
725.00,0.1051
724.00,0.1050
723.00,0.1050
722.00,0.1051
721.00,0.1051
720.00,0.1050
719.00,0.1047
718.00,0.1045
717.00,0.1045
716.00,0.1047
715.00,0.1050
714.00,0.1053
713.00,0.1055
712.00,0.1057
711.00,0.1056
710.00,0.1054
709.00,0.1053
708.00,0.1053
707.00,0.1055
706.00,0.1057
705.00,0.1061
704.00,0.1065
703.00,0.1069
702.00,0.1072
701.00,0.1075
700.00,0.1078
699.00,0.1081
698.00,0.1083
697.00,0.1084
696.00,0.1085
695.00,0.1086
694.00,0.1087
693.00,0.1087
692.00,0.1086
691.00,0.1083
690.00,0.1079
689.00,0.1075
688.00,0.1073
687.00,0.1074
686.00,0.1076
685.00,0.1079
684.00,0.1080
683.00,0.1077
682.00,0.1073
681.00,0.1072
680.00,0.1074
679.00,0.1080
678.00,0.1088
677.00,0.1098
676.00,0.1110
675.00,0.1120
674.00,0.1125
673.00,0.1124
672.00,0.1119
671.00,0.1109
670.00,0.1095
669.00,0.1080
668.00,0.1072
667.00,0.1077
666.00,0.1086
665.00,0.1086
664.00,0.1079
663.00,0.1072
662.00,0.1067
661.00,0.1065
660.00,0.1068
659.00,0.1079
658.00,0.1095
657.00,0.1111
656.00,0.1124
655.00,0.1132
654.00,0.1137
653.00,0.1142
652.00,0.1147
651.00,0.1151
650.00,0.1152
