Created as New Dataset,Monday, April 03 2023
cm-1,A
4000.00,0.0177
3999.00,0.0178
3998.00,0.0177
3997.00,0.0177
3996.00,0.0177
3995.00,0.0177
3994.00,0.0177
3993.00,0.0177
3992.00,0.0177
3991.00,0.0177
3990.00,0.0176
3989.00,0.0176
3988.00,0.0176
3987.00,0.0176
3986.00,0.0176
3985.00,0.0176
3984.00,0.0176
3983.00,0.0176
3982.00,0.0176
3981.00,0.0176
3980.00,0.0176
3979.00,0.0176
3978.00,0.0177
3977.00,0.0176
3976.00,0.0176
3975.00,0.0176
3974.00,0.0175
3973.00,0.0175
3972.00,0.0176
3971.00,0.0176
3970.00,0.0175
3969.00,0.0175
3968.00,0.0175
3967.00,0.0175
3966.00,0.0175
3965.00,0.0176
3964.00,0.0176
3963.00,0.0176
3962.00,0.0176
3961.00,0.0176
3960.00,0.0176
3959.00,0.0175
3958.00,0.0175
3957.00,0.0175
3956.00,0.0175
3955.00,0.0175
3954.00,0.0175
3953.00,0.0175
3952.00,0.0175
3951.00,0.0175
3950.00,0.0175
3949.00,0.0175
3948.00,0.0175
3947.00,0.0175
3946.00,0.0175
3945.00,0.0175
3944.00,0.0174
3943.00,0.0173
3942.00,0.0173
3941.00,0.0174
3940.00,0.0174
3939.00,0.0175
3938.00,0.0175
3937.00,0.0175
3936.00,0.0175
3935.00,0.0176
3934.00,0.0176
3933.00,0.0176
3932.00,0.0176
3931.00,0.0175
3930.00,0.0174
3929.00,0.0173
3928.00,0.0172
3927.00,0.0172
3926.00,0.0172
3925.00,0.0172
3924.00,0.0172
3923.00,0.0172
3922.00,0.0173
3921.00,0.0174
3920.00,0.0174
3919.00,0.0175
3918.00,0.0175
3917.00,0.0175
3916.00,0.0174
3915.00,0.0174
3914.00,0.0173
3913.00,0.0173
3912.00,0.0173
3911.00,0.0173
3910.00,0.0173
3909.00,0.0173
3908.00,0.0173
3907.00,0.0174
3906.00,0.0175
3905.00,0.0176
3904.00,0.0177
3903.00,0.0178
3902.00,0.0178
3901.00,0.0177
3900.00,0.0175
3899.00,0.0174
3898.00,0.0174
3897.00,0.0174
3896.00,0.0174
3895.00,0.0174
3894.00,0.0173
3893.00,0.0173
3892.00,0.0173
3891.00,0.0173
3890.00,0.0174
3889.00,0.0175
3888.00,0.0175
3887.00,0.0175
3886.00,0.0175
3885.00,0.0174
3884.00,0.0174
3883.00,0.0173
3882.00,0.0172
3881.00,0.0170
3880.00,0.0171
3879.00,0.0172
3878.00,0.0173
3877.00,0.0173
3876.00,0.0172
3875.00,0.0171
3874.00,0.0172
3873.00,0.0172
3872.00,0.0174
3871.00,0.0174
3870.00,0.0174
3869.00,0.0174
3868.00,0.0175
3867.00,0.0176
3866.00,0.0176
3865.00,0.0174
3864.00,0.0173
3863.00,0.0172
3862.00,0.0173
3861.00,0.0174
3860.00,0.0174
3859.00,0.0174
3858.00,0.0173
3857.00,0.0173
3856.00,0.0174
3855.00,0.0175
3854.00,0.0176
3853.00,0.0174
3852.00,0.0172
3851.00,0.0171
3850.00,0.0172
3849.00,0.0172
3848.00,0.0172
3847.00,0.0172
3846.00,0.0172
3845.00,0.0171
3844.00,0.0171
3843.00,0.0172
3842.00,0.0172
3841.00,0.0172
3840.00,0.0172
3839.00,0.0171
3838.00,0.0171
3837.00,0.0171
3836.00,0.0170
3835.00,0.0171
3834.00,0.0171
3833.00,0.0171
3832.00,0.0171
3831.00,0.0172
3830.00,0.0172
3829.00,0.0172
3828.00,0.0171
3827.00,0.0170
3826.00,0.0170
3825.00,0.0171
3824.00,0.0172
3823.00,0.0173
3822.00,0.0173
3821.00,0.0173
3820.00,0.0173
3819.00,0.0173
3818.00,0.0172
3817.00,0.0171
3816.00,0.0169
3815.00,0.0167
3814.00,0.0167
3813.00,0.0168
3812.00,0.0168
3811.00,0.0168
3810.00,0.0168
3809.00,0.0169
3808.00,0.0170
3807.00,0.0171
3806.00,0.0172
3805.00,0.0172
3804.00,0.0172
3803.00,0.0171
3802.00,0.0170
3801.00,0.0169
3800.00,0.0168
3799.00,0.0168
3798.00,0.0168
3797.00,0.0167
3796.00,0.0167
3795.00,0.0167
3794.00,0.0167
3793.00,0.0167
3792.00,0.0166
3791.00,0.0166
3790.00,0.0166
3789.00,0.0166
3788.00,0.0166
3787.00,0.0166
3786.00,0.0165
3785.00,0.0165
3784.00,0.0165
3783.00,0.0165
3782.00,0.0165
3781.00,0.0165
3780.00,0.0164
3779.00,0.0164
3778.00,0.0164
3777.00,0.0165
3776.00,0.0165
3775.00,0.0166
3774.00,0.0166
3773.00,0.0166
3772.00,0.0167
3771.00,0.0168
3770.00,0.0168
3769.00,0.0168
3768.00,0.0167
3767.00,0.0167
3766.00,0.0167
3765.00,0.0167
3764.00,0.0167
3763.00,0.0167
3762.00,0.0167
3761.00,0.0167
3760.00,0.0166
3759.00,0.0166
3758.00,0.0166
3757.00,0.0167
3756.00,0.0168
3755.00,0.0169
3754.00,0.0170
3753.00,0.0172
3752.00,0.0175
3751.00,0.0176
3750.00,0.0177
3749.00,0.0177
3748.00,0.0175
3747.00,0.0173
3746.00,0.0172
3745.00,0.0171
3744.00,0.0170
3743.00,0.0170
3742.00,0.0170
3741.00,0.0171
3740.00,0.0171
3739.00,0.0172
3738.00,0.0172
3737.00,0.0172
3736.00,0.0171
3735.00,0.0170
3734.00,0.0170
3733.00,0.0170
3732.00,0.0170
3731.00,0.0170
3730.00,0.0169
3729.00,0.0169
3728.00,0.0169
3727.00,0.0168
3726.00,0.0167
3725.00,0.0166
3724.00,0.0165
3723.00,0.0164
3722.00,0.0163
3721.00,0.0163
3720.00,0.0163
3719.00,0.0163
3718.00,0.0164
3717.00,0.0165
3716.00,0.0165
3715.00,0.0166
3714.00,0.0167
3713.00,0.0168
3712.00,0.0167
3711.00,0.0167
3710.00,0.0166
3709.00,0.0166
3708.00,0.0167
3707.00,0.0167
3706.00,0.0166
3705.00,0.0165
3704.00,0.0164
3703.00,0.0164
3702.00,0.0163
3701.00,0.0164
3700.00,0.0165
3699.00,0.0166
3698.00,0.0167
3697.00,0.0167
3696.00,0.0167
3695.00,0.0167
3694.00,0.0167
3693.00,0.0168
3692.00,0.0167
3691.00,0.0167
3690.00,0.0167
3689.00,0.0166
3688.00,0.0166
3687.00,0.0167
3686.00,0.0167
3685.00,0.0167
3684.00,0.0167
3683.00,0.0167
3682.00,0.0168
3681.00,0.0167
3680.00,0.0167
3679.00,0.0167
3678.00,0.0168
3677.00,0.0169
3676.00,0.0170
3675.00,0.0171
3674.00,0.0173
3673.00,0.0175
3672.00,0.0176
3671.00,0.0174
3670.00,0.0172
3669.00,0.0171
3668.00,0.0171
3667.00,0.0172
3666.00,0.0173
3665.00,0.0173
3664.00,0.0173
3663.00,0.0174
3662.00,0.0175
3661.00,0.0177
3660.00,0.0178
3659.00,0.0180
3658.00,0.0182
3657.00,0.0184
3656.00,0.0186
3655.00,0.0187
3654.00,0.0187
3653.00,0.0188
3652.00,0.0188
3651.00,0.0191
3650.00,0.0195
3649.00,0.0197
3648.00,0.0196
3647.00,0.0197
3646.00,0.0197
3645.00,0.0198
3644.00,0.0199
3643.00,0.0199
3642.00,0.0199
3641.00,0.0199
3640.00,0.0200
3639.00,0.0202
3638.00,0.0203
3637.00,0.0204
3636.00,0.0205
3635.00,0.0207
3634.00,0.0208
3633.00,0.0210
3632.00,0.0212
3631.00,0.0215
3630.00,0.0219
3629.00,0.0222
3628.00,0.0224
3627.00,0.0225
3626.00,0.0225
3625.00,0.0224
3624.00,0.0223
3623.00,0.0223
3622.00,0.0224
3621.00,0.0225
3620.00,0.0227
3619.00,0.0229
3618.00,0.0230
3617.00,0.0231
3616.00,0.0232
3615.00,0.0232
3614.00,0.0233
3613.00,0.0234
3612.00,0.0236
3611.00,0.0238
3610.00,0.0239
3609.00,0.0239
3608.00,0.0239
3607.00,0.0239
3606.00,0.0240
3605.00,0.0240
3604.00,0.0239
3603.00,0.0239
3602.00,0.0239
3601.00,0.0240
3600.00,0.0241
3599.00,0.0242
3598.00,0.0242
3597.00,0.0242
3596.00,0.0244
3595.00,0.0245
3594.00,0.0247
3593.00,0.0248
3592.00,0.0249
3591.00,0.0250
3590.00,0.0250
3589.00,0.0250
3588.00,0.0251
3587.00,0.0252
3586.00,0.0253
3585.00,0.0254
3584.00,0.0254
3583.00,0.0254
3582.00,0.0254
3581.00,0.0254
3580.00,0.0255
3579.00,0.0256
3578.00,0.0257
3577.00,0.0257
3576.00,0.0257
3575.00,0.0258
3574.00,0.0259
3573.00,0.0259
3572.00,0.0260
3571.00,0.0260
3570.00,0.0260
3569.00,0.0262
3568.00,0.0265
3567.00,0.0268
3566.00,0.0270
3565.00,0.0270
3564.00,0.0270
3563.00,0.0270
3562.00,0.0269
3561.00,0.0269
3560.00,0.0270
3559.00,0.0270
3558.00,0.0271
3557.00,0.0271
3556.00,0.0271
3555.00,0.0272
3554.00,0.0272
3553.00,0.0274
3552.00,0.0275
3551.00,0.0276
3550.00,0.0277
3549.00,0.0278
3548.00,0.0279
3547.00,0.0281
3546.00,0.0283
3545.00,0.0284
3544.00,0.0284
3543.00,0.0284
3542.00,0.0284
3541.00,0.0284
3540.00,0.0284
3539.00,0.0284
3538.00,0.0284
3537.00,0.0285
3536.00,0.0286
3535.00,0.0288
3534.00,0.0288
3533.00,0.0289
3532.00,0.0289
3531.00,0.0289
3530.00,0.0290
3529.00,0.0291
3528.00,0.0292
3527.00,0.0294
3526.00,0.0295
3525.00,0.0295
3524.00,0.0296
3523.00,0.0296
3522.00,0.0297
3521.00,0.0297
3520.00,0.0297
3519.00,0.0298
3518.00,0.0298
3517.00,0.0299
3516.00,0.0300
3515.00,0.0300
3514.00,0.0300
3513.00,0.0301
3512.00,0.0301
3511.00,0.0302
3510.00,0.0304
3509.00,0.0305
3508.00,0.0306
3507.00,0.0307
3506.00,0.0307
3505.00,0.0307
3504.00,0.0308
3503.00,0.0309
3502.00,0.0311
3501.00,0.0311
3500.00,0.0312
3499.00,0.0311
3498.00,0.0312
3497.00,0.0312
3496.00,0.0313
3495.00,0.0314
3494.00,0.0315
3493.00,0.0315
3492.00,0.0315
3491.00,0.0316
3490.00,0.0316
3489.00,0.0317
3488.00,0.0318
3487.00,0.0318
3486.00,0.0319
3485.00,0.0319
3484.00,0.0319
3483.00,0.0320
3482.00,0.0321
3481.00,0.0322
3480.00,0.0323
3479.00,0.0324
3478.00,0.0324
3477.00,0.0325
3476.00,0.0325
3475.00,0.0326
3474.00,0.0326
3473.00,0.0327
3472.00,0.0327
3471.00,0.0327
3470.00,0.0328
3469.00,0.0328
3468.00,0.0329
3467.00,0.0329
3466.00,0.0330
3465.00,0.0330
3464.00,0.0331
3463.00,0.0331
3462.00,0.0332
3461.00,0.0333
3460.00,0.0333
3459.00,0.0334
3458.00,0.0334
3457.00,0.0334
3456.00,0.0335
3455.00,0.0336
3454.00,0.0336
3453.00,0.0337
3452.00,0.0338
3451.00,0.0339
3450.00,0.0339
3449.00,0.0339
3448.00,0.0340
3447.00,0.0341
3446.00,0.0342
3445.00,0.0342
3444.00,0.0343
3443.00,0.0343
3442.00,0.0343
3441.00,0.0343
3440.00,0.0344
3439.00,0.0344
3438.00,0.0345
3437.00,0.0345
3436.00,0.0346
3435.00,0.0346
3434.00,0.0347
3433.00,0.0347
3432.00,0.0348
3431.00,0.0349
3430.00,0.0349
3429.00,0.0350
3428.00,0.0350
3427.00,0.0350
3426.00,0.0351
3425.00,0.0351
3424.00,0.0351
3423.00,0.0352
3422.00,0.0352
3421.00,0.0353
3420.00,0.0354
3419.00,0.0354
3418.00,0.0355
3417.00,0.0355
3416.00,0.0355
3415.00,0.0355
3414.00,0.0355
3413.00,0.0355
3412.00,0.0356
3411.00,0.0356
3410.00,0.0356
3409.00,0.0357
3408.00,0.0357
3407.00,0.0357
3406.00,0.0358
3405.00,0.0358
3404.00,0.0359
3403.00,0.0360
3402.00,0.0360
3401.00,0.0361
3400.00,0.0361
3399.00,0.0360
3398.00,0.0360
3397.00,0.0361
3396.00,0.0362
3395.00,0.0363
3394.00,0.0363
3393.00,0.0364
3392.00,0.0364
3391.00,0.0364
3390.00,0.0364
3389.00,0.0364
3388.00,0.0364
3387.00,0.0365
3386.00,0.0365
3385.00,0.0366
3384.00,0.0366
3383.00,0.0366
3382.00,0.0366
3381.00,0.0366
3380.00,0.0366
3379.00,0.0367
3378.00,0.0367
3377.00,0.0368
3376.00,0.0368
3375.00,0.0368
3374.00,0.0369
3373.00,0.0369
3372.00,0.0369
3371.00,0.0368
3370.00,0.0368
3369.00,0.0368
3368.00,0.0369
3367.00,0.0369
3366.00,0.0370
3365.00,0.0371
3364.00,0.0371
3363.00,0.0372
3362.00,0.0372
3361.00,0.0372
3360.00,0.0372
3359.00,0.0372
3358.00,0.0372
3357.00,0.0372
3356.00,0.0373
3355.00,0.0373
3354.00,0.0373
3353.00,0.0373
3352.00,0.0373
3351.00,0.0374
3350.00,0.0374
3349.00,0.0374
3348.00,0.0374
3347.00,0.0373
3346.00,0.0373
3345.00,0.0373
3344.00,0.0373
3343.00,0.0373
3342.00,0.0374
3341.00,0.0374
3340.00,0.0374
3339.00,0.0374
3338.00,0.0374
3337.00,0.0374
3336.00,0.0375
3335.00,0.0375
3334.00,0.0375
3333.00,0.0374
3332.00,0.0374
3331.00,0.0374
3330.00,0.0374
3329.00,0.0374
3328.00,0.0374
3327.00,0.0374
3326.00,0.0374
3325.00,0.0374
3324.00,0.0374
3323.00,0.0374
3322.00,0.0374
3321.00,0.0374
3320.00,0.0374
3319.00,0.0374
3318.00,0.0374
3317.00,0.0375
3316.00,0.0374
3315.00,0.0374
3314.00,0.0374
3313.00,0.0374
3312.00,0.0374
3311.00,0.0374
3310.00,0.0374
3309.00,0.0374
3308.00,0.0374
3307.00,0.0374
3306.00,0.0374
3305.00,0.0374
3304.00,0.0374
3303.00,0.0374
3302.00,0.0374
3301.00,0.0374
3300.00,0.0375
3299.00,0.0375
3298.00,0.0374
3297.00,0.0374
3296.00,0.0374
3295.00,0.0374
3294.00,0.0375
3293.00,0.0375
3292.00,0.0375
3291.00,0.0375
3290.00,0.0374
3289.00,0.0374
3288.00,0.0374
3287.00,0.0374
3286.00,0.0375
3285.00,0.0375
3284.00,0.0375
3283.00,0.0375
3282.00,0.0374
3281.00,0.0374
3280.00,0.0375
3279.00,0.0375
3278.00,0.0375
3277.00,0.0376
3276.00,0.0375
3275.00,0.0375
3274.00,0.0375
3273.00,0.0375
3272.00,0.0375
3271.00,0.0375
3270.00,0.0375
3269.00,0.0375
3268.00,0.0375
3267.00,0.0375
3266.00,0.0374
3265.00,0.0374
3264.00,0.0374
3263.00,0.0374
3262.00,0.0374
3261.00,0.0374
3260.00,0.0374
3259.00,0.0373
3258.00,0.0373
3257.00,0.0373
3256.00,0.0374
3255.00,0.0374
3254.00,0.0375
3253.00,0.0375
3252.00,0.0375
3251.00,0.0374
3250.00,0.0374
3249.00,0.0374
3248.00,0.0374
3247.00,0.0374
3246.00,0.0375
3245.00,0.0375
3244.00,0.0374
3243.00,0.0374
3242.00,0.0374
3241.00,0.0374
3240.00,0.0374
3239.00,0.0374
3238.00,0.0374
3237.00,0.0375
3236.00,0.0375
3235.00,0.0374
3234.00,0.0374
3233.00,0.0374
3232.00,0.0374
3231.00,0.0374
3230.00,0.0374
3229.00,0.0374
3228.00,0.0374
3227.00,0.0374
3226.00,0.0374
3225.00,0.0373
3224.00,0.0373
3223.00,0.0373
3222.00,0.0373
3221.00,0.0374
3220.00,0.0374
3219.00,0.0374
3218.00,0.0373
3217.00,0.0373
3216.00,0.0372
3215.00,0.0372
3214.00,0.0373
3213.00,0.0373
3212.00,0.0373
3211.00,0.0373
3210.00,0.0372
3209.00,0.0372
3208.00,0.0372
3207.00,0.0372
3206.00,0.0372
3205.00,0.0372
3204.00,0.0372
3203.00,0.0372
3202.00,0.0372
3201.00,0.0372
3200.00,0.0372
3199.00,0.0372
3198.00,0.0372
3197.00,0.0372
3196.00,0.0372
3195.00,0.0371
3194.00,0.0371
3193.00,0.0370
3192.00,0.0370
3191.00,0.0370
3190.00,0.0370
3189.00,0.0370
3188.00,0.0370
3187.00,0.0370
3186.00,0.0371
3185.00,0.0370
3184.00,0.0370
3183.00,0.0370
3182.00,0.0369
3181.00,0.0369
3180.00,0.0368
3179.00,0.0368
3178.00,0.0368
3177.00,0.0368
3176.00,0.0368
3175.00,0.0368
3174.00,0.0368
3173.00,0.0368
3172.00,0.0368
3171.00,0.0367
3170.00,0.0367
3169.00,0.0366
3168.00,0.0366
3167.00,0.0366
3166.00,0.0366
3165.00,0.0366
3164.00,0.0366
3163.00,0.0365
3162.00,0.0365
3161.00,0.0365
3160.00,0.0365
3159.00,0.0365
3158.00,0.0364
3157.00,0.0364
3156.00,0.0363
3155.00,0.0363
3154.00,0.0363
3153.00,0.0363
3152.00,0.0363
3151.00,0.0363
3150.00,0.0363
3149.00,0.0363
3148.00,0.0363
3147.00,0.0363
3146.00,0.0362
3145.00,0.0362
3144.00,0.0362
3143.00,0.0361
3142.00,0.0361
3141.00,0.0361
3140.00,0.0361
3139.00,0.0361
3138.00,0.0361
3137.00,0.0361
3136.00,0.0361
3135.00,0.0360
3134.00,0.0360
3133.00,0.0360
3132.00,0.0360
3131.00,0.0359
3130.00,0.0359
3129.00,0.0359
3128.00,0.0359
3127.00,0.0359
3126.00,0.0358
3125.00,0.0358
3124.00,0.0358
3123.00,0.0357
3122.00,0.0357
3121.00,0.0357
3120.00,0.0357
3119.00,0.0357
3118.00,0.0358
3117.00,0.0357
3116.00,0.0357
3115.00,0.0357
3114.00,0.0356
3113.00,0.0356
3112.00,0.0356
3111.00,0.0355
3110.00,0.0355
3109.00,0.0354
3108.00,0.0354
3107.00,0.0354
3106.00,0.0354
3105.00,0.0354
3104.00,0.0354
3103.00,0.0354
3102.00,0.0353
3101.00,0.0353
3100.00,0.0353
3099.00,0.0352
3098.00,0.0352
3097.00,0.0352
3096.00,0.0352
3095.00,0.0352
3094.00,0.0352
3093.00,0.0353
3092.00,0.0353
3091.00,0.0353
3090.00,0.0353
3089.00,0.0353
3088.00,0.0352
3087.00,0.0352
3086.00,0.0351
3085.00,0.0351
3084.00,0.0351
3083.00,0.0350
3082.00,0.0350
3081.00,0.0350
3080.00,0.0350
3079.00,0.0350
3078.00,0.0350
3077.00,0.0349
3076.00,0.0349
3075.00,0.0349
3074.00,0.0348
3073.00,0.0348
3072.00,0.0347
3071.00,0.0347
3070.00,0.0347
3069.00,0.0346
3068.00,0.0346
3067.00,0.0346
3066.00,0.0346
3065.00,0.0346
3064.00,0.0346
3063.00,0.0346
3062.00,0.0345
3061.00,0.0345
3060.00,0.0345
3059.00,0.0344
3058.00,0.0344
3057.00,0.0344
3056.00,0.0344
3055.00,0.0344
3054.00,0.0344
3053.00,0.0343
3052.00,0.0342
3051.00,0.0342
3050.00,0.0342
3049.00,0.0342
3048.00,0.0341
3047.00,0.0341
3046.00,0.0341
3045.00,0.0341
3044.00,0.0341
3043.00,0.0340
3042.00,0.0340
3041.00,0.0339
3040.00,0.0339
3039.00,0.0338
3038.00,0.0338
3037.00,0.0337
3036.00,0.0337
3035.00,0.0337
3034.00,0.0336
3033.00,0.0336
3032.00,0.0335
3031.00,0.0335
3030.00,0.0334
3029.00,0.0334
3028.00,0.0333
3027.00,0.0333
3026.00,0.0333
3025.00,0.0333
3024.00,0.0333
3023.00,0.0332
3022.00,0.0332
3021.00,0.0331
3020.00,0.0331
3019.00,0.0330
3018.00,0.0330
3017.00,0.0330
3016.00,0.0330
3015.00,0.0330
3014.00,0.0330
3013.00,0.0329
3012.00,0.0329
3011.00,0.0328
3010.00,0.0328
3009.00,0.0327
3008.00,0.0326
3007.00,0.0326
3006.00,0.0325
3005.00,0.0325
3004.00,0.0325
3003.00,0.0324
3002.00,0.0324
3001.00,0.0323
3000.00,0.0323
2999.00,0.0322
2998.00,0.0322
2997.00,0.0321
2996.00,0.0321
2995.00,0.0321
2994.00,0.0321
2993.00,0.0321
2992.00,0.0320
2991.00,0.0320
2990.00,0.0319
2989.00,0.0319
2988.00,0.0319
2987.00,0.0318
2986.00,0.0318
2985.00,0.0317
2984.00,0.0316
2983.00,0.0315
2982.00,0.0314
2981.00,0.0313
2980.00,0.0313
2979.00,0.0313
2978.00,0.0313
2977.00,0.0313
2976.00,0.0313
2975.00,0.0313
2974.00,0.0313
2973.00,0.0313
2972.00,0.0312
2971.00,0.0312
2970.00,0.0311
2969.00,0.0311
2968.00,0.0311
2967.00,0.0311
2966.00,0.0310
2965.00,0.0310
2964.00,0.0310
2963.00,0.0310
2962.00,0.0309
2961.00,0.0308
2960.00,0.0308
2959.00,0.0308
2958.00,0.0307
2957.00,0.0307
2956.00,0.0307
2955.00,0.0307
2954.00,0.0307
2953.00,0.0307
2952.00,0.0307
2951.00,0.0307
2950.00,0.0307
2949.00,0.0307
2948.00,0.0307
2947.00,0.0307
2946.00,0.0307
2945.00,0.0306
2944.00,0.0306
2943.00,0.0305
2942.00,0.0304
2941.00,0.0304
2940.00,0.0303
2939.00,0.0302
2938.00,0.0302
2937.00,0.0301
2936.00,0.0300
2935.00,0.0299
2934.00,0.0298
2933.00,0.0297
2932.00,0.0296
2931.00,0.0295
2930.00,0.0294
2929.00,0.0293
2928.00,0.0292
2927.00,0.0292
2926.00,0.0291
2925.00,0.0291
2924.00,0.0291
2923.00,0.0291
2922.00,0.0291
2921.00,0.0291
2920.00,0.0292
2919.00,0.0292
2918.00,0.0292
2917.00,0.0292
2916.00,0.0292
2915.00,0.0292
2914.00,0.0293
2913.00,0.0294
2912.00,0.0294
2911.00,0.0295
2910.00,0.0295
2909.00,0.0295
2908.00,0.0295
2907.00,0.0296
2906.00,0.0296
2905.00,0.0296
2904.00,0.0296
2903.00,0.0296
2902.00,0.0296
2901.00,0.0296
2900.00,0.0296
2899.00,0.0296
2898.00,0.0296
2897.00,0.0296
2896.00,0.0296
2895.00,0.0296
2894.00,0.0295
2893.00,0.0295
2892.00,0.0295
2891.00,0.0296
2890.00,0.0296
2889.00,0.0296
2888.00,0.0296
2887.00,0.0296
2886.00,0.0295
2885.00,0.0295
2884.00,0.0295
2883.00,0.0295
2882.00,0.0294
2881.00,0.0294
2880.00,0.0294
2879.00,0.0294
2878.00,0.0294
2877.00,0.0293
2876.00,0.0293
2875.00,0.0293
2874.00,0.0292
2873.00,0.0292
2872.00,0.0291
2871.00,0.0290
2870.00,0.0290
2869.00,0.0289
2868.00,0.0288
2867.00,0.0288
2866.00,0.0288
2865.00,0.0287
2864.00,0.0286
2863.00,0.0286
2862.00,0.0285
2861.00,0.0285
2860.00,0.0284
2859.00,0.0283
2858.00,0.0282
2857.00,0.0281
2856.00,0.0280
2855.00,0.0280
2854.00,0.0279
2853.00,0.0279
2852.00,0.0279
2851.00,0.0280
2850.00,0.0280
2849.00,0.0281
2848.00,0.0281
2847.00,0.0282
2846.00,0.0282
2845.00,0.0283
2844.00,0.0283
2843.00,0.0284
2842.00,0.0284
2841.00,0.0284
2840.00,0.0284
2839.00,0.0284
2838.00,0.0284
2837.00,0.0284
2836.00,0.0283
2835.00,0.0283
2834.00,0.0283
2833.00,0.0283
2832.00,0.0283
2831.00,0.0283
2830.00,0.0282
2829.00,0.0282
2828.00,0.0282
2827.00,0.0282
2826.00,0.0282
2825.00,0.0281
2824.00,0.0281
2823.00,0.0281
2822.00,0.0282
2821.00,0.0282
2820.00,0.0282
2819.00,0.0281
2818.00,0.0281
2817.00,0.0281
2816.00,0.0280
2815.00,0.0280
2814.00,0.0280
2813.00,0.0279
2812.00,0.0279
2811.00,0.0279
2810.00,0.0279
2809.00,0.0279
2808.00,0.0278
2807.00,0.0278
2806.00,0.0277
2805.00,0.0277
2804.00,0.0277
2803.00,0.0277
2802.00,0.0277
2801.00,0.0277
2800.00,0.0277
2799.00,0.0276
2798.00,0.0276
2797.00,0.0276
2796.00,0.0276
2795.00,0.0275
2794.00,0.0275
2793.00,0.0275
2792.00,0.0274
2791.00,0.0274
2790.00,0.0274
2789.00,0.0274
2788.00,0.0274
2787.00,0.0274
2786.00,0.0274
2785.00,0.0274
2784.00,0.0273
2783.00,0.0273
2782.00,0.0273
2781.00,0.0272
2780.00,0.0272
2779.00,0.0271
2778.00,0.0271
2777.00,0.0271
2776.00,0.0271
2775.00,0.0271
2774.00,0.0271
2773.00,0.0271
2772.00,0.0270
2771.00,0.0270
2770.00,0.0270
2769.00,0.0270
2768.00,0.0270
2767.00,0.0270
2766.00,0.0270
2765.00,0.0269
2764.00,0.0269
2763.00,0.0269
2762.00,0.0269
2761.00,0.0269
2760.00,0.0269
2759.00,0.0268
2758.00,0.0268
2757.00,0.0268
2756.00,0.0268
2755.00,0.0267
2754.00,0.0267
2753.00,0.0267
2752.00,0.0267
2751.00,0.0267
2750.00,0.0266
2749.00,0.0266
2748.00,0.0266
2747.00,0.0266
2746.00,0.0266
2745.00,0.0265
2744.00,0.0265
2743.00,0.0265
2742.00,0.0265
2741.00,0.0265
2740.00,0.0265
2739.00,0.0264
2738.00,0.0264
2737.00,0.0264
2736.00,0.0264
2735.00,0.0263
2734.00,0.0263
2733.00,0.0263
2732.00,0.0263
2731.00,0.0263
2730.00,0.0262
2729.00,0.0262
2728.00,0.0262
2727.00,0.0262
2726.00,0.0262
2725.00,0.0261
2724.00,0.0261
2723.00,0.0261
2722.00,0.0261
2721.00,0.0261
2720.00,0.0261
2719.00,0.0261
2718.00,0.0261
2717.00,0.0261
2716.00,0.0261
2715.00,0.0261
2714.00,0.0261
2713.00,0.0260
2712.00,0.0260
2711.00,0.0260
2710.00,0.0259
2709.00,0.0259
2708.00,0.0258
2707.00,0.0258
2706.00,0.0258
2705.00,0.0258
2704.00,0.0258
2703.00,0.0257
2702.00,0.0257
2701.00,0.0257
2700.00,0.0257
2699.00,0.0257
2698.00,0.0257
2697.00,0.0257
2696.00,0.0257
2695.00,0.0257
2694.00,0.0257
2693.00,0.0257
2692.00,0.0256
2691.00,0.0256
2690.00,0.0256
2689.00,0.0256
2688.00,0.0256
2687.00,0.0256
2686.00,0.0256
2685.00,0.0255
2684.00,0.0255
2683.00,0.0255
2682.00,0.0255
2681.00,0.0255
2680.00,0.0254
2679.00,0.0254
2678.00,0.0254
2677.00,0.0254
2676.00,0.0254
2675.00,0.0254
2674.00,0.0254
2673.00,0.0254
2672.00,0.0253
2671.00,0.0253
2670.00,0.0253
2669.00,0.0253
2668.00,0.0253
2667.00,0.0253
2666.00,0.0253
2665.00,0.0254
2664.00,0.0254
2663.00,0.0254
2662.00,0.0254
2661.00,0.0254
2660.00,0.0254
2659.00,0.0254
2658.00,0.0254
2657.00,0.0254
2656.00,0.0254
2655.00,0.0255
2654.00,0.0255
2653.00,0.0255
2652.00,0.0255
2651.00,0.0255
2650.00,0.0254
2649.00,0.0254
2648.00,0.0254
2647.00,0.0255
2646.00,0.0255
2645.00,0.0254
2644.00,0.0254
2643.00,0.0254
2642.00,0.0254
2641.00,0.0254
2640.00,0.0254
2639.00,0.0254
2638.00,0.0254
2637.00,0.0254
2636.00,0.0254
2635.00,0.0255
2634.00,0.0255
2633.00,0.0255
2632.00,0.0255
2631.00,0.0254
2630.00,0.0254
2629.00,0.0255
2628.00,0.0255
2627.00,0.0255
2626.00,0.0254
2625.00,0.0254
2624.00,0.0254
2623.00,0.0254
2622.00,0.0254
2621.00,0.0254
2620.00,0.0254
2619.00,0.0254
2618.00,0.0254
2617.00,0.0253
2616.00,0.0253
2615.00,0.0253
2614.00,0.0253
2613.00,0.0253
2612.00,0.0253
2611.00,0.0253
2610.00,0.0253
2609.00,0.0253
2608.00,0.0253
2607.00,0.0254
2606.00,0.0254
2605.00,0.0254
2604.00,0.0254
2603.00,0.0254
2602.00,0.0254
2601.00,0.0254
2600.00,0.0253
2599.00,0.0253
2598.00,0.0253
2597.00,0.0253
2596.00,0.0252
2595.00,0.0252
2594.00,0.0252
2593.00,0.0252
2592.00,0.0253
2591.00,0.0253
2590.00,0.0253
2589.00,0.0252
2588.00,0.0252
2587.00,0.0252
2586.00,0.0251
2585.00,0.0251
2584.00,0.0252
2583.00,0.0252
2582.00,0.0252
2581.00,0.0252
2580.00,0.0252
2579.00,0.0252
2578.00,0.0252
2577.00,0.0252
2576.00,0.0251
2575.00,0.0251
2574.00,0.0251
2573.00,0.0251
2572.00,0.0251
2571.00,0.0251
2570.00,0.0251
2569.00,0.0251
2568.00,0.0251
2567.00,0.0251
2566.00,0.0252
2565.00,0.0251
2564.00,0.0251
2563.00,0.0251
2562.00,0.0250
2561.00,0.0250
2560.00,0.0249
2559.00,0.0249
2558.00,0.0249
2557.00,0.0249
2556.00,0.0250
2555.00,0.0250
2554.00,0.0250
2553.00,0.0250
2552.00,0.0250
2551.00,0.0250
2550.00,0.0250
2549.00,0.0250
2548.00,0.0249
2547.00,0.0249
2546.00,0.0249
2545.00,0.0248
2544.00,0.0248
2543.00,0.0248
2542.00,0.0248
2541.00,0.0248
2540.00,0.0248
2539.00,0.0249
2538.00,0.0249
2537.00,0.0248
2536.00,0.0248
2535.00,0.0247
2534.00,0.0247
2533.00,0.0247
2532.00,0.0247
2531.00,0.0247
2530.00,0.0247
2529.00,0.0246
2528.00,0.0246
2527.00,0.0247
2526.00,0.0247
2525.00,0.0247
2524.00,0.0247
2523.00,0.0247
2522.00,0.0247
2521.00,0.0247
2520.00,0.0247
2519.00,0.0246
2518.00,0.0246
2517.00,0.0246
2516.00,0.0246
2515.00,0.0247
2514.00,0.0247
2513.00,0.0247
2512.00,0.0247
2511.00,0.0247
2510.00,0.0246
2509.00,0.0245
2508.00,0.0244
2507.00,0.0244
2506.00,0.0244
2505.00,0.0244
2504.00,0.0244
2503.00,0.0245
2502.00,0.0245
2501.00,0.0244
2500.00,0.0244
2499.00,0.0243
2498.00,0.0243
2497.00,0.0243
2496.00,0.0244
2495.00,0.0244
2494.00,0.0244
2493.00,0.0244
2492.00,0.0244
2491.00,0.0244
2490.00,0.0244
2489.00,0.0244
2488.00,0.0244
2487.00,0.0243
2486.00,0.0243
2485.00,0.0243
2484.00,0.0242
2483.00,0.0242
2482.00,0.0242
2481.00,0.0242
2480.00,0.0243
2479.00,0.0243
2478.00,0.0243
2477.00,0.0242
2476.00,0.0242
2475.00,0.0242
2474.00,0.0242
2473.00,0.0241
2472.00,0.0241
2471.00,0.0241
2470.00,0.0240
2469.00,0.0240
2468.00,0.0240
2467.00,0.0240
2466.00,0.0240
2465.00,0.0240
2464.00,0.0240
2463.00,0.0240
2462.00,0.0241
2461.00,0.0241
2460.00,0.0242
2459.00,0.0242
2458.00,0.0241
2457.00,0.0241
2456.00,0.0241
2455.00,0.0241
2454.00,0.0241
2453.00,0.0241
2452.00,0.0241
2451.00,0.0241
2450.00,0.0241
2449.00,0.0240
2448.00,0.0240
2447.00,0.0239
2446.00,0.0239
2445.00,0.0239
2444.00,0.0239
2443.00,0.0239
2442.00,0.0239
2441.00,0.0239
2440.00,0.0238
2439.00,0.0238
2438.00,0.0238
2437.00,0.0238
2436.00,0.0237
2435.00,0.0237
2434.00,0.0238
2433.00,0.0237
2432.00,0.0237
2431.00,0.0237
2430.00,0.0236
2429.00,0.0236
2428.00,0.0236
2427.00,0.0236
2426.00,0.0237
2425.00,0.0237
2424.00,0.0236
2423.00,0.0236
2422.00,0.0236
2421.00,0.0236
2420.00,0.0235
2419.00,0.0235
2418.00,0.0235
2417.00,0.0235
2416.00,0.0234
2415.00,0.0234
2414.00,0.0234
2413.00,0.0234
2412.00,0.0233
2411.00,0.0232
2410.00,0.0232
2409.00,0.0231
2408.00,0.0231
2407.00,0.0232
2406.00,0.0232
2405.00,0.0232
2404.00,0.0231
2403.00,0.0231
2402.00,0.0231
2401.00,0.0231
2400.00,0.0230
2399.00,0.0230
2398.00,0.0230
2397.00,0.0230
2396.00,0.0230
2395.00,0.0230
2394.00,0.0230
2393.00,0.0230
2392.00,0.0229
2391.00,0.0229
2390.00,0.0229
2389.00,0.0228
2388.00,0.0228
2387.00,0.0227
2386.00,0.0227
2385.00,0.0226
2384.00,0.0226
2383.00,0.0226
2382.00,0.0225
2381.00,0.0223
2380.00,0.0221
2379.00,0.0219
2378.00,0.0217
2377.00,0.0215
2376.00,0.0213
2375.00,0.0212
2374.00,0.0211
2373.00,0.0210
2372.00,0.0210
2371.00,0.0210
2370.00,0.0211
2369.00,0.0211
2368.00,0.0212
2367.00,0.0211
2366.00,0.0210
2365.00,0.0210
2364.00,0.0209
2363.00,0.0209
2362.00,0.0209
2361.00,0.0210
2360.00,0.0211
2359.00,0.0212
2358.00,0.0212
2357.00,0.0213
2356.00,0.0215
2355.00,0.0217
2354.00,0.0218
2353.00,0.0220
2352.00,0.0221
2351.00,0.0220
2350.00,0.0217
2349.00,0.0213
2348.00,0.0211
2347.00,0.0211
2346.00,0.0213
2345.00,0.0215
2344.00,0.0215
2343.00,0.0213
2342.00,0.0212
2341.00,0.0212
2340.00,0.0212
2339.00,0.0213
2338.00,0.0213
2337.00,0.0214
2336.00,0.0214
2335.00,0.0214
2334.00,0.0213
2333.00,0.0213
2332.00,0.0212
2331.00,0.0212
2330.00,0.0212
2329.00,0.0213
2328.00,0.0215
2327.00,0.0216
2326.00,0.0218
2325.00,0.0218
2324.00,0.0218
2323.00,0.0218
2322.00,0.0217
2321.00,0.0217
2320.00,0.0217
2319.00,0.0217
2318.00,0.0217
2317.00,0.0217
2316.00,0.0217
2315.00,0.0217
2314.00,0.0217
2313.00,0.0216
2312.00,0.0216
2311.00,0.0215
2310.00,0.0216
2309.00,0.0216
2308.00,0.0217
2307.00,0.0217
2306.00,0.0217
2305.00,0.0218
2304.00,0.0218
2303.00,0.0218
2302.00,0.0218
2301.00,0.0218
2300.00,0.0218
2299.00,0.0218
2298.00,0.0218
2297.00,0.0218
2296.00,0.0219
2295.00,0.0219
2294.00,0.0220
2293.00,0.0221
2292.00,0.0222
2291.00,0.0223
2290.00,0.0224
2289.00,0.0225
2288.00,0.0226
2287.00,0.0226
2286.00,0.0226
2285.00,0.0225
2284.00,0.0224
2283.00,0.0223
2282.00,0.0223
2281.00,0.0224
2280.00,0.0224
2279.00,0.0223
2278.00,0.0222
2277.00,0.0222
2276.00,0.0221
2275.00,0.0221
2274.00,0.0222
2273.00,0.0222
2272.00,0.0222
2271.00,0.0222
2270.00,0.0223
2269.00,0.0223
2268.00,0.0223
2267.00,0.0223
2266.00,0.0223
2265.00,0.0223
2264.00,0.0222
2263.00,0.0221
2262.00,0.0221
2261.00,0.0222
2260.00,0.0223
2259.00,0.0224
2258.00,0.0224
2257.00,0.0223
2256.00,0.0222
2255.00,0.0221
2254.00,0.0220
2253.00,0.0220
2252.00,0.0220
2251.00,0.0221
2250.00,0.0221
2249.00,0.0222
2248.00,0.0222
2247.00,0.0222
2246.00,0.0221
2245.00,0.0221
2244.00,0.0221
2243.00,0.0221
2242.00,0.0221
2241.00,0.0221
2240.00,0.0221
2239.00,0.0222
2238.00,0.0222
2237.00,0.0222
2236.00,0.0222
2235.00,0.0222
2234.00,0.0222
2233.00,0.0222
2232.00,0.0222
2231.00,0.0222
2230.00,0.0223
2229.00,0.0223
2228.00,0.0222
2227.00,0.0221
2226.00,0.0220
2225.00,0.0220
2224.00,0.0220
2223.00,0.0220
2222.00,0.0221
2221.00,0.0221
2220.00,0.0221
2219.00,0.0220
2218.00,0.0220
2217.00,0.0220
2216.00,0.0220
2215.00,0.0221
2214.00,0.0223
2213.00,0.0223
2212.00,0.0223
2211.00,0.0221
2210.00,0.0219
2209.00,0.0218
2208.00,0.0218
2207.00,0.0218
2206.00,0.0217
2205.00,0.0217
2204.00,0.0217
2203.00,0.0218
2202.00,0.0219
2201.00,0.0220
2200.00,0.0221
2199.00,0.0222
2198.00,0.0222
2197.00,0.0221
2196.00,0.0220
2195.00,0.0219
2194.00,0.0219
2193.00,0.0220
2192.00,0.0220
2191.00,0.0219
2190.00,0.0218
2189.00,0.0218
2188.00,0.0220
2187.00,0.0222
2186.00,0.0223
2185.00,0.0223
2184.00,0.0220
2183.00,0.0217
2182.00,0.0216
2181.00,0.0216
2180.00,0.0217
2179.00,0.0218
2178.00,0.0218
2177.00,0.0216
2176.00,0.0215
2175.00,0.0214
2174.00,0.0215
2173.00,0.0216
2172.00,0.0217
2171.00,0.0218
2170.00,0.0220
2169.00,0.0222
2168.00,0.0224
2167.00,0.0225
2166.00,0.0226
2165.00,0.0227
2164.00,0.0227
2163.00,0.0225
2162.00,0.0221
2161.00,0.0215
2160.00,0.0208
2159.00,0.0204
2158.00,0.0204
2157.00,0.0204
2156.00,0.0205
2155.00,0.0205
2154.00,0.0205
2153.00,0.0206
2152.00,0.0206
2151.00,0.0206
2150.00,0.0204
2149.00,0.0203
2148.00,0.0203
2147.00,0.0203
2146.00,0.0204
2145.00,0.0204
2144.00,0.0204
2143.00,0.0203
2142.00,0.0203
2141.00,0.0202
2140.00,0.0200
2139.00,0.0199
2138.00,0.0199
2137.00,0.0198
2136.00,0.0198
2135.00,0.0197
2134.00,0.0196
2133.00,0.0195
2132.00,0.0195
2131.00,0.0195
2130.00,0.0196
2129.00,0.0197
2128.00,0.0197
2127.00,0.0197
2126.00,0.0197
2125.00,0.0197
2124.00,0.0197
2123.00,0.0197
2122.00,0.0197
2121.00,0.0197
2120.00,0.0198
2119.00,0.0200
2118.00,0.0201
2117.00,0.0202
2116.00,0.0202
2115.00,0.0201
2114.00,0.0200
2113.00,0.0200
2112.00,0.0200
2111.00,0.0201
2110.00,0.0201
2109.00,0.0201
2108.00,0.0200
2107.00,0.0199
2106.00,0.0198
2105.00,0.0198
2104.00,0.0198
2103.00,0.0198
2102.00,0.0198
2101.00,0.0198
2100.00,0.0197
2099.00,0.0197
2098.00,0.0196
2097.00,0.0196
2096.00,0.0196
2095.00,0.0195
2094.00,0.0194
2093.00,0.0194
2092.00,0.0194
2091.00,0.0194
2090.00,0.0194
2089.00,0.0194
2088.00,0.0194
2087.00,0.0195
2086.00,0.0195
2085.00,0.0195
2084.00,0.0195
2083.00,0.0195
2082.00,0.0194
2081.00,0.0194
2080.00,0.0193
2079.00,0.0193
2078.00,0.0194
2077.00,0.0194
2076.00,0.0194
2075.00,0.0194
2074.00,0.0193
2073.00,0.0193
2072.00,0.0193
2071.00,0.0194
2070.00,0.0196
2069.00,0.0196
2068.00,0.0196
2067.00,0.0194
2066.00,0.0192
2065.00,0.0190
2064.00,0.0189
2063.00,0.0189
2062.00,0.0189
2061.00,0.0189
2060.00,0.0190
2059.00,0.0190
2058.00,0.0189
2057.00,0.0190
2056.00,0.0190
2055.00,0.0191
2054.00,0.0192
2053.00,0.0194
2052.00,0.0195
2051.00,0.0195
2050.00,0.0194
2049.00,0.0194
2048.00,0.0193
2047.00,0.0193
2046.00,0.0194
2045.00,0.0195
2044.00,0.0195
2043.00,0.0194
2042.00,0.0193
2041.00,0.0192
2040.00,0.0193
2039.00,0.0194
2038.00,0.0196
2037.00,0.0198
2036.00,0.0199
2035.00,0.0199
2034.00,0.0197
2033.00,0.0195
2032.00,0.0193
2031.00,0.0191
2030.00,0.0191
2029.00,0.0191
2028.00,0.0191
2027.00,0.0189
2026.00,0.0187
2025.00,0.0186
2024.00,0.0185
2023.00,0.0185
2022.00,0.0185
2021.00,0.0186
2020.00,0.0187
2019.00,0.0188
2018.00,0.0188
2017.00,0.0188
2016.00,0.0187
2015.00,0.0187
2014.00,0.0187
2013.00,0.0188
2012.00,0.0189
2011.00,0.0189
2010.00,0.0188
2009.00,0.0186
2008.00,0.0184
2007.00,0.0181
2006.00,0.0180
2005.00,0.0180
2004.00,0.0181
2003.00,0.0181
2002.00,0.0181
2001.00,0.0182
2000.00,0.0182
1999.00,0.0183
1998.00,0.0184
1997.00,0.0185
1996.00,0.0185
1995.00,0.0186
1994.00,0.0186
1993.00,0.0185
1992.00,0.0184
1991.00,0.0183
1990.00,0.0183
1989.00,0.0182
1988.00,0.0181
1987.00,0.0180
1986.00,0.0181
1985.00,0.0183
1984.00,0.0185
1983.00,0.0186
1982.00,0.0187
1981.00,0.0188
1980.00,0.0187
1979.00,0.0185
1978.00,0.0182
1977.00,0.0180
1976.00,0.0179
1975.00,0.0178
1974.00,0.0178
1973.00,0.0178
1972.00,0.0179
1971.00,0.0179
1970.00,0.0179
1969.00,0.0178
1968.00,0.0176
1967.00,0.0174
1966.00,0.0172
1965.00,0.0172
1964.00,0.0172
1963.00,0.0173
1962.00,0.0172
1961.00,0.0172
1960.00,0.0171
1959.00,0.0170
1958.00,0.0168
1957.00,0.0168
1956.00,0.0167
1955.00,0.0168
1954.00,0.0168
1953.00,0.0168
1952.00,0.0167
1951.00,0.0165
1950.00,0.0165
1949.00,0.0165
1948.00,0.0165
1947.00,0.0165
1946.00,0.0166
1945.00,0.0166
1944.00,0.0165
1943.00,0.0163
1942.00,0.0161
1941.00,0.0159
1940.00,0.0158
1939.00,0.0158
1938.00,0.0158
1937.00,0.0159
1936.00,0.0160
1935.00,0.0161
1934.00,0.0160
1933.00,0.0160
1932.00,0.0159
1931.00,0.0158
1930.00,0.0157
1929.00,0.0156
1928.00,0.0156
1927.00,0.0156
1926.00,0.0157
1925.00,0.0157
1924.00,0.0156
1923.00,0.0155
1922.00,0.0154
1921.00,0.0156
1920.00,0.0157
1919.00,0.0156
1918.00,0.0154
1917.00,0.0152
1916.00,0.0151
1915.00,0.0152
1914.00,0.0153
1913.00,0.0153
1912.00,0.0153
1911.00,0.0152
1910.00,0.0150
1909.00,0.0149
1908.00,0.0148
1907.00,0.0147
1906.00,0.0147
1905.00,0.0147
1904.00,0.0147
1903.00,0.0146
1902.00,0.0146
1901.00,0.0146
1900.00,0.0146
1899.00,0.0146
1898.00,0.0146
1897.00,0.0146
1896.00,0.0145
1895.00,0.0143
1894.00,0.0142
1893.00,0.0143
1892.00,0.0144
1891.00,0.0143
1890.00,0.0142
1889.00,0.0139
1888.00,0.0138
1887.00,0.0139
1886.00,0.0139
1885.00,0.0139
1884.00,0.0139
1883.00,0.0139
1882.00,0.0139
1881.00,0.0138
1880.00,0.0138
1879.00,0.0137
1878.00,0.0137
1877.00,0.0137
1876.00,0.0137
1875.00,0.0137
1874.00,0.0137
1873.00,0.0138
1872.00,0.0139
1871.00,0.0140
1870.00,0.0139
1869.00,0.0135
1868.00,0.0130
1867.00,0.0128
1866.00,0.0129
1865.00,0.0131
1864.00,0.0132
1863.00,0.0132
1862.00,0.0131
1861.00,0.0130
1860.00,0.0129
1859.00,0.0129
1858.00,0.0128
1857.00,0.0128
1856.00,0.0128
1855.00,0.0128
1854.00,0.0128
1853.00,0.0128
1852.00,0.0128
1851.00,0.0129
1850.00,0.0129
1849.00,0.0129
1848.00,0.0129
1847.00,0.0130
1846.00,0.0131
1845.00,0.0129
1844.00,0.0124
1843.00,0.0120
1842.00,0.0120
1841.00,0.0121
1840.00,0.0123
1839.00,0.0123
1838.00,0.0122
1837.00,0.0122
1836.00,0.0121
1835.00,0.0121
1834.00,0.0123
1833.00,0.0125
1832.00,0.0125
1831.00,0.0123
1830.00,0.0119
1829.00,0.0115
1828.00,0.0115
1827.00,0.0116
1826.00,0.0115
1825.00,0.0114
1824.00,0.0113
1823.00,0.0113
1822.00,0.0115
1821.00,0.0116
1820.00,0.0116
1819.00,0.0116
1818.00,0.0115
1817.00,0.0114
1816.00,0.0114
1815.00,0.0114
1814.00,0.0115
1813.00,0.0115
1812.00,0.0114
1811.00,0.0112
1810.00,0.0111
1809.00,0.0111
1808.00,0.0112
1807.00,0.0113
1806.00,0.0114
1805.00,0.0115
1804.00,0.0116
1803.00,0.0116
1802.00,0.0116
1801.00,0.0115
1800.00,0.0114
1799.00,0.0115
1798.00,0.0117
1797.00,0.0119
1796.00,0.0122
1795.00,0.0124
1794.00,0.0126
1793.00,0.0125
1792.00,0.0121
1791.00,0.0117
1790.00,0.0117
1789.00,0.0121
1788.00,0.0125
1787.00,0.0128
1786.00,0.0130
1785.00,0.0131
1784.00,0.0132
1783.00,0.0133
1782.00,0.0133
1781.00,0.0133
1780.00,0.0134
1779.00,0.0136
1778.00,0.0139
1777.00,0.0143
1776.00,0.0147
1775.00,0.0151
1774.00,0.0154
1773.00,0.0154
1772.00,0.0152
1771.00,0.0150
1770.00,0.0151
1769.00,0.0154
1768.00,0.0157
1767.00,0.0159
1766.00,0.0162
1765.00,0.0165
1764.00,0.0168
1763.00,0.0169
1762.00,0.0169
1761.00,0.0169
1760.00,0.0170
1759.00,0.0173
1758.00,0.0174
1757.00,0.0175
1756.00,0.0177
1755.00,0.0181
1754.00,0.0185
1753.00,0.0190
1752.00,0.0194
1751.00,0.0195
1750.00,0.0195
1749.00,0.0193
1748.00,0.0194
1747.00,0.0196
1746.00,0.0199
1745.00,0.0201
1744.00,0.0204
1743.00,0.0207
1742.00,0.0210
1741.00,0.0215
1740.00,0.0218
1739.00,0.0221
1738.00,0.0225
1737.00,0.0232
1736.00,0.0239
1735.00,0.0244
1734.00,0.0246
1733.00,0.0244
1732.00,0.0244
1731.00,0.0245
1730.00,0.0246
1729.00,0.0249
1728.00,0.0254
1727.00,0.0259
1726.00,0.0264
1725.00,0.0267
1724.00,0.0271
1723.00,0.0274
1722.00,0.0277
1721.00,0.0280
1720.00,0.0284
1719.00,0.0287
1718.00,0.0290
1717.00,0.0292
1716.00,0.0292
1715.00,0.0291
1714.00,0.0293
1713.00,0.0296
1712.00,0.0299
1711.00,0.0301
1710.00,0.0304
1709.00,0.0306
1708.00,0.0308
1707.00,0.0309
1706.00,0.0309
1705.00,0.0311
1704.00,0.0313
1703.00,0.0316
1702.00,0.0320
1701.00,0.0324
1700.00,0.0327
1699.00,0.0329
1698.00,0.0329
1697.00,0.0328
1696.00,0.0326
1695.00,0.0325
1694.00,0.0326
1693.00,0.0329
1692.00,0.0330
1691.00,0.0331
1690.00,0.0332
1689.00,0.0333
1688.00,0.0335
1687.00,0.0337
1686.00,0.0338
1685.00,0.0337
1684.00,0.0334
1683.00,0.0334
1682.00,0.0338
1681.00,0.0341
1680.00,0.0343
1679.00,0.0346
1678.00,0.0350
1677.00,0.0353
1676.00,0.0357
1675.00,0.0360
1674.00,0.0361
1673.00,0.0362
1672.00,0.0363
1671.00,0.0365
1670.00,0.0366
1669.00,0.0367
1668.00,0.0368
1667.00,0.0371
1666.00,0.0373
1665.00,0.0376
1664.00,0.0378
1663.00,0.0381
1662.00,0.0383
1661.00,0.0385
1660.00,0.0388
1659.00,0.0392
1658.00,0.0394
1657.00,0.0395
1656.00,0.0396
1655.00,0.0398
1654.00,0.0402
1653.00,0.0405
1652.00,0.0409
1651.00,0.0412
1650.00,0.0413
1649.00,0.0414
1648.00,0.0417
1647.00,0.0422
1646.00,0.0425
1645.00,0.0428
1644.00,0.0431
1643.00,0.0433
1642.00,0.0434
1641.00,0.0437
1640.00,0.0439
1639.00,0.0441
1638.00,0.0443
1637.00,0.0446
1636.00,0.0449
1635.00,0.0452
1634.00,0.0455
1633.00,0.0458
1632.00,0.0460
1631.00,0.0462
1630.00,0.0464
1629.00,0.0466
1628.00,0.0469
1627.00,0.0472
1626.00,0.0475
1625.00,0.0478
1624.00,0.0481
1623.00,0.0485
1622.00,0.0487
1621.00,0.0489
1620.00,0.0491
1619.00,0.0493
1618.00,0.0498
1617.00,0.0502
1616.00,0.0505
1615.00,0.0506
1614.00,0.0507
1613.00,0.0508
1612.00,0.0510
1611.00,0.0513
1610.00,0.0516
1609.00,0.0518
1608.00,0.0520
1607.00,0.0523
1606.00,0.0524
1605.00,0.0526
1604.00,0.0527
1603.00,0.0529
1602.00,0.0531
1601.00,0.0533
1600.00,0.0534
1599.00,0.0536
1598.00,0.0538
1597.00,0.0539
1596.00,0.0541
1595.00,0.0543
1594.00,0.0544
1593.00,0.0546
1592.00,0.0547
1591.00,0.0548
1590.00,0.0550
1589.00,0.0551
1588.00,0.0552
1587.00,0.0554
1586.00,0.0555
1585.00,0.0556
1584.00,0.0556
1583.00,0.0558
1582.00,0.0559
1581.00,0.0559
1580.00,0.0559
1579.00,0.0558
1578.00,0.0559
1577.00,0.0562
1576.00,0.0565
1575.00,0.0567
1574.00,0.0567
1573.00,0.0564
1572.00,0.0562
1571.00,0.0562
1570.00,0.0564
1569.00,0.0565
1568.00,0.0565
1567.00,0.0565
1566.00,0.0564
1565.00,0.0563
1564.00,0.0562
1563.00,0.0561
1562.00,0.0557
1561.00,0.0551
1560.00,0.0551
1559.00,0.0559
1558.00,0.0561
1557.00,0.0562
1556.00,0.0561
1555.00,0.0559
1554.00,0.0557
1553.00,0.0554
1552.00,0.0551
1551.00,0.0547
1550.00,0.0545
1549.00,0.0544
1548.00,0.0543
1547.00,0.0542
1546.00,0.0540
1545.00,0.0539
1544.00,0.0538
1543.00,0.0537
1542.00,0.0537
1541.00,0.0535
1540.00,0.0528
1539.00,0.0522
1538.00,0.0520
1537.00,0.0519
1536.00,0.0516
1535.00,0.0512
1534.00,0.0508
1533.00,0.0503
1532.00,0.0500
1531.00,0.0498
1530.00,0.0496
1529.00,0.0494
1528.00,0.0492
1527.00,0.0490
1526.00,0.0489
1525.00,0.0487
1524.00,0.0485
1523.00,0.0483
1522.00,0.0480
1521.00,0.0475
1520.00,0.0471
1519.00,0.0467
1518.00,0.0463
1517.00,0.0460
1516.00,0.0458
1515.00,0.0458
1514.00,0.0459
1513.00,0.0459
1512.00,0.0458
1511.00,0.0455
1510.00,0.0452
1509.00,0.0449
1508.00,0.0448
1507.00,0.0443
1506.00,0.0438
1505.00,0.0441
1504.00,0.0443
1503.00,0.0443
1502.00,0.0441
1501.00,0.0439
1500.00,0.0438
1499.00,0.0437
1498.00,0.0436
1497.00,0.0436
1496.00,0.0436
1495.00,0.0436
1494.00,0.0436
1493.00,0.0437
1492.00,0.0437
1491.00,0.0437
1490.00,0.0435
1489.00,0.0433
1488.00,0.0430
1487.00,0.0430
1486.00,0.0430
1485.00,0.0431
1484.00,0.0431
1483.00,0.0431
1482.00,0.0431
1481.00,0.0432
1480.00,0.0432
1479.00,0.0432
1478.00,0.0432
1477.00,0.0432
1476.00,0.0434
1475.00,0.0437
1474.00,0.0441
1473.00,0.0443
1472.00,0.0442
1471.00,0.0440
1470.00,0.0440
1469.00,0.0441
1468.00,0.0441
1467.00,0.0442
1466.00,0.0443
1465.00,0.0444
1464.00,0.0445
1463.00,0.0446
1462.00,0.0446
1461.00,0.0446
1460.00,0.0447
1459.00,0.0448
1458.00,0.0452
1457.00,0.0455
1456.00,0.0456
1455.00,0.0456
1454.00,0.0455
1453.00,0.0455
1452.00,0.0456
1451.00,0.0457
1450.00,0.0458
1449.00,0.0460
1448.00,0.0461
1447.00,0.0461
1446.00,0.0462
1445.00,0.0462
1444.00,0.0463
1443.00,0.0464
1442.00,0.0465
1441.00,0.0467
1440.00,0.0468
1439.00,0.0469
1438.00,0.0471
1437.00,0.0473
1436.00,0.0475
1435.00,0.0475
1434.00,0.0475
1433.00,0.0475
1432.00,0.0476
1431.00,0.0477
1430.00,0.0477
1429.00,0.0478
1428.00,0.0480
1427.00,0.0480
1426.00,0.0480
1425.00,0.0481
1424.00,0.0482
1423.00,0.0483
1422.00,0.0484
1421.00,0.0485
1420.00,0.0486
1419.00,0.0488
1418.00,0.0489
1417.00,0.0490
1416.00,0.0491
1415.00,0.0493
1414.00,0.0494
1413.00,0.0495
1412.00,0.0496
1411.00,0.0497
1410.00,0.0497
1409.00,0.0497
1408.00,0.0498
1407.00,0.0498
1406.00,0.0498
1405.00,0.0500
1404.00,0.0502
1403.00,0.0505
1402.00,0.0506
1401.00,0.0507
1400.00,0.0509
1399.00,0.0511
1398.00,0.0512
1397.00,0.0513
1396.00,0.0514
1395.00,0.0515
1394.00,0.0516
1393.00,0.0518
1392.00,0.0519
1391.00,0.0520
1390.00,0.0521
1389.00,0.0522
1388.00,0.0524
1387.00,0.0526
1386.00,0.0526
1385.00,0.0527
1384.00,0.0528
1383.00,0.0529
1382.00,0.0530
1381.00,0.0530
1380.00,0.0531
1379.00,0.0531
1378.00,0.0531
1377.00,0.0531
1376.00,0.0531
1375.00,0.0531
1374.00,0.0532
1373.00,0.0532
1372.00,0.0533
1371.00,0.0534
1370.00,0.0533
1369.00,0.0533
1368.00,0.0533
1367.00,0.0533
1366.00,0.0533
1365.00,0.0532
1364.00,0.0530
1363.00,0.0530
1362.00,0.0530
1361.00,0.0530
1360.00,0.0531
1359.00,0.0531
1358.00,0.0530
1357.00,0.0530
1356.00,0.0529
1355.00,0.0528
1354.00,0.0528
1353.00,0.0527
1352.00,0.0526
1351.00,0.0525
1350.00,0.0525
1349.00,0.0524
1348.00,0.0524
1347.00,0.0523
1346.00,0.0522
1345.00,0.0522
1344.00,0.0521
1343.00,0.0520
1342.00,0.0519
1341.00,0.0519
1340.00,0.0518
1339.00,0.0518
1338.00,0.0517
1337.00,0.0516
1336.00,0.0516
1335.00,0.0517
1334.00,0.0517
1333.00,0.0516
1332.00,0.0516
1331.00,0.0516
1330.00,0.0516
1329.00,0.0515
1328.00,0.0515
1327.00,0.0515
1326.00,0.0514
1325.00,0.0514
1324.00,0.0514
1323.00,0.0515
1322.00,0.0515
1321.00,0.0515
1320.00,0.0516
1319.00,0.0516
1318.00,0.0516
1317.00,0.0516
1316.00,0.0516
1315.00,0.0517
1314.00,0.0517
1313.00,0.0517
1312.00,0.0517
1311.00,0.0518
1310.00,0.0518
1309.00,0.0518
1308.00,0.0518
1307.00,0.0518
1306.00,0.0518
1305.00,0.0518
1304.00,0.0518
1303.00,0.0519
1302.00,0.0519
1301.00,0.0519
1300.00,0.0519
1299.00,0.0520
1298.00,0.0520
1297.00,0.0520
1296.00,0.0520
1295.00,0.0521
1294.00,0.0521
1293.00,0.0522
1292.00,0.0522
1291.00,0.0523
1290.00,0.0523
1289.00,0.0524
1288.00,0.0525
1287.00,0.0525
1286.00,0.0525
1285.00,0.0526
1284.00,0.0527
1283.00,0.0527
1282.00,0.0528
1281.00,0.0529
1280.00,0.0529
1279.00,0.0530
1278.00,0.0530
1277.00,0.0531
1276.00,0.0532
1275.00,0.0532
1274.00,0.0533
1273.00,0.0533
1272.00,0.0533
1271.00,0.0534
1270.00,0.0535
1269.00,0.0535
1268.00,0.0536
1267.00,0.0536
1266.00,0.0536
1265.00,0.0537
1264.00,0.0537
1263.00,0.0538
1262.00,0.0539
1261.00,0.0539
1260.00,0.0540
1259.00,0.0540
1258.00,0.0541
1257.00,0.0541
1256.00,0.0542
1255.00,0.0543
1254.00,0.0543
1253.00,0.0543
1252.00,0.0544
1251.00,0.0544
1250.00,0.0545
1249.00,0.0545
1248.00,0.0546
1247.00,0.0546
1246.00,0.0547
1245.00,0.0547
1244.00,0.0547
1243.00,0.0547
1242.00,0.0548
1241.00,0.0549
1240.00,0.0549
1239.00,0.0549
1238.00,0.0549
1237.00,0.0549
1236.00,0.0549
1235.00,0.0549
1234.00,0.0549
1233.00,0.0550
1232.00,0.0550
1231.00,0.0551
1230.00,0.0551
1229.00,0.0551
1228.00,0.0551
1227.00,0.0551
1226.00,0.0551
1225.00,0.0551
1224.00,0.0551
1223.00,0.0551
1222.00,0.0551
1221.00,0.0551
1220.00,0.0551
1219.00,0.0550
1218.00,0.0550
1217.00,0.0550
1216.00,0.0549
1215.00,0.0549
1214.00,0.0549
1213.00,0.0549
1212.00,0.0550
1211.00,0.0550
1210.00,0.0550
1209.00,0.0549
1208.00,0.0549
1207.00,0.0549
1206.00,0.0550
1205.00,0.0550
1204.00,0.0551
1203.00,0.0550
1202.00,0.0550
1201.00,0.0549
1200.00,0.0549
1199.00,0.0549
1198.00,0.0549
1197.00,0.0549
1196.00,0.0549
1195.00,0.0549
1194.00,0.0548
1193.00,0.0548
1192.00,0.0548
1191.00,0.0548
1190.00,0.0547
1189.00,0.0546
1188.00,0.0545
1187.00,0.0545
1186.00,0.0545
1185.00,0.0545
1184.00,0.0545
1183.00,0.0545
1182.00,0.0544
1181.00,0.0544
1180.00,0.0545
1179.00,0.0546
1178.00,0.0547
1177.00,0.0548
1176.00,0.0548
1175.00,0.0548
1174.00,0.0548
1173.00,0.0547
1172.00,0.0548
1171.00,0.0548
1170.00,0.0548
1169.00,0.0548
1168.00,0.0549
1167.00,0.0550
1166.00,0.0550
1165.00,0.0550
1164.00,0.0550
1163.00,0.0550
1162.00,0.0550
1161.00,0.0549
1160.00,0.0549
1159.00,0.0548
1158.00,0.0548
1157.00,0.0547
1156.00,0.0547
1155.00,0.0546
1154.00,0.0545
1153.00,0.0544
1152.00,0.0544
1151.00,0.0544
1150.00,0.0543
1149.00,0.0543
1148.00,0.0543
1147.00,0.0542
1146.00,0.0542
1145.00,0.0542
1144.00,0.0542
1143.00,0.0542
1142.00,0.0541
1141.00,0.0540
1140.00,0.0540
1139.00,0.0540
1138.00,0.0541
1137.00,0.0541
1136.00,0.0541
1135.00,0.0541
1134.00,0.0541
1133.00,0.0541
1132.00,0.0541
1131.00,0.0541
1130.00,0.0542
1129.00,0.0543
1128.00,0.0543
1127.00,0.0544
1126.00,0.0544
1125.00,0.0544
1124.00,0.0545
1123.00,0.0546
1122.00,0.0547
1121.00,0.0549
1120.00,0.0551
1119.00,0.0552
1118.00,0.0553
1117.00,0.0555
1116.00,0.0557
1115.00,0.0558
1114.00,0.0559
1113.00,0.0559
1112.00,0.0559
1111.00,0.0560
1110.00,0.0561
1109.00,0.0562
1108.00,0.0563
1107.00,0.0563
1106.00,0.0564
1105.00,0.0564
1104.00,0.0564
1103.00,0.0565
1102.00,0.0565
1101.00,0.0565
1100.00,0.0565
1099.00,0.0565
1098.00,0.0565
1097.00,0.0566
1096.00,0.0566
1095.00,0.0567
1094.00,0.0567
1093.00,0.0568
1092.00,0.0569
1091.00,0.0570
1090.00,0.0571
1089.00,0.0572
1088.00,0.0572
1087.00,0.0572
1086.00,0.0572
1085.00,0.0572
1084.00,0.0572
1083.00,0.0572
1082.00,0.0572
1081.00,0.0572
1080.00,0.0572
1079.00,0.0573
1078.00,0.0574
1077.00,0.0575
1076.00,0.0576
1075.00,0.0576
1074.00,0.0577
1073.00,0.0577
1072.00,0.0577
1071.00,0.0578
1070.00,0.0578
1069.00,0.0579
1068.00,0.0580
1067.00,0.0581
1066.00,0.0582
1065.00,0.0583
1064.00,0.0585
1063.00,0.0586
1062.00,0.0586
1061.00,0.0586
1060.00,0.0586
1059.00,0.0586
1058.00,0.0587
1057.00,0.0587
1056.00,0.0587
1055.00,0.0588
1054.00,0.0588
1053.00,0.0588
1052.00,0.0589
1051.00,0.0589
1050.00,0.0590
1049.00,0.0590
1048.00,0.0590
1047.00,0.0590
1046.00,0.0590
1045.00,0.0589
1044.00,0.0588
1043.00,0.0587
1042.00,0.0587
1041.00,0.0587
1040.00,0.0588
1039.00,0.0588
1038.00,0.0588
1037.00,0.0589
1036.00,0.0589
1035.00,0.0589
1034.00,0.0588
1033.00,0.0587
1032.00,0.0586
1031.00,0.0585
1030.00,0.0584
1029.00,0.0583
1028.00,0.0582
1027.00,0.0579
1026.00,0.0577
1025.00,0.0574
1024.00,0.0572
1023.00,0.0570
1022.00,0.0568
1021.00,0.0567
1020.00,0.0565
1019.00,0.0564
1018.00,0.0563
1017.00,0.0561
1016.00,0.0560
1015.00,0.0558
1014.00,0.0556
1013.00,0.0555
1012.00,0.0553
1011.00,0.0553
1010.00,0.0552
1009.00,0.0551
1008.00,0.0550
1007.00,0.0549
1006.00,0.0547
1005.00,0.0545
1004.00,0.0542
1003.00,0.0539
1002.00,0.0537
1001.00,0.0535
1000.00,0.0533
999.00,0.0531
998.00,0.0528
997.00,0.0526
996.00,0.0525
995.00,0.0523
994.00,0.0520
993.00,0.0518
992.00,0.0516
991.00,0.0514
990.00,0.0512
989.00,0.0510
988.00,0.0508
987.00,0.0506
986.00,0.0504
985.00,0.0503
984.00,0.0501
983.00,0.0500
982.00,0.0499
981.00,0.0498
980.00,0.0496
979.00,0.0494
978.00,0.0492
977.00,0.0490
976.00,0.0489
975.00,0.0488
974.00,0.0486
973.00,0.0484
972.00,0.0482
971.00,0.0480
970.00,0.0479
969.00,0.0477
968.00,0.0476
967.00,0.0474
966.00,0.0473
965.00,0.0472
964.00,0.0471
963.00,0.0470
962.00,0.0469
961.00,0.0468
960.00,0.0467
959.00,0.0466
958.00,0.0465
957.00,0.0464
956.00,0.0462
955.00,0.0461
954.00,0.0460
953.00,0.0459
952.00,0.0458
951.00,0.0457
950.00,0.0457
949.00,0.0457
948.00,0.0457
947.00,0.0457
946.00,0.0456
945.00,0.0456
944.00,0.0456
943.00,0.0457
942.00,0.0457
941.00,0.0457
940.00,0.0457
939.00,0.0458
938.00,0.0458
937.00,0.0458
936.00,0.0459
935.00,0.0458
934.00,0.0458
933.00,0.0457
932.00,0.0456
931.00,0.0456
930.00,0.0455
929.00,0.0453
928.00,0.0453
927.00,0.0453
926.00,0.0455
925.00,0.0456
924.00,0.0458
923.00,0.0459
922.00,0.0459
921.00,0.0459
920.00,0.0459
919.00,0.0460
918.00,0.0462
917.00,0.0464
916.00,0.0467
915.00,0.0468
914.00,0.0468
913.00,0.0467
912.00,0.0466
911.00,0.0465
910.00,0.0465
909.00,0.0465
908.00,0.0465
907.00,0.0466
906.00,0.0466
905.00,0.0466
904.00,0.0466
903.00,0.0467
902.00,0.0467
901.00,0.0467
900.00,0.0467
899.00,0.0467
898.00,0.0467
897.00,0.0466
896.00,0.0466
895.00,0.0466
894.00,0.0466
893.00,0.0466
892.00,0.0465
891.00,0.0465
890.00,0.0464
889.00,0.0464
888.00,0.0464
887.00,0.0465
886.00,0.0464
885.00,0.0464
884.00,0.0464
883.00,0.0463
882.00,0.0463
881.00,0.0462
880.00,0.0463
879.00,0.0464
878.00,0.0465
877.00,0.0465
876.00,0.0465
875.00,0.0465
874.00,0.0465
873.00,0.0465
872.00,0.0467
871.00,0.0468
870.00,0.0469
869.00,0.0468
868.00,0.0467
867.00,0.0466
866.00,0.0466
865.00,0.0467
864.00,0.0467
863.00,0.0468
862.00,0.0468
861.00,0.0468
860.00,0.0469
859.00,0.0469
858.00,0.0470
857.00,0.0471
856.00,0.0473
855.00,0.0474
854.00,0.0475
853.00,0.0474
852.00,0.0473
851.00,0.0473
850.00,0.0474
849.00,0.0475
848.00,0.0476
847.00,0.0476
846.00,0.0476
845.00,0.0477
844.00,0.0479
843.00,0.0482
842.00,0.0484
841.00,0.0486
840.00,0.0488
839.00,0.0490
838.00,0.0491
837.00,0.0491
836.00,0.0491
835.00,0.0490
834.00,0.0490
833.00,0.0491
832.00,0.0494
831.00,0.0498
830.00,0.0501
829.00,0.0502
828.00,0.0502
827.00,0.0502
826.00,0.0502
825.00,0.0503
824.00,0.0507
823.00,0.0511
822.00,0.0514
821.00,0.0517
820.00,0.0517
819.00,0.0517
818.00,0.0516
817.00,0.0516
816.00,0.0518
815.00,0.0519
814.00,0.0521
813.00,0.0523
812.00,0.0525
811.00,0.0526
810.00,0.0526
809.00,0.0527
808.00,0.0528
807.00,0.0529
806.00,0.0530
805.00,0.0530
804.00,0.0531
803.00,0.0532
802.00,0.0535
801.00,0.0537
800.00,0.0538
799.00,0.0539
798.00,0.0540
797.00,0.0542
796.00,0.0543
795.00,0.0544
794.00,0.0544
793.00,0.0544
792.00,0.0544
791.00,0.0545
790.00,0.0547
789.00,0.0549
788.00,0.0550
787.00,0.0551
786.00,0.0550
785.00,0.0549
784.00,0.0549
783.00,0.0550
782.00,0.0551
781.00,0.0554
780.00,0.0557
779.00,0.0560
778.00,0.0562
777.00,0.0563
776.00,0.0563
775.00,0.0562
774.00,0.0562
773.00,0.0563
772.00,0.0564
771.00,0.0566
770.00,0.0567
769.00,0.0569
768.00,0.0570
767.00,0.0572
766.00,0.0574
765.00,0.0574
764.00,0.0573
763.00,0.0572
762.00,0.0572
761.00,0.0573
760.00,0.0575
759.00,0.0577
758.00,0.0579
757.00,0.0582
756.00,0.0583
755.00,0.0584
754.00,0.0582
753.00,0.0581
752.00,0.0580
751.00,0.0580
750.00,0.0582
749.00,0.0584
748.00,0.0587
747.00,0.0588
746.00,0.0588
745.00,0.0588
744.00,0.0587
743.00,0.0588
742.00,0.0589
741.00,0.0589
740.00,0.0590
739.00,0.0591
738.00,0.0592
737.00,0.0592
736.00,0.0593
735.00,0.0592
734.00,0.0592
733.00,0.0592
732.00,0.0593
731.00,0.0595
730.00,0.0598
729.00,0.0600
728.00,0.0602
727.00,0.0602
726.00,0.0601
725.00,0.0600
724.00,0.0601
723.00,0.0603
722.00,0.0605
721.00,0.0606
720.00,0.0608
719.00,0.0608
718.00,0.0609
717.00,0.0609
716.00,0.0610
715.00,0.0611
714.00,0.0612
713.00,0.0613
712.00,0.0614
711.00,0.0614
710.00,0.0615
709.00,0.0617
708.00,0.0620
707.00,0.0621
706.00,0.0622
705.00,0.0623
704.00,0.0625
703.00,0.0628
702.00,0.0631
701.00,0.0634
700.00,0.0637
699.00,0.0638
698.00,0.0639
697.00,0.0639
696.00,0.0639
695.00,0.0639
694.00,0.0639
693.00,0.0640
692.00,0.0641
691.00,0.0641
690.00,0.0642
689.00,0.0644
688.00,0.0647
687.00,0.0651
686.00,0.0654
685.00,0.0656
684.00,0.0657
683.00,0.0657
682.00,0.0657
681.00,0.0657
680.00,0.0657
679.00,0.0657
678.00,0.0657
677.00,0.0658
676.00,0.0661
675.00,0.0664
674.00,0.0668
673.00,0.0670
672.00,0.0671
671.00,0.0668
670.00,0.0664
669.00,0.0663
668.00,0.0668
667.00,0.0673
666.00,0.0675
665.00,0.0673
664.00,0.0670
663.00,0.0667
662.00,0.0667
661.00,0.0669
660.00,0.0675
659.00,0.0682
658.00,0.0687
657.00,0.0689
656.00,0.0689
655.00,0.0688
654.00,0.0687
653.00,0.0686
652.00,0.0685
651.00,0.0687
650.00,0.0686
