Created as New Dataset,Monday, April 03 2023
cm-1,A
4000.00,0.0259
3999.00,0.0259
3998.00,0.0259
3997.00,0.0259
3996.00,0.0259
3995.00,0.0259
3994.00,0.0259
3993.00,0.0260
3992.00,0.0259
3991.00,0.0259
3990.00,0.0259
3989.00,0.0259
3988.00,0.0259
3987.00,0.0259
3986.00,0.0259
3985.00,0.0259
3984.00,0.0259
3983.00,0.0260
3982.00,0.0259
3981.00,0.0259
3980.00,0.0260
3979.00,0.0260
3978.00,0.0260
3977.00,0.0260
3976.00,0.0260
3975.00,0.0260
3974.00,0.0260
3973.00,0.0260
3972.00,0.0260
3971.00,0.0260
3970.00,0.0260
3969.00,0.0260
3968.00,0.0259
3967.00,0.0259
3966.00,0.0259
3965.00,0.0259
3964.00,0.0260
3963.00,0.0260
3962.00,0.0261
3961.00,0.0261
3960.00,0.0261
3959.00,0.0261
3958.00,0.0261
3957.00,0.0260
3956.00,0.0260
3955.00,0.0260
3954.00,0.0260
3953.00,0.0260
3952.00,0.0260
3951.00,0.0260
3950.00,0.0261
3949.00,0.0261
3948.00,0.0261
3947.00,0.0261
3946.00,0.0262
3945.00,0.0263
3944.00,0.0263
3943.00,0.0263
3942.00,0.0262
3941.00,0.0262
3940.00,0.0262
3939.00,0.0261
3938.00,0.0261
3937.00,0.0260
3936.00,0.0261
3935.00,0.0261
3934.00,0.0262
3933.00,0.0263
3932.00,0.0263
3931.00,0.0263
3930.00,0.0263
3929.00,0.0263
3928.00,0.0263
3927.00,0.0263
3926.00,0.0264
3925.00,0.0263
3924.00,0.0263
3923.00,0.0263
3922.00,0.0263
3921.00,0.0263
3920.00,0.0263
3919.00,0.0263
3918.00,0.0263
3917.00,0.0263
3916.00,0.0263
3915.00,0.0262
3914.00,0.0262
3913.00,0.0262
3912.00,0.0261
3911.00,0.0260
3910.00,0.0260
3909.00,0.0260
3908.00,0.0261
3907.00,0.0263
3906.00,0.0264
3905.00,0.0264
3904.00,0.0265
3903.00,0.0266
3902.00,0.0268
3901.00,0.0269
3900.00,0.0268
3899.00,0.0267
3898.00,0.0265
3897.00,0.0265
3896.00,0.0265
3895.00,0.0265
3894.00,0.0265
3893.00,0.0265
3892.00,0.0264
3891.00,0.0263
3890.00,0.0262
3889.00,0.0263
3888.00,0.0265
3887.00,0.0265
3886.00,0.0263
3885.00,0.0262
3884.00,0.0264
3883.00,0.0268
3882.00,0.0270
3881.00,0.0269
3880.00,0.0266
3879.00,0.0265
3878.00,0.0265
3877.00,0.0266
3876.00,0.0266
3875.00,0.0265
3874.00,0.0264
3873.00,0.0265
3872.00,0.0267
3871.00,0.0267
3870.00,0.0265
3869.00,0.0263
3868.00,0.0264
3867.00,0.0267
3866.00,0.0268
3865.00,0.0266
3864.00,0.0265
3863.00,0.0266
3862.00,0.0267
3861.00,0.0266
3860.00,0.0265
3859.00,0.0263
3858.00,0.0263
3857.00,0.0263
3856.00,0.0264
3855.00,0.0263
3854.00,0.0263
3853.00,0.0263
3852.00,0.0264
3851.00,0.0267
3850.00,0.0268
3849.00,0.0267
3848.00,0.0266
3847.00,0.0264
3846.00,0.0264
3845.00,0.0263
3844.00,0.0263
3843.00,0.0263
3842.00,0.0263
3841.00,0.0264
3840.00,0.0265
3839.00,0.0265
3838.00,0.0265
3837.00,0.0265
3836.00,0.0266
3835.00,0.0266
3834.00,0.0267
3833.00,0.0267
3832.00,0.0266
3831.00,0.0265
3830.00,0.0265
3829.00,0.0266
3828.00,0.0266
3827.00,0.0264
3826.00,0.0263
3825.00,0.0263
3824.00,0.0265
3823.00,0.0267
3822.00,0.0266
3821.00,0.0264
3820.00,0.0264
3819.00,0.0266
3818.00,0.0268
3817.00,0.0267
3816.00,0.0264
3815.00,0.0262
3814.00,0.0262
3813.00,0.0264
3812.00,0.0264
3811.00,0.0262
3810.00,0.0262
3809.00,0.0262
3808.00,0.0262
3807.00,0.0260
3806.00,0.0260
3805.00,0.0262
3804.00,0.0266
3803.00,0.0267
3802.00,0.0266
3801.00,0.0264
3800.00,0.0265
3799.00,0.0267
3798.00,0.0269
3797.00,0.0267
3796.00,0.0265
3795.00,0.0264
3794.00,0.0264
3793.00,0.0264
3792.00,0.0263
3791.00,0.0262
3790.00,0.0262
3789.00,0.0262
3788.00,0.0263
3787.00,0.0263
3786.00,0.0263
3785.00,0.0263
3784.00,0.0263
3783.00,0.0264
3782.00,0.0265
3781.00,0.0266
3780.00,0.0265
3779.00,0.0264
3778.00,0.0263
3777.00,0.0263
3776.00,0.0263
3775.00,0.0262
3774.00,0.0261
3773.00,0.0262
3772.00,0.0263
3771.00,0.0264
3770.00,0.0264
3769.00,0.0264
3768.00,0.0265
3767.00,0.0266
3766.00,0.0266
3765.00,0.0264
3764.00,0.0264
3763.00,0.0264
3762.00,0.0265
3761.00,0.0265
3760.00,0.0264
3759.00,0.0264
3758.00,0.0264
3757.00,0.0264
3756.00,0.0263
3755.00,0.0263
3754.00,0.0262
3753.00,0.0260
3752.00,0.0259
3751.00,0.0260
3750.00,0.0261
3749.00,0.0261
3748.00,0.0263
3747.00,0.0266
3746.00,0.0268
3745.00,0.0266
3744.00,0.0262
3743.00,0.0262
3742.00,0.0264
3741.00,0.0266
3740.00,0.0265
3739.00,0.0264
3738.00,0.0263
3737.00,0.0264
3736.00,0.0266
3735.00,0.0268
3734.00,0.0270
3733.00,0.0269
3732.00,0.0267
3731.00,0.0264
3730.00,0.0263
3729.00,0.0264
3728.00,0.0264
3727.00,0.0264
3726.00,0.0263
3725.00,0.0264
3724.00,0.0266
3723.00,0.0266
3722.00,0.0266
3721.00,0.0266
3720.00,0.0266
3719.00,0.0266
3718.00,0.0265
3717.00,0.0264
3716.00,0.0264
3715.00,0.0265
3714.00,0.0265
3713.00,0.0265
3712.00,0.0266
3711.00,0.0269
3710.00,0.0271
3709.00,0.0272
3708.00,0.0272
3707.00,0.0272
3706.00,0.0271
3705.00,0.0272
3704.00,0.0272
3703.00,0.0274
3702.00,0.0275
3701.00,0.0276
3700.00,0.0277
3699.00,0.0278
3698.00,0.0278
3697.00,0.0278
3696.00,0.0277
3695.00,0.0277
3694.00,0.0277
3693.00,0.0277
3692.00,0.0277
3691.00,0.0278
3690.00,0.0279
3689.00,0.0279
3688.00,0.0279
3687.00,0.0278
3686.00,0.0278
3685.00,0.0277
3684.00,0.0276
3683.00,0.0275
3682.00,0.0274
3681.00,0.0273
3680.00,0.0271
3679.00,0.0271
3678.00,0.0272
3677.00,0.0274
3676.00,0.0274
3675.00,0.0274
3674.00,0.0275
3673.00,0.0277
3672.00,0.0279
3671.00,0.0277
3670.00,0.0275
3669.00,0.0275
3668.00,0.0276
3667.00,0.0277
3666.00,0.0277
3665.00,0.0277
3664.00,0.0276
3663.00,0.0276
3662.00,0.0276
3661.00,0.0276
3660.00,0.0277
3659.00,0.0278
3658.00,0.0279
3657.00,0.0280
3656.00,0.0280
3655.00,0.0280
3654.00,0.0282
3653.00,0.0284
3652.00,0.0284
3651.00,0.0284
3650.00,0.0287
3649.00,0.0292
3648.00,0.0296
3647.00,0.0296
3646.00,0.0294
3645.00,0.0292
3644.00,0.0290
3643.00,0.0288
3642.00,0.0287
3641.00,0.0286
3640.00,0.0285
3639.00,0.0285
3638.00,0.0284
3637.00,0.0284
3636.00,0.0284
3635.00,0.0284
3634.00,0.0284
3633.00,0.0284
3632.00,0.0286
3631.00,0.0288
3630.00,0.0290
3629.00,0.0291
3628.00,0.0292
3627.00,0.0294
3626.00,0.0295
3625.00,0.0295
3624.00,0.0295
3623.00,0.0294
3622.00,0.0296
3621.00,0.0298
3620.00,0.0300
3619.00,0.0300
3618.00,0.0300
3617.00,0.0300
3616.00,0.0299
3615.00,0.0298
3614.00,0.0297
3613.00,0.0296
3612.00,0.0295
3611.00,0.0295
3610.00,0.0295
3609.00,0.0294
3608.00,0.0293
3607.00,0.0293
3606.00,0.0293
3605.00,0.0292
3604.00,0.0292
3603.00,0.0291
3602.00,0.0290
3601.00,0.0290
3600.00,0.0290
3599.00,0.0290
3598.00,0.0290
3597.00,0.0291
3596.00,0.0291
3595.00,0.0291
3594.00,0.0292
3593.00,0.0292
3592.00,0.0292
3591.00,0.0292
3590.00,0.0292
3589.00,0.0291
3588.00,0.0291
3587.00,0.0292
3586.00,0.0293
3585.00,0.0293
3584.00,0.0292
3583.00,0.0291
3582.00,0.0290
3581.00,0.0290
3580.00,0.0290
3579.00,0.0290
3578.00,0.0291
3577.00,0.0291
3576.00,0.0290
3575.00,0.0290
3574.00,0.0290
3573.00,0.0290
3572.00,0.0290
3571.00,0.0289
3570.00,0.0290
3569.00,0.0291
3568.00,0.0294
3567.00,0.0297
3566.00,0.0298
3565.00,0.0298
3564.00,0.0297
3563.00,0.0295
3562.00,0.0294
3561.00,0.0293
3560.00,0.0293
3559.00,0.0293
3558.00,0.0292
3557.00,0.0292
3556.00,0.0292
3555.00,0.0293
3554.00,0.0293
3553.00,0.0294
3552.00,0.0294
3551.00,0.0294
3550.00,0.0294
3549.00,0.0294
3548.00,0.0294
3547.00,0.0295
3546.00,0.0297
3545.00,0.0298
3544.00,0.0298
3543.00,0.0298
3542.00,0.0296
3541.00,0.0295
3540.00,0.0295
3539.00,0.0294
3538.00,0.0295
3537.00,0.0295
3536.00,0.0296
3535.00,0.0296
3534.00,0.0296
3533.00,0.0295
3532.00,0.0295
3531.00,0.0295
3530.00,0.0295
3529.00,0.0296
3528.00,0.0297
3527.00,0.0298
3526.00,0.0299
3525.00,0.0299
3524.00,0.0299
3523.00,0.0299
3522.00,0.0299
3521.00,0.0299
3520.00,0.0298
3519.00,0.0298
3518.00,0.0298
3517.00,0.0298
3516.00,0.0298
3515.00,0.0299
3514.00,0.0299
3513.00,0.0299
3512.00,0.0299
3511.00,0.0300
3510.00,0.0301
3509.00,0.0301
3508.00,0.0302
3507.00,0.0302
3506.00,0.0302
3505.00,0.0302
3504.00,0.0302
3503.00,0.0303
3502.00,0.0304
3501.00,0.0304
3500.00,0.0304
3499.00,0.0304
3498.00,0.0303
3497.00,0.0303
3496.00,0.0303
3495.00,0.0303
3494.00,0.0303
3493.00,0.0303
3492.00,0.0304
3491.00,0.0304
3490.00,0.0304
3489.00,0.0304
3488.00,0.0305
3487.00,0.0305
3486.00,0.0305
3485.00,0.0305
3484.00,0.0304
3483.00,0.0304
3482.00,0.0304
3481.00,0.0304
3480.00,0.0304
3479.00,0.0305
3478.00,0.0305
3477.00,0.0305
3476.00,0.0305
3475.00,0.0305
3474.00,0.0306
3473.00,0.0307
3472.00,0.0307
3471.00,0.0307
3470.00,0.0307
3469.00,0.0307
3468.00,0.0307
3467.00,0.0307
3466.00,0.0308
3465.00,0.0308
3464.00,0.0308
3463.00,0.0308
3462.00,0.0308
3461.00,0.0308
3460.00,0.0307
3459.00,0.0307
3458.00,0.0307
3457.00,0.0308
3456.00,0.0308
3455.00,0.0308
3454.00,0.0308
3453.00,0.0308
3452.00,0.0309
3451.00,0.0309
3450.00,0.0309
3449.00,0.0309
3448.00,0.0310
3447.00,0.0311
3446.00,0.0311
3445.00,0.0312
3444.00,0.0312
3443.00,0.0312
3442.00,0.0312
3441.00,0.0312
3440.00,0.0311
3439.00,0.0310
3438.00,0.0310
3437.00,0.0311
3436.00,0.0311
3435.00,0.0311
3434.00,0.0312
3433.00,0.0312
3432.00,0.0312
3431.00,0.0312
3430.00,0.0313
3429.00,0.0313
3428.00,0.0313
3427.00,0.0313
3426.00,0.0313
3425.00,0.0313
3424.00,0.0313
3423.00,0.0313
3422.00,0.0313
3421.00,0.0314
3420.00,0.0314
3419.00,0.0315
3418.00,0.0315
3417.00,0.0314
3416.00,0.0314
3415.00,0.0314
3414.00,0.0314
3413.00,0.0315
3412.00,0.0315
3411.00,0.0314
3410.00,0.0314
3409.00,0.0314
3408.00,0.0314
3407.00,0.0314
3406.00,0.0315
3405.00,0.0315
3404.00,0.0316
3403.00,0.0317
3402.00,0.0317
3401.00,0.0318
3400.00,0.0318
3399.00,0.0317
3398.00,0.0316
3397.00,0.0316
3396.00,0.0316
3395.00,0.0317
3394.00,0.0317
3393.00,0.0317
3392.00,0.0317
3391.00,0.0317
3390.00,0.0317
3389.00,0.0317
3388.00,0.0317
3387.00,0.0317
3386.00,0.0317
3385.00,0.0318
3384.00,0.0318
3383.00,0.0318
3382.00,0.0317
3381.00,0.0317
3380.00,0.0317
3379.00,0.0317
3378.00,0.0317
3377.00,0.0317
3376.00,0.0318
3375.00,0.0318
3374.00,0.0318
3373.00,0.0318
3372.00,0.0317
3371.00,0.0317
3370.00,0.0317
3369.00,0.0317
3368.00,0.0317
3367.00,0.0317
3366.00,0.0318
3365.00,0.0318
3364.00,0.0319
3363.00,0.0319
3362.00,0.0320
3361.00,0.0320
3360.00,0.0319
3359.00,0.0319
3358.00,0.0319
3357.00,0.0319
3356.00,0.0319
3355.00,0.0319
3354.00,0.0319
3353.00,0.0320
3352.00,0.0320
3351.00,0.0321
3350.00,0.0321
3349.00,0.0320
3348.00,0.0320
3347.00,0.0320
3346.00,0.0319
3345.00,0.0319
3344.00,0.0319
3343.00,0.0319
3342.00,0.0320
3341.00,0.0320
3340.00,0.0320
3339.00,0.0319
3338.00,0.0319
3337.00,0.0319
3336.00,0.0319
3335.00,0.0319
3334.00,0.0320
3333.00,0.0320
3332.00,0.0320
3331.00,0.0320
3330.00,0.0320
3329.00,0.0320
3328.00,0.0320
3327.00,0.0320
3326.00,0.0320
3325.00,0.0320
3324.00,0.0320
3323.00,0.0320
3322.00,0.0319
3321.00,0.0319
3320.00,0.0320
3319.00,0.0320
3318.00,0.0321
3317.00,0.0321
3316.00,0.0321
3315.00,0.0321
3314.00,0.0321
3313.00,0.0321
3312.00,0.0321
3311.00,0.0321
3310.00,0.0321
3309.00,0.0321
3308.00,0.0322
3307.00,0.0322
3306.00,0.0321
3305.00,0.0321
3304.00,0.0321
3303.00,0.0322
3302.00,0.0322
3301.00,0.0322
3300.00,0.0323
3299.00,0.0323
3298.00,0.0323
3297.00,0.0323
3296.00,0.0322
3295.00,0.0322
3294.00,0.0323
3293.00,0.0323
3292.00,0.0324
3291.00,0.0324
3290.00,0.0324
3289.00,0.0323
3288.00,0.0323
3287.00,0.0322
3286.00,0.0322
3285.00,0.0322
3284.00,0.0322
3283.00,0.0322
3282.00,0.0322
3281.00,0.0322
3280.00,0.0322
3279.00,0.0323
3278.00,0.0323
3277.00,0.0323
3276.00,0.0323
3275.00,0.0323
3274.00,0.0324
3273.00,0.0324
3272.00,0.0324
3271.00,0.0324
3270.00,0.0324
3269.00,0.0324
3268.00,0.0323
3267.00,0.0323
3266.00,0.0323
3265.00,0.0323
3264.00,0.0323
3263.00,0.0323
3262.00,0.0323
3261.00,0.0323
3260.00,0.0323
3259.00,0.0322
3258.00,0.0322
3257.00,0.0322
3256.00,0.0322
3255.00,0.0323
3254.00,0.0323
3253.00,0.0323
3252.00,0.0322
3251.00,0.0322
3250.00,0.0323
3249.00,0.0323
3248.00,0.0323
3247.00,0.0323
3246.00,0.0324
3245.00,0.0324
3244.00,0.0324
3243.00,0.0324
3242.00,0.0323
3241.00,0.0323
3240.00,0.0324
3239.00,0.0324
3238.00,0.0324
3237.00,0.0324
3236.00,0.0324
3235.00,0.0324
3234.00,0.0323
3233.00,0.0323
3232.00,0.0323
3231.00,0.0323
3230.00,0.0323
3229.00,0.0323
3228.00,0.0323
3227.00,0.0324
3226.00,0.0323
3225.00,0.0323
3224.00,0.0322
3223.00,0.0322
3222.00,0.0322
3221.00,0.0322
3220.00,0.0322
3219.00,0.0322
3218.00,0.0322
3217.00,0.0322
3216.00,0.0322
3215.00,0.0322
3214.00,0.0322
3213.00,0.0323
3212.00,0.0323
3211.00,0.0323
3210.00,0.0323
3209.00,0.0323
3208.00,0.0323
3207.00,0.0322
3206.00,0.0323
3205.00,0.0323
3204.00,0.0322
3203.00,0.0322
3202.00,0.0322
3201.00,0.0322
3200.00,0.0322
3199.00,0.0323
3198.00,0.0323
3197.00,0.0323
3196.00,0.0322
3195.00,0.0322
3194.00,0.0322
3193.00,0.0322
3192.00,0.0322
3191.00,0.0322
3190.00,0.0322
3189.00,0.0321
3188.00,0.0322
3187.00,0.0322
3186.00,0.0321
3185.00,0.0321
3184.00,0.0320
3183.00,0.0320
3182.00,0.0320
3181.00,0.0320
3180.00,0.0320
3179.00,0.0319
3178.00,0.0319
3177.00,0.0319
3176.00,0.0319
3175.00,0.0319
3174.00,0.0319
3173.00,0.0319
3172.00,0.0318
3171.00,0.0318
3170.00,0.0318
3169.00,0.0318
3168.00,0.0318
3167.00,0.0318
3166.00,0.0317
3165.00,0.0317
3164.00,0.0317
3163.00,0.0318
3162.00,0.0317
3161.00,0.0317
3160.00,0.0317
3159.00,0.0317
3158.00,0.0316
3157.00,0.0316
3156.00,0.0316
3155.00,0.0316
3154.00,0.0316
3153.00,0.0316
3152.00,0.0315
3151.00,0.0315
3150.00,0.0315
3149.00,0.0315
3148.00,0.0315
3147.00,0.0315
3146.00,0.0315
3145.00,0.0315
3144.00,0.0315
3143.00,0.0315
3142.00,0.0315
3141.00,0.0315
3140.00,0.0315
3139.00,0.0315
3138.00,0.0315
3137.00,0.0314
3136.00,0.0314
3135.00,0.0314
3134.00,0.0314
3133.00,0.0313
3132.00,0.0313
3131.00,0.0313
3130.00,0.0313
3129.00,0.0313
3128.00,0.0313
3127.00,0.0312
3126.00,0.0312
3125.00,0.0312
3124.00,0.0312
3123.00,0.0312
3122.00,0.0312
3121.00,0.0312
3120.00,0.0312
3119.00,0.0313
3118.00,0.0313
3117.00,0.0313
3116.00,0.0312
3115.00,0.0312
3114.00,0.0311
3113.00,0.0311
3112.00,0.0311
3111.00,0.0310
3110.00,0.0310
3109.00,0.0310
3108.00,0.0310
3107.00,0.0310
3106.00,0.0309
3105.00,0.0309
3104.00,0.0309
3103.00,0.0309
3102.00,0.0310
3101.00,0.0310
3100.00,0.0310
3099.00,0.0309
3098.00,0.0308
3097.00,0.0308
3096.00,0.0308
3095.00,0.0308
3094.00,0.0308
3093.00,0.0308
3092.00,0.0307
3091.00,0.0308
3090.00,0.0308
3089.00,0.0308
3088.00,0.0308
3087.00,0.0308
3086.00,0.0308
3085.00,0.0308
3084.00,0.0308
3083.00,0.0307
3082.00,0.0307
3081.00,0.0307
3080.00,0.0307
3079.00,0.0307
3078.00,0.0306
3077.00,0.0306
3076.00,0.0305
3075.00,0.0305
3074.00,0.0305
3073.00,0.0305
3072.00,0.0305
3071.00,0.0305
3070.00,0.0305
3069.00,0.0305
3068.00,0.0305
3067.00,0.0305
3066.00,0.0305
3065.00,0.0305
3064.00,0.0305
3063.00,0.0305
3062.00,0.0304
3061.00,0.0304
3060.00,0.0304
3059.00,0.0304
3058.00,0.0303
3057.00,0.0303
3056.00,0.0303
3055.00,0.0303
3054.00,0.0303
3053.00,0.0303
3052.00,0.0303
3051.00,0.0303
3050.00,0.0303
3049.00,0.0303
3048.00,0.0303
3047.00,0.0303
3046.00,0.0302
3045.00,0.0302
3044.00,0.0302
3043.00,0.0302
3042.00,0.0302
3041.00,0.0301
3040.00,0.0301
3039.00,0.0301
3038.00,0.0301
3037.00,0.0301
3036.00,0.0301
3035.00,0.0301
3034.00,0.0301
3033.00,0.0300
3032.00,0.0300
3031.00,0.0299
3030.00,0.0299
3029.00,0.0298
3028.00,0.0297
3027.00,0.0297
3026.00,0.0297
3025.00,0.0297
3024.00,0.0297
3023.00,0.0297
3022.00,0.0297
3021.00,0.0297
3020.00,0.0297
3019.00,0.0296
3018.00,0.0296
3017.00,0.0296
3016.00,0.0296
3015.00,0.0296
3014.00,0.0296
3013.00,0.0296
3012.00,0.0295
3011.00,0.0295
3010.00,0.0294
3009.00,0.0293
3008.00,0.0292
3007.00,0.0292
3006.00,0.0291
3005.00,0.0291
3004.00,0.0291
3003.00,0.0291
3002.00,0.0291
3001.00,0.0290
3000.00,0.0290
2999.00,0.0290
2998.00,0.0290
2997.00,0.0289
2996.00,0.0289
2995.00,0.0288
2994.00,0.0288
2993.00,0.0288
2992.00,0.0288
2991.00,0.0287
2990.00,0.0286
2989.00,0.0286
2988.00,0.0285
2987.00,0.0285
2986.00,0.0284
2985.00,0.0284
2984.00,0.0283
2983.00,0.0282
2982.00,0.0281
2981.00,0.0280
2980.00,0.0280
2979.00,0.0280
2978.00,0.0280
2977.00,0.0280
2976.00,0.0280
2975.00,0.0280
2974.00,0.0280
2973.00,0.0279
2972.00,0.0278
2971.00,0.0278
2970.00,0.0277
2969.00,0.0277
2968.00,0.0277
2967.00,0.0277
2966.00,0.0276
2965.00,0.0276
2964.00,0.0276
2963.00,0.0275
2962.00,0.0275
2961.00,0.0275
2960.00,0.0274
2959.00,0.0274
2958.00,0.0274
2957.00,0.0274
2956.00,0.0274
2955.00,0.0274
2954.00,0.0275
2953.00,0.0275
2952.00,0.0275
2951.00,0.0276
2950.00,0.0276
2949.00,0.0276
2948.00,0.0276
2947.00,0.0276
2946.00,0.0276
2945.00,0.0276
2944.00,0.0276
2943.00,0.0276
2942.00,0.0275
2941.00,0.0274
2940.00,0.0274
2939.00,0.0273
2938.00,0.0272
2937.00,0.0272
2936.00,0.0271
2935.00,0.0270
2934.00,0.0269
2933.00,0.0267
2932.00,0.0266
2931.00,0.0265
2930.00,0.0264
2929.00,0.0262
2928.00,0.0261
2927.00,0.0260
2926.00,0.0259
2925.00,0.0258
2924.00,0.0258
2923.00,0.0257
2922.00,0.0257
2921.00,0.0256
2920.00,0.0255
2919.00,0.0254
2918.00,0.0254
2917.00,0.0254
2916.00,0.0255
2915.00,0.0257
2914.00,0.0259
2913.00,0.0262
2912.00,0.0264
2911.00,0.0266
2910.00,0.0267
2909.00,0.0268
2908.00,0.0269
2907.00,0.0269
2906.00,0.0269
2905.00,0.0270
2904.00,0.0270
2903.00,0.0270
2902.00,0.0271
2901.00,0.0271
2900.00,0.0271
2899.00,0.0271
2898.00,0.0272
2897.00,0.0272
2896.00,0.0272
2895.00,0.0271
2894.00,0.0271
2893.00,0.0271
2892.00,0.0271
2891.00,0.0271
2890.00,0.0271
2889.00,0.0272
2888.00,0.0272
2887.00,0.0272
2886.00,0.0272
2885.00,0.0272
2884.00,0.0272
2883.00,0.0271
2882.00,0.0271
2881.00,0.0271
2880.00,0.0271
2879.00,0.0271
2878.00,0.0271
2877.00,0.0271
2876.00,0.0271
2875.00,0.0270
2874.00,0.0270
2873.00,0.0270
2872.00,0.0269
2871.00,0.0269
2870.00,0.0269
2869.00,0.0269
2868.00,0.0268
2867.00,0.0268
2866.00,0.0267
2865.00,0.0267
2864.00,0.0267
2863.00,0.0267
2862.00,0.0267
2861.00,0.0266
2860.00,0.0266
2859.00,0.0265
2858.00,0.0264
2857.00,0.0263
2856.00,0.0262
2855.00,0.0261
2854.00,0.0261
2853.00,0.0260
2852.00,0.0260
2851.00,0.0260
2850.00,0.0260
2849.00,0.0260
2848.00,0.0261
2847.00,0.0262
2846.00,0.0264
2845.00,0.0265
2844.00,0.0267
2843.00,0.0268
2842.00,0.0269
2841.00,0.0270
2840.00,0.0270
2839.00,0.0270
2838.00,0.0270
2837.00,0.0270
2836.00,0.0270
2835.00,0.0270
2834.00,0.0269
2833.00,0.0270
2832.00,0.0270
2831.00,0.0270
2830.00,0.0270
2829.00,0.0270
2828.00,0.0270
2827.00,0.0270
2826.00,0.0270
2825.00,0.0270
2824.00,0.0270
2823.00,0.0270
2822.00,0.0270
2821.00,0.0270
2820.00,0.0270
2819.00,0.0270
2818.00,0.0270
2817.00,0.0270
2816.00,0.0270
2815.00,0.0270
2814.00,0.0270
2813.00,0.0270
2812.00,0.0270
2811.00,0.0270
2810.00,0.0270
2809.00,0.0270
2808.00,0.0270
2807.00,0.0270
2806.00,0.0269
2805.00,0.0269
2804.00,0.0269
2803.00,0.0269
2802.00,0.0269
2801.00,0.0269
2800.00,0.0269
2799.00,0.0269
2798.00,0.0269
2797.00,0.0269
2796.00,0.0269
2795.00,0.0269
2794.00,0.0268
2793.00,0.0268
2792.00,0.0268
2791.00,0.0268
2790.00,0.0268
2789.00,0.0268
2788.00,0.0268
2787.00,0.0268
2786.00,0.0268
2785.00,0.0267
2784.00,0.0267
2783.00,0.0267
2782.00,0.0267
2781.00,0.0267
2780.00,0.0267
2779.00,0.0266
2778.00,0.0266
2777.00,0.0266
2776.00,0.0266
2775.00,0.0266
2774.00,0.0266
2773.00,0.0266
2772.00,0.0266
2771.00,0.0266
2770.00,0.0266
2769.00,0.0266
2768.00,0.0266
2767.00,0.0266
2766.00,0.0266
2765.00,0.0265
2764.00,0.0265
2763.00,0.0265
2762.00,0.0265
2761.00,0.0265
2760.00,0.0264
2759.00,0.0264
2758.00,0.0264
2757.00,0.0265
2756.00,0.0265
2755.00,0.0265
2754.00,0.0265
2753.00,0.0265
2752.00,0.0265
2751.00,0.0265
2750.00,0.0265
2749.00,0.0265
2748.00,0.0265
2747.00,0.0265
2746.00,0.0264
2745.00,0.0264
2744.00,0.0264
2743.00,0.0264
2742.00,0.0264
2741.00,0.0264
2740.00,0.0264
2739.00,0.0265
2738.00,0.0265
2737.00,0.0265
2736.00,0.0264
2735.00,0.0264
2734.00,0.0264
2733.00,0.0264
2732.00,0.0264
2731.00,0.0264
2730.00,0.0264
2729.00,0.0264
2728.00,0.0264
2727.00,0.0264
2726.00,0.0264
2725.00,0.0264
2724.00,0.0263
2723.00,0.0263
2722.00,0.0264
2721.00,0.0264
2720.00,0.0264
2719.00,0.0264
2718.00,0.0264
2717.00,0.0264
2716.00,0.0264
2715.00,0.0264
2714.00,0.0263
2713.00,0.0263
2712.00,0.0263
2711.00,0.0263
2710.00,0.0263
2709.00,0.0263
2708.00,0.0263
2707.00,0.0263
2706.00,0.0263
2705.00,0.0263
2704.00,0.0263
2703.00,0.0263
2702.00,0.0263
2701.00,0.0263
2700.00,0.0262
2699.00,0.0262
2698.00,0.0263
2697.00,0.0263
2696.00,0.0263
2695.00,0.0263
2694.00,0.0262
2693.00,0.0262
2692.00,0.0262
2691.00,0.0262
2690.00,0.0262
2689.00,0.0262
2688.00,0.0262
2687.00,0.0262
2686.00,0.0262
2685.00,0.0262
2684.00,0.0262
2683.00,0.0262
2682.00,0.0262
2681.00,0.0262
2680.00,0.0262
2679.00,0.0262
2678.00,0.0261
2677.00,0.0261
2676.00,0.0261
2675.00,0.0261
2674.00,0.0261
2673.00,0.0261
2672.00,0.0261
2671.00,0.0261
2670.00,0.0261
2669.00,0.0261
2668.00,0.0261
2667.00,0.0262
2666.00,0.0262
2665.00,0.0262
2664.00,0.0263
2663.00,0.0263
2662.00,0.0263
2661.00,0.0263
2660.00,0.0263
2659.00,0.0263
2658.00,0.0263
2657.00,0.0263
2656.00,0.0263
2655.00,0.0263
2654.00,0.0264
2653.00,0.0264
2652.00,0.0264
2651.00,0.0264
2650.00,0.0264
2649.00,0.0264
2648.00,0.0264
2647.00,0.0264
2646.00,0.0264
2645.00,0.0265
2644.00,0.0265
2643.00,0.0265
2642.00,0.0265
2641.00,0.0264
2640.00,0.0264
2639.00,0.0264
2638.00,0.0264
2637.00,0.0264
2636.00,0.0264
2635.00,0.0265
2634.00,0.0265
2633.00,0.0265
2632.00,0.0265
2631.00,0.0265
2630.00,0.0265
2629.00,0.0265
2628.00,0.0265
2627.00,0.0265
2626.00,0.0265
2625.00,0.0265
2624.00,0.0265
2623.00,0.0265
2622.00,0.0266
2621.00,0.0266
2620.00,0.0266
2619.00,0.0266
2618.00,0.0266
2617.00,0.0266
2616.00,0.0265
2615.00,0.0265
2614.00,0.0265
2613.00,0.0266
2612.00,0.0266
2611.00,0.0266
2610.00,0.0266
2609.00,0.0267
2608.00,0.0267
2607.00,0.0267
2606.00,0.0267
2605.00,0.0267
2604.00,0.0267
2603.00,0.0267
2602.00,0.0266
2601.00,0.0266
2600.00,0.0266
2599.00,0.0266
2598.00,0.0266
2597.00,0.0266
2596.00,0.0266
2595.00,0.0266
2594.00,0.0265
2593.00,0.0265
2592.00,0.0266
2591.00,0.0266
2590.00,0.0266
2589.00,0.0266
2588.00,0.0266
2587.00,0.0266
2586.00,0.0266
2585.00,0.0265
2584.00,0.0265
2583.00,0.0265
2582.00,0.0265
2581.00,0.0265
2580.00,0.0266
2579.00,0.0266
2578.00,0.0267
2577.00,0.0267
2576.00,0.0266
2575.00,0.0266
2574.00,0.0265
2573.00,0.0264
2572.00,0.0264
2571.00,0.0264
2570.00,0.0265
2569.00,0.0265
2568.00,0.0265
2567.00,0.0265
2566.00,0.0265
2565.00,0.0265
2564.00,0.0265
2563.00,0.0265
2562.00,0.0264
2561.00,0.0264
2560.00,0.0263
2559.00,0.0263
2558.00,0.0264
2557.00,0.0264
2556.00,0.0264
2555.00,0.0264
2554.00,0.0264
2553.00,0.0264
2552.00,0.0265
2551.00,0.0265
2550.00,0.0265
2549.00,0.0266
2548.00,0.0266
2547.00,0.0265
2546.00,0.0265
2545.00,0.0265
2544.00,0.0265
2543.00,0.0264
2542.00,0.0264
2541.00,0.0264
2540.00,0.0265
2539.00,0.0265
2538.00,0.0265
2537.00,0.0264
2536.00,0.0264
2535.00,0.0264
2534.00,0.0263
2533.00,0.0263
2532.00,0.0263
2531.00,0.0263
2530.00,0.0264
2529.00,0.0264
2528.00,0.0264
2527.00,0.0264
2526.00,0.0264
2525.00,0.0264
2524.00,0.0264
2523.00,0.0264
2522.00,0.0263
2521.00,0.0263
2520.00,0.0263
2519.00,0.0263
2518.00,0.0264
2517.00,0.0264
2516.00,0.0264
2515.00,0.0264
2514.00,0.0264
2513.00,0.0264
2512.00,0.0264
2511.00,0.0264
2510.00,0.0263
2509.00,0.0262
2508.00,0.0262
2507.00,0.0262
2506.00,0.0262
2505.00,0.0263
2504.00,0.0263
2503.00,0.0263
2502.00,0.0263
2501.00,0.0263
2500.00,0.0262
2499.00,0.0262
2498.00,0.0262
2497.00,0.0262
2496.00,0.0263
2495.00,0.0263
2494.00,0.0263
2493.00,0.0263
2492.00,0.0262
2491.00,0.0262
2490.00,0.0262
2489.00,0.0262
2488.00,0.0261
2487.00,0.0261
2486.00,0.0261
2485.00,0.0261
2484.00,0.0261
2483.00,0.0261
2482.00,0.0260
2481.00,0.0260
2480.00,0.0260
2479.00,0.0260
2478.00,0.0260
2477.00,0.0260
2476.00,0.0260
2475.00,0.0260
2474.00,0.0260
2473.00,0.0260
2472.00,0.0260
2471.00,0.0260
2470.00,0.0259
2469.00,0.0259
2468.00,0.0259
2467.00,0.0259
2466.00,0.0259
2465.00,0.0259
2464.00,0.0259
2463.00,0.0259
2462.00,0.0259
2461.00,0.0260
2460.00,0.0260
2459.00,0.0260
2458.00,0.0260
2457.00,0.0259
2456.00,0.0259
2455.00,0.0260
2454.00,0.0260
2453.00,0.0261
2452.00,0.0261
2451.00,0.0261
2450.00,0.0261
2449.00,0.0261
2448.00,0.0260
2447.00,0.0260
2446.00,0.0259
2445.00,0.0259
2444.00,0.0259
2443.00,0.0259
2442.00,0.0258
2441.00,0.0258
2440.00,0.0258
2439.00,0.0258
2438.00,0.0258
2437.00,0.0259
2436.00,0.0259
2435.00,0.0259
2434.00,0.0259
2433.00,0.0259
2432.00,0.0258
2431.00,0.0257
2430.00,0.0257
2429.00,0.0256
2428.00,0.0256
2427.00,0.0257
2426.00,0.0257
2425.00,0.0258
2424.00,0.0258
2423.00,0.0257
2422.00,0.0256
2421.00,0.0256
2420.00,0.0257
2419.00,0.0257
2418.00,0.0257
2417.00,0.0256
2416.00,0.0256
2415.00,0.0256
2414.00,0.0256
2413.00,0.0256
2412.00,0.0255
2411.00,0.0254
2410.00,0.0254
2409.00,0.0254
2408.00,0.0254
2407.00,0.0254
2406.00,0.0254
2405.00,0.0254
2404.00,0.0254
2403.00,0.0254
2402.00,0.0254
2401.00,0.0254
2400.00,0.0254
2399.00,0.0253
2398.00,0.0253
2397.00,0.0253
2396.00,0.0253
2395.00,0.0253
2394.00,0.0252
2393.00,0.0252
2392.00,0.0252
2391.00,0.0252
2390.00,0.0252
2389.00,0.0252
2388.00,0.0252
2387.00,0.0252
2386.00,0.0252
2385.00,0.0252
2384.00,0.0252
2383.00,0.0251
2382.00,0.0250
2381.00,0.0249
2380.00,0.0248
2379.00,0.0247
2378.00,0.0246
2377.00,0.0245
2376.00,0.0245
2375.00,0.0245
2374.00,0.0245
2373.00,0.0245
2372.00,0.0246
2371.00,0.0247
2370.00,0.0248
2369.00,0.0249
2368.00,0.0251
2367.00,0.0251
2366.00,0.0251
2365.00,0.0250
2364.00,0.0249
2363.00,0.0248
2362.00,0.0248
2361.00,0.0249
2360.00,0.0250
2359.00,0.0252
2358.00,0.0253
2357.00,0.0255
2356.00,0.0256
2355.00,0.0257
2354.00,0.0258
2353.00,0.0258
2352.00,0.0258
2351.00,0.0258
2350.00,0.0256
2349.00,0.0252
2348.00,0.0247
2347.00,0.0244
2346.00,0.0243
2345.00,0.0245
2344.00,0.0248
2343.00,0.0249
2342.00,0.0250
2341.00,0.0251
2340.00,0.0253
2339.00,0.0255
2338.00,0.0255
2337.00,0.0255
2336.00,0.0254
2335.00,0.0254
2334.00,0.0254
2333.00,0.0254
2332.00,0.0255
2331.00,0.0255
2330.00,0.0257
2329.00,0.0258
2328.00,0.0260
2327.00,0.0261
2326.00,0.0261
2325.00,0.0259
2324.00,0.0258
2323.00,0.0257
2322.00,0.0257
2321.00,0.0258
2320.00,0.0258
2319.00,0.0258
2318.00,0.0257
2317.00,0.0257
2316.00,0.0256
2315.00,0.0256
2314.00,0.0255
2313.00,0.0254
2312.00,0.0254
2311.00,0.0254
2310.00,0.0255
2309.00,0.0255
2308.00,0.0255
2307.00,0.0255
2306.00,0.0255
2305.00,0.0254
2304.00,0.0254
2303.00,0.0253
2302.00,0.0252
2301.00,0.0251
2300.00,0.0250
2299.00,0.0251
2298.00,0.0251
2297.00,0.0251
2296.00,0.0251
2295.00,0.0251
2294.00,0.0252
2293.00,0.0252
2292.00,0.0252
2291.00,0.0252
2290.00,0.0252
2289.00,0.0252
2288.00,0.0253
2287.00,0.0253
2286.00,0.0252
2285.00,0.0251
2284.00,0.0251
2283.00,0.0250
2282.00,0.0250
2281.00,0.0249
2280.00,0.0249
2279.00,0.0248
2278.00,0.0248
2277.00,0.0248
2276.00,0.0248
2275.00,0.0248
2274.00,0.0247
2273.00,0.0247
2272.00,0.0247
2271.00,0.0247
2270.00,0.0247
2269.00,0.0247
2268.00,0.0247
2267.00,0.0248
2266.00,0.0249
2265.00,0.0250
2264.00,0.0251
2263.00,0.0251
2262.00,0.0250
2261.00,0.0250
2260.00,0.0250
2259.00,0.0250
2258.00,0.0250
2257.00,0.0249
2256.00,0.0248
2255.00,0.0247
2254.00,0.0247
2253.00,0.0248
2252.00,0.0249
2251.00,0.0249
2250.00,0.0248
2249.00,0.0247
2248.00,0.0248
2247.00,0.0249
2246.00,0.0250
2245.00,0.0250
2244.00,0.0249
2243.00,0.0248
2242.00,0.0248
2241.00,0.0248
2240.00,0.0249
2239.00,0.0249
2238.00,0.0249
2237.00,0.0249
2236.00,0.0248
2235.00,0.0249
2234.00,0.0249
2233.00,0.0250
2232.00,0.0250
2231.00,0.0251
2230.00,0.0251
2229.00,0.0251
2228.00,0.0250
2227.00,0.0249
2226.00,0.0248
2225.00,0.0248
2224.00,0.0248
2223.00,0.0248
2222.00,0.0248
2221.00,0.0249
2220.00,0.0248
2219.00,0.0248
2218.00,0.0247
2217.00,0.0247
2216.00,0.0247
2215.00,0.0248
2214.00,0.0249
2213.00,0.0250
2212.00,0.0250
2211.00,0.0249
2210.00,0.0248
2209.00,0.0247
2208.00,0.0247
2207.00,0.0247
2206.00,0.0247
2205.00,0.0247
2204.00,0.0247
2203.00,0.0247
2202.00,0.0247
2201.00,0.0248
2200.00,0.0249
2199.00,0.0250
2198.00,0.0251
2197.00,0.0251
2196.00,0.0251
2195.00,0.0250
2194.00,0.0250
2193.00,0.0249
2192.00,0.0247
2191.00,0.0247
2190.00,0.0247
2189.00,0.0249
2188.00,0.0250
2187.00,0.0251
2186.00,0.0251
2185.00,0.0251
2184.00,0.0249
2183.00,0.0247
2182.00,0.0246
2181.00,0.0245
2180.00,0.0246
2179.00,0.0246
2178.00,0.0245
2177.00,0.0245
2176.00,0.0244
2175.00,0.0245
2174.00,0.0246
2173.00,0.0248
2172.00,0.0250
2171.00,0.0252
2170.00,0.0253
2169.00,0.0253
2168.00,0.0252
2167.00,0.0251
2166.00,0.0250
2165.00,0.0250
2164.00,0.0251
2163.00,0.0251
2162.00,0.0249
2161.00,0.0245
2160.00,0.0241
2159.00,0.0238
2158.00,0.0237
2157.00,0.0238
2156.00,0.0240
2155.00,0.0241
2154.00,0.0242
2153.00,0.0242
2152.00,0.0241
2151.00,0.0241
2150.00,0.0241
2149.00,0.0241
2148.00,0.0242
2147.00,0.0242
2146.00,0.0242
2145.00,0.0242
2144.00,0.0243
2143.00,0.0243
2142.00,0.0242
2141.00,0.0241
2140.00,0.0240
2139.00,0.0241
2138.00,0.0242
2137.00,0.0241
2136.00,0.0239
2135.00,0.0237
2134.00,0.0236
2133.00,0.0237
2132.00,0.0239
2131.00,0.0239
2130.00,0.0239
2129.00,0.0238
2128.00,0.0238
2127.00,0.0240
2126.00,0.0241
2125.00,0.0242
2124.00,0.0242
2123.00,0.0241
2122.00,0.0241
2121.00,0.0241
2120.00,0.0242
2119.00,0.0242
2118.00,0.0243
2117.00,0.0242
2116.00,0.0242
2115.00,0.0242
2114.00,0.0243
2113.00,0.0243
2112.00,0.0244
2111.00,0.0244
2110.00,0.0244
2109.00,0.0244
2108.00,0.0245
2107.00,0.0245
2106.00,0.0245
2105.00,0.0244
2104.00,0.0244
2103.00,0.0244
2102.00,0.0244
2101.00,0.0244
2100.00,0.0243
2099.00,0.0241
2098.00,0.0241
2097.00,0.0241
2096.00,0.0240
2095.00,0.0240
2094.00,0.0239
2093.00,0.0238
2092.00,0.0239
2091.00,0.0239
2090.00,0.0239
2089.00,0.0239
2088.00,0.0238
2087.00,0.0238
2086.00,0.0239
2085.00,0.0240
2084.00,0.0240
2083.00,0.0240
2082.00,0.0239
2081.00,0.0239
2080.00,0.0238
2079.00,0.0238
2078.00,0.0238
2077.00,0.0239
2076.00,0.0240
2075.00,0.0241
2074.00,0.0241
2073.00,0.0240
2072.00,0.0238
2071.00,0.0237
2070.00,0.0238
2069.00,0.0239
2068.00,0.0239
2067.00,0.0240
2066.00,0.0240
2065.00,0.0239
2064.00,0.0239
2063.00,0.0239
2062.00,0.0239
2061.00,0.0238
2060.00,0.0237
2059.00,0.0237
2058.00,0.0237
2057.00,0.0238
2056.00,0.0239
2055.00,0.0239
2054.00,0.0240
2053.00,0.0242
2052.00,0.0244
2051.00,0.0245
2050.00,0.0245
2049.00,0.0244
2048.00,0.0243
2047.00,0.0243
2046.00,0.0244
2045.00,0.0244
2044.00,0.0244
2043.00,0.0243
2042.00,0.0242
2041.00,0.0242
2040.00,0.0243
2039.00,0.0244
2038.00,0.0245
2037.00,0.0246
2036.00,0.0246
2035.00,0.0246
2034.00,0.0245
2033.00,0.0244
2032.00,0.0242
2031.00,0.0241
2030.00,0.0241
2029.00,0.0243
2028.00,0.0243
2027.00,0.0242
2026.00,0.0241
2025.00,0.0240
2024.00,0.0240
2023.00,0.0239
2022.00,0.0239
2021.00,0.0239
2020.00,0.0239
2019.00,0.0240
2018.00,0.0241
2017.00,0.0241
2016.00,0.0241
2015.00,0.0240
2014.00,0.0239
2013.00,0.0239
2012.00,0.0240
2011.00,0.0240
2010.00,0.0239
2009.00,0.0237
2008.00,0.0234
2007.00,0.0232
2006.00,0.0231
2005.00,0.0232
2004.00,0.0232
2003.00,0.0233
2002.00,0.0234
2001.00,0.0235
2000.00,0.0236
1999.00,0.0237
1998.00,0.0238
1997.00,0.0238
1996.00,0.0238
1995.00,0.0238
1994.00,0.0240
1993.00,0.0240
1992.00,0.0240
1991.00,0.0239
1990.00,0.0239
1989.00,0.0238
1988.00,0.0238
1987.00,0.0238
1986.00,0.0238
1985.00,0.0240
1984.00,0.0242
1983.00,0.0243
1982.00,0.0244
1981.00,0.0244
1980.00,0.0243
1979.00,0.0241
1978.00,0.0238
1977.00,0.0237
1976.00,0.0236
1975.00,0.0235
1974.00,0.0234
1973.00,0.0234
1972.00,0.0234
1971.00,0.0235
1970.00,0.0235
1969.00,0.0234
1968.00,0.0234
1967.00,0.0234
1966.00,0.0236
1965.00,0.0237
1964.00,0.0237
1963.00,0.0235
1962.00,0.0233
1961.00,0.0231
1960.00,0.0230
1959.00,0.0229
1958.00,0.0229
1957.00,0.0229
1956.00,0.0229
1955.00,0.0230
1954.00,0.0231
1953.00,0.0231
1952.00,0.0230
1951.00,0.0229
1950.00,0.0228
1949.00,0.0228
1948.00,0.0229
1947.00,0.0229
1946.00,0.0230
1945.00,0.0231
1944.00,0.0231
1943.00,0.0232
1942.00,0.0231
1941.00,0.0230
1940.00,0.0228
1939.00,0.0226
1938.00,0.0226
1937.00,0.0226
1936.00,0.0226
1935.00,0.0227
1934.00,0.0227
1933.00,0.0227
1932.00,0.0227
1931.00,0.0227
1930.00,0.0226
1929.00,0.0225
1928.00,0.0225
1927.00,0.0225
1926.00,0.0226
1925.00,0.0227
1924.00,0.0227
1923.00,0.0226
1922.00,0.0225
1921.00,0.0225
1920.00,0.0225
1919.00,0.0224
1918.00,0.0223
1917.00,0.0222
1916.00,0.0222
1915.00,0.0223
1914.00,0.0223
1913.00,0.0224
1912.00,0.0224
1911.00,0.0223
1910.00,0.0222
1909.00,0.0222
1908.00,0.0221
1907.00,0.0221
1906.00,0.0221
1905.00,0.0222
1904.00,0.0222
1903.00,0.0221
1902.00,0.0221
1901.00,0.0220
1900.00,0.0219
1899.00,0.0219
1898.00,0.0219
1897.00,0.0219
1896.00,0.0219
1895.00,0.0219
1894.00,0.0218
1893.00,0.0218
1892.00,0.0218
1891.00,0.0217
1890.00,0.0217
1889.00,0.0216
1888.00,0.0215
1887.00,0.0215
1886.00,0.0215
1885.00,0.0215
1884.00,0.0215
1883.00,0.0215
1882.00,0.0215
1881.00,0.0214
1880.00,0.0214
1879.00,0.0214
1878.00,0.0213
1877.00,0.0212
1876.00,0.0211
1875.00,0.0211
1874.00,0.0210
1873.00,0.0210
1872.00,0.0210
1871.00,0.0211
1870.00,0.0211
1869.00,0.0211
1868.00,0.0211
1867.00,0.0211
1866.00,0.0211
1865.00,0.0211
1864.00,0.0211
1863.00,0.0210
1862.00,0.0209
1861.00,0.0208
1860.00,0.0208
1859.00,0.0207
1858.00,0.0207
1857.00,0.0207
1856.00,0.0208
1855.00,0.0208
1854.00,0.0208
1853.00,0.0208
1852.00,0.0207
1851.00,0.0206
1850.00,0.0205
1849.00,0.0205
1848.00,0.0206
1847.00,0.0207
1846.00,0.0207
1845.00,0.0206
1844.00,0.0205
1843.00,0.0204
1842.00,0.0203
1841.00,0.0204
1840.00,0.0204
1839.00,0.0204
1838.00,0.0204
1837.00,0.0204
1836.00,0.0203
1835.00,0.0202
1834.00,0.0202
1833.00,0.0202
1832.00,0.0203
1831.00,0.0203
1830.00,0.0202
1829.00,0.0201
1828.00,0.0200
1827.00,0.0200
1826.00,0.0200
1825.00,0.0199
1824.00,0.0199
1823.00,0.0198
1822.00,0.0198
1821.00,0.0198
1820.00,0.0197
1819.00,0.0196
1818.00,0.0196
1817.00,0.0195
1816.00,0.0195
1815.00,0.0194
1814.00,0.0194
1813.00,0.0193
1812.00,0.0193
1811.00,0.0193
1810.00,0.0193
1809.00,0.0193
1808.00,0.0193
1807.00,0.0193
1806.00,0.0192
1805.00,0.0192
1804.00,0.0192
1803.00,0.0192
1802.00,0.0192
1801.00,0.0193
1800.00,0.0193
1799.00,0.0193
1798.00,0.0193
1797.00,0.0194
1796.00,0.0194
1795.00,0.0194
1794.00,0.0194
1793.00,0.0193
1792.00,0.0193
1791.00,0.0192
1790.00,0.0192
1789.00,0.0193
1788.00,0.0193
1787.00,0.0193
1786.00,0.0193
1785.00,0.0194
1784.00,0.0194
1783.00,0.0195
1782.00,0.0195
1781.00,0.0196
1780.00,0.0197
1779.00,0.0198
1778.00,0.0198
1777.00,0.0199
1776.00,0.0200
1775.00,0.0201
1774.00,0.0202
1773.00,0.0201
1772.00,0.0201
1771.00,0.0201
1770.00,0.0202
1769.00,0.0203
1768.00,0.0203
1767.00,0.0204
1766.00,0.0204
1765.00,0.0205
1764.00,0.0205
1763.00,0.0206
1762.00,0.0205
1761.00,0.0205
1760.00,0.0206
1759.00,0.0206
1758.00,0.0207
1757.00,0.0207
1756.00,0.0207
1755.00,0.0207
1754.00,0.0207
1753.00,0.0207
1752.00,0.0208
1751.00,0.0209
1750.00,0.0210
1749.00,0.0212
1748.00,0.0212
1747.00,0.0213
1746.00,0.0214
1745.00,0.0215
1744.00,0.0216
1743.00,0.0217
1742.00,0.0219
1741.00,0.0220
1740.00,0.0222
1739.00,0.0222
1738.00,0.0224
1737.00,0.0226
1736.00,0.0227
1735.00,0.0227
1734.00,0.0228
1733.00,0.0230
1732.00,0.0232
1731.00,0.0235
1730.00,0.0237
1729.00,0.0238
1728.00,0.0240
1727.00,0.0241
1726.00,0.0243
1725.00,0.0244
1724.00,0.0246
1723.00,0.0247
1722.00,0.0249
1721.00,0.0250
1720.00,0.0251
1719.00,0.0250
1718.00,0.0249
1717.00,0.0251
1716.00,0.0254
1715.00,0.0256
1714.00,0.0257
1713.00,0.0258
1712.00,0.0259
1711.00,0.0260
1710.00,0.0261
1709.00,0.0262
1708.00,0.0263
1707.00,0.0264
1706.00,0.0265
1705.00,0.0266
1704.00,0.0267
1703.00,0.0268
1702.00,0.0268
1701.00,0.0267
1700.00,0.0266
1699.00,0.0267
1698.00,0.0269
1697.00,0.0271
1696.00,0.0271
1695.00,0.0269
1694.00,0.0268
1693.00,0.0269
1692.00,0.0269
1691.00,0.0269
1690.00,0.0269
1689.00,0.0270
1688.00,0.0271
1687.00,0.0271
1686.00,0.0270
1685.00,0.0269
1684.00,0.0269
1683.00,0.0270
1682.00,0.0271
1681.00,0.0272
1680.00,0.0271
1679.00,0.0271
1678.00,0.0271
1677.00,0.0271
1676.00,0.0272
1675.00,0.0272
1674.00,0.0272
1673.00,0.0273
1672.00,0.0274
1671.00,0.0275
1670.00,0.0276
1669.00,0.0277
1668.00,0.0277
1667.00,0.0277
1666.00,0.0277
1665.00,0.0278
1664.00,0.0278
1663.00,0.0279
1662.00,0.0279
1661.00,0.0280
1660.00,0.0280
1659.00,0.0281
1658.00,0.0282
1657.00,0.0283
1656.00,0.0284
1655.00,0.0284
1654.00,0.0285
1653.00,0.0287
1652.00,0.0287
1651.00,0.0287
1650.00,0.0289
1649.00,0.0291
1648.00,0.0293
1647.00,0.0295
1646.00,0.0296
1645.00,0.0296
1644.00,0.0296
1643.00,0.0297
1642.00,0.0298
1641.00,0.0299
1640.00,0.0300
1639.00,0.0301
1638.00,0.0303
1637.00,0.0305
1636.00,0.0309
1635.00,0.0311
1634.00,0.0312
1633.00,0.0312
1632.00,0.0313
1631.00,0.0313
1630.00,0.0315
1629.00,0.0316
1628.00,0.0318
1627.00,0.0320
1626.00,0.0321
1625.00,0.0323
1624.00,0.0325
1623.00,0.0327
1622.00,0.0328
1621.00,0.0328
1620.00,0.0329
1619.00,0.0329
1618.00,0.0330
1617.00,0.0331
1616.00,0.0333
1615.00,0.0335
1614.00,0.0336
1613.00,0.0337
1612.00,0.0337
1611.00,0.0338
1610.00,0.0339
1609.00,0.0341
1608.00,0.0342
1607.00,0.0344
1606.00,0.0345
1605.00,0.0345
1604.00,0.0345
1603.00,0.0346
1602.00,0.0347
1601.00,0.0347
1600.00,0.0348
1599.00,0.0348
1598.00,0.0348
1597.00,0.0349
1596.00,0.0350
1595.00,0.0351
1594.00,0.0352
1593.00,0.0352
1592.00,0.0352
1591.00,0.0352
1590.00,0.0353
1589.00,0.0354
1588.00,0.0354
1587.00,0.0354
1586.00,0.0354
1585.00,0.0354
1584.00,0.0354
1583.00,0.0355
1582.00,0.0355
1581.00,0.0355
1580.00,0.0354
1579.00,0.0354
1578.00,0.0354
1577.00,0.0354
1576.00,0.0355
1575.00,0.0355
1574.00,0.0355
1573.00,0.0355
1572.00,0.0354
1571.00,0.0354
1570.00,0.0354
1569.00,0.0354
1568.00,0.0354
1567.00,0.0353
1566.00,0.0353
1565.00,0.0352
1564.00,0.0352
1563.00,0.0350
1562.00,0.0349
1561.00,0.0347
1560.00,0.0345
1559.00,0.0348
1558.00,0.0350
1557.00,0.0347
1556.00,0.0345
1555.00,0.0344
1554.00,0.0343
1553.00,0.0341
1552.00,0.0340
1551.00,0.0340
1550.00,0.0339
1549.00,0.0338
1548.00,0.0336
1547.00,0.0334
1546.00,0.0331
1545.00,0.0330
1544.00,0.0328
1543.00,0.0327
1542.00,0.0324
1541.00,0.0321
1540.00,0.0320
1539.00,0.0319
1538.00,0.0318
1537.00,0.0317
1536.00,0.0317
1535.00,0.0317
1534.00,0.0317
1533.00,0.0318
1532.00,0.0319
1531.00,0.0319
1530.00,0.0318
1529.00,0.0318
1528.00,0.0317
1527.00,0.0316
1526.00,0.0315
1525.00,0.0315
1524.00,0.0314
1523.00,0.0312
1522.00,0.0310
1521.00,0.0309
1520.00,0.0309
1519.00,0.0309
1518.00,0.0309
1517.00,0.0310
1516.00,0.0309
1515.00,0.0308
1514.00,0.0307
1513.00,0.0306
1512.00,0.0305
1511.00,0.0304
1510.00,0.0303
1509.00,0.0303
1508.00,0.0304
1507.00,0.0306
1506.00,0.0304
1505.00,0.0300
1504.00,0.0298
1503.00,0.0298
1502.00,0.0298
1501.00,0.0297
1500.00,0.0296
1499.00,0.0294
1498.00,0.0293
1497.00,0.0292
1496.00,0.0293
1495.00,0.0293
1494.00,0.0293
1493.00,0.0294
1492.00,0.0295
1491.00,0.0296
1490.00,0.0296
1489.00,0.0297
1488.00,0.0297
1487.00,0.0296
1486.00,0.0295
1485.00,0.0294
1484.00,0.0293
1483.00,0.0293
1482.00,0.0293
1481.00,0.0293
1480.00,0.0293
1479.00,0.0293
1478.00,0.0293
1477.00,0.0293
1476.00,0.0294
1475.00,0.0295
1474.00,0.0296
1473.00,0.0297
1472.00,0.0297
1471.00,0.0296
1470.00,0.0295
1469.00,0.0294
1468.00,0.0294
1467.00,0.0294
1466.00,0.0294
1465.00,0.0295
1464.00,0.0295
1463.00,0.0296
1462.00,0.0296
1461.00,0.0297
1460.00,0.0297
1459.00,0.0297
1458.00,0.0297
1457.00,0.0299
1456.00,0.0301
1455.00,0.0301
1454.00,0.0301
1453.00,0.0302
1452.00,0.0303
1451.00,0.0305
1450.00,0.0306
1449.00,0.0308
1448.00,0.0309
1447.00,0.0310
1446.00,0.0310
1445.00,0.0310
1444.00,0.0310
1443.00,0.0311
1442.00,0.0311
1441.00,0.0311
1440.00,0.0311
1439.00,0.0312
1438.00,0.0312
1437.00,0.0313
1436.00,0.0314
1435.00,0.0315
1434.00,0.0316
1433.00,0.0317
1432.00,0.0318
1431.00,0.0319
1430.00,0.0319
1429.00,0.0320
1428.00,0.0320
1427.00,0.0320
1426.00,0.0320
1425.00,0.0320
1424.00,0.0320
1423.00,0.0320
1422.00,0.0320
1421.00,0.0320
1420.00,0.0320
1419.00,0.0321
1418.00,0.0322
1417.00,0.0323
1416.00,0.0324
1415.00,0.0325
1414.00,0.0324
1413.00,0.0324
1412.00,0.0324
1411.00,0.0324
1410.00,0.0324
1409.00,0.0324
1408.00,0.0323
1407.00,0.0323
1406.00,0.0323
1405.00,0.0324
1404.00,0.0325
1403.00,0.0325
1402.00,0.0324
1401.00,0.0324
1400.00,0.0324
1399.00,0.0325
1398.00,0.0327
1397.00,0.0327
1396.00,0.0328
1395.00,0.0328
1394.00,0.0329
1393.00,0.0329
1392.00,0.0329
1391.00,0.0329
1390.00,0.0329
1389.00,0.0330
1388.00,0.0330
1387.00,0.0331
1386.00,0.0332
1385.00,0.0332
1384.00,0.0332
1383.00,0.0332
1382.00,0.0333
1381.00,0.0333
1380.00,0.0334
1379.00,0.0334
1378.00,0.0334
1377.00,0.0334
1376.00,0.0335
1375.00,0.0337
1374.00,0.0339
1373.00,0.0339
1372.00,0.0339
1371.00,0.0338
1370.00,0.0337
1369.00,0.0337
1368.00,0.0337
1367.00,0.0337
1366.00,0.0337
1365.00,0.0337
1364.00,0.0338
1363.00,0.0339
1362.00,0.0340
1361.00,0.0340
1360.00,0.0339
1359.00,0.0338
1358.00,0.0337
1357.00,0.0337
1356.00,0.0337
1355.00,0.0337
1354.00,0.0337
1353.00,0.0337
1352.00,0.0337
1351.00,0.0337
1350.00,0.0337
1349.00,0.0337
1348.00,0.0338
1347.00,0.0338
1346.00,0.0338
1345.00,0.0337
1344.00,0.0337
1343.00,0.0337
1342.00,0.0337
1341.00,0.0338
1340.00,0.0338
1339.00,0.0338
1338.00,0.0338
1337.00,0.0338
1336.00,0.0338
1335.00,0.0337
1334.00,0.0336
1333.00,0.0336
1332.00,0.0336
1331.00,0.0336
1330.00,0.0337
1329.00,0.0337
1328.00,0.0337
1327.00,0.0336
1326.00,0.0336
1325.00,0.0336
1324.00,0.0336
1323.00,0.0336
1322.00,0.0337
1321.00,0.0337
1320.00,0.0337
1319.00,0.0338
1318.00,0.0338
1317.00,0.0339
1316.00,0.0339
1315.00,0.0339
1314.00,0.0339
1313.00,0.0339
1312.00,0.0340
1311.00,0.0340
1310.00,0.0340
1309.00,0.0340
1308.00,0.0340
1307.00,0.0340
1306.00,0.0341
1305.00,0.0341
1304.00,0.0341
1303.00,0.0342
1302.00,0.0342
1301.00,0.0343
1300.00,0.0343
1299.00,0.0343
1298.00,0.0344
1297.00,0.0344
1296.00,0.0345
1295.00,0.0345
1294.00,0.0346
1293.00,0.0346
1292.00,0.0346
1291.00,0.0347
1290.00,0.0348
1289.00,0.0348
1288.00,0.0348
1287.00,0.0349
1286.00,0.0349
1285.00,0.0350
1284.00,0.0350
1283.00,0.0351
1282.00,0.0352
1281.00,0.0352
1280.00,0.0353
1279.00,0.0354
1278.00,0.0354
1277.00,0.0355
1276.00,0.0355
1275.00,0.0355
1274.00,0.0356
1273.00,0.0357
1272.00,0.0358
1271.00,0.0358
1270.00,0.0359
1269.00,0.0359
1268.00,0.0360
1267.00,0.0360
1266.00,0.0361
1265.00,0.0361
1264.00,0.0362
1263.00,0.0363
1262.00,0.0363
1261.00,0.0364
1260.00,0.0365
1259.00,0.0366
1258.00,0.0367
1257.00,0.0367
1256.00,0.0368
1255.00,0.0369
1254.00,0.0369
1253.00,0.0370
1252.00,0.0371
1251.00,0.0371
1250.00,0.0372
1249.00,0.0373
1248.00,0.0374
1247.00,0.0375
1246.00,0.0375
1245.00,0.0375
1244.00,0.0376
1243.00,0.0376
1242.00,0.0377
1241.00,0.0378
1240.00,0.0378
1239.00,0.0379
1238.00,0.0379
1237.00,0.0379
1236.00,0.0379
1235.00,0.0380
1234.00,0.0380
1233.00,0.0380
1232.00,0.0381
1231.00,0.0380
1230.00,0.0380
1229.00,0.0381
1228.00,0.0382
1227.00,0.0383
1226.00,0.0383
1225.00,0.0383
1224.00,0.0383
1223.00,0.0384
1222.00,0.0384
1221.00,0.0385
1220.00,0.0385
1219.00,0.0384
1218.00,0.0384
1217.00,0.0383
1216.00,0.0384
1215.00,0.0384
1214.00,0.0385
1213.00,0.0386
1212.00,0.0387
1211.00,0.0387
1210.00,0.0387
1209.00,0.0387
1208.00,0.0387
1207.00,0.0388
1206.00,0.0388
1205.00,0.0388
1204.00,0.0388
1203.00,0.0389
1202.00,0.0390
1201.00,0.0390
1200.00,0.0390
1199.00,0.0390
1198.00,0.0391
1197.00,0.0391
1196.00,0.0392
1195.00,0.0392
1194.00,0.0391
1193.00,0.0391
1192.00,0.0391
1191.00,0.0391
1190.00,0.0391
1189.00,0.0391
1188.00,0.0391
1187.00,0.0391
1186.00,0.0391
1185.00,0.0392
1184.00,0.0393
1183.00,0.0394
1182.00,0.0395
1181.00,0.0395
1180.00,0.0396
1179.00,0.0396
1178.00,0.0397
1177.00,0.0398
1176.00,0.0399
1175.00,0.0399
1174.00,0.0399
1173.00,0.0399
1172.00,0.0399
1171.00,0.0399
1170.00,0.0399
1169.00,0.0399
1168.00,0.0399
1167.00,0.0400
1166.00,0.0400
1165.00,0.0400
1164.00,0.0400
1163.00,0.0400
1162.00,0.0400
1161.00,0.0400
1160.00,0.0399
1159.00,0.0398
1158.00,0.0398
1157.00,0.0399
1156.00,0.0401
1155.00,0.0401
1154.00,0.0401
1153.00,0.0400
1152.00,0.0400
1151.00,0.0400
1150.00,0.0400
1149.00,0.0400
1148.00,0.0400
1147.00,0.0401
1146.00,0.0402
1145.00,0.0403
1144.00,0.0404
1143.00,0.0404
1142.00,0.0405
1141.00,0.0406
1140.00,0.0407
1139.00,0.0407
1138.00,0.0407
1137.00,0.0407
1136.00,0.0407
1135.00,0.0409
1134.00,0.0411
1133.00,0.0412
1132.00,0.0413
1131.00,0.0414
1130.00,0.0416
1129.00,0.0418
1128.00,0.0421
1127.00,0.0423
1126.00,0.0424
1125.00,0.0427
1124.00,0.0430
1123.00,0.0434
1122.00,0.0437
1121.00,0.0441
1120.00,0.0445
1119.00,0.0448
1118.00,0.0451
1117.00,0.0454
1116.00,0.0456
1115.00,0.0458
1114.00,0.0458
1113.00,0.0458
1112.00,0.0459
1111.00,0.0460
1110.00,0.0463
1109.00,0.0465
1108.00,0.0467
1107.00,0.0469
1106.00,0.0471
1105.00,0.0473
1104.00,0.0474
1103.00,0.0475
1102.00,0.0477
1101.00,0.0478
1100.00,0.0479
1099.00,0.0479
1098.00,0.0480
1097.00,0.0480
1096.00,0.0481
1095.00,0.0482
1094.00,0.0483
1093.00,0.0483
1092.00,0.0484
1091.00,0.0484
1090.00,0.0485
1089.00,0.0486
1088.00,0.0487
1087.00,0.0487
1086.00,0.0486
1085.00,0.0486
1084.00,0.0486
1083.00,0.0487
1082.00,0.0487
1081.00,0.0485
1080.00,0.0484
1079.00,0.0485
1078.00,0.0487
1077.00,0.0489
1076.00,0.0491
1075.00,0.0493
1074.00,0.0494
1073.00,0.0495
1072.00,0.0495
1071.00,0.0496
1070.00,0.0496
1069.00,0.0496
1068.00,0.0496
1067.00,0.0497
1066.00,0.0498
1065.00,0.0499
1064.00,0.0501
1063.00,0.0502
1062.00,0.0503
1061.00,0.0504
1060.00,0.0506
1059.00,0.0508
1058.00,0.0509
1057.00,0.0510
1056.00,0.0510
1055.00,0.0512
1054.00,0.0514
1053.00,0.0516
1052.00,0.0519
1051.00,0.0522
1050.00,0.0524
1049.00,0.0526
1048.00,0.0528
1047.00,0.0529
1046.00,0.0530
1045.00,0.0532
1044.00,0.0534
1043.00,0.0537
1042.00,0.0541
1041.00,0.0545
1040.00,0.0547
1039.00,0.0549
1038.00,0.0552
1037.00,0.0555
1036.00,0.0558
1035.00,0.0559
1034.00,0.0559
1033.00,0.0558
1032.00,0.0558
1031.00,0.0557
1030.00,0.0555
1029.00,0.0551
1028.00,0.0547
1027.00,0.0543
1026.00,0.0540
1025.00,0.0536
1024.00,0.0533
1023.00,0.0530
1022.00,0.0529
1021.00,0.0528
1020.00,0.0527
1019.00,0.0526
1018.00,0.0525
1017.00,0.0524
1016.00,0.0524
1015.00,0.0524
1014.00,0.0525
1013.00,0.0526
1012.00,0.0527
1011.00,0.0529
1010.00,0.0530
1009.00,0.0531
1008.00,0.0532
1007.00,0.0532
1006.00,0.0532
1005.00,0.0531
1004.00,0.0529
1003.00,0.0528
1002.00,0.0526
1001.00,0.0525
1000.00,0.0522
999.00,0.0517
998.00,0.0512
997.00,0.0508
996.00,0.0504
995.00,0.0500
994.00,0.0496
993.00,0.0491
992.00,0.0488
991.00,0.0485
990.00,0.0483
989.00,0.0479
988.00,0.0475
987.00,0.0471
986.00,0.0468
985.00,0.0467
984.00,0.0465
983.00,0.0463
982.00,0.0461
981.00,0.0459
980.00,0.0458
979.00,0.0456
978.00,0.0453
977.00,0.0450
976.00,0.0448
975.00,0.0446
974.00,0.0445
973.00,0.0443
972.00,0.0441
971.00,0.0439
970.00,0.0437
969.00,0.0436
968.00,0.0436
967.00,0.0434
966.00,0.0433
965.00,0.0431
964.00,0.0430
963.00,0.0429
962.00,0.0427
961.00,0.0426
960.00,0.0426
959.00,0.0425
958.00,0.0425
957.00,0.0423
956.00,0.0422
955.00,0.0422
954.00,0.0421
953.00,0.0421
952.00,0.0420
951.00,0.0420
950.00,0.0421
949.00,0.0421
948.00,0.0421
947.00,0.0420
946.00,0.0419
945.00,0.0420
944.00,0.0422
943.00,0.0423
942.00,0.0423
941.00,0.0423
940.00,0.0424
939.00,0.0426
938.00,0.0427
937.00,0.0427
936.00,0.0426
935.00,0.0426
934.00,0.0426
933.00,0.0427
932.00,0.0427
931.00,0.0425
930.00,0.0423
929.00,0.0421
928.00,0.0421
927.00,0.0422
926.00,0.0422
925.00,0.0422
924.00,0.0423
923.00,0.0425
922.00,0.0428
921.00,0.0431
920.00,0.0433
919.00,0.0436
918.00,0.0440
917.00,0.0443
916.00,0.0446
915.00,0.0447
914.00,0.0447
913.00,0.0447
912.00,0.0447
911.00,0.0445
910.00,0.0444
909.00,0.0443
908.00,0.0442
907.00,0.0442
906.00,0.0440
905.00,0.0438
904.00,0.0436
903.00,0.0434
902.00,0.0432
901.00,0.0430
900.00,0.0429
899.00,0.0429
898.00,0.0429
897.00,0.0429
896.00,0.0427
895.00,0.0425
894.00,0.0423
893.00,0.0422
892.00,0.0422
891.00,0.0420
890.00,0.0418
889.00,0.0417
888.00,0.0417
887.00,0.0419
886.00,0.0420
885.00,0.0419
884.00,0.0417
883.00,0.0415
882.00,0.0415
881.00,0.0416
880.00,0.0416
879.00,0.0415
878.00,0.0414
877.00,0.0415
876.00,0.0417
875.00,0.0417
874.00,0.0415
873.00,0.0412
872.00,0.0412
871.00,0.0412
870.00,0.0411
869.00,0.0410
868.00,0.0408
867.00,0.0406
866.00,0.0405
865.00,0.0405
864.00,0.0405
863.00,0.0406
862.00,0.0406
861.00,0.0406
860.00,0.0406
859.00,0.0405
858.00,0.0405
857.00,0.0407
856.00,0.0407
855.00,0.0407
854.00,0.0405
853.00,0.0404
852.00,0.0403
851.00,0.0404
850.00,0.0405
849.00,0.0405
848.00,0.0404
847.00,0.0404
846.00,0.0406
845.00,0.0409
844.00,0.0412
843.00,0.0413
842.00,0.0413
841.00,0.0412
840.00,0.0414
839.00,0.0416
838.00,0.0416
837.00,0.0416
836.00,0.0417
835.00,0.0418
834.00,0.0418
833.00,0.0418
832.00,0.0418
831.00,0.0418
830.00,0.0419
829.00,0.0421
828.00,0.0423
827.00,0.0424
826.00,0.0426
825.00,0.0428
824.00,0.0430
823.00,0.0430
822.00,0.0430
821.00,0.0432
820.00,0.0434
819.00,0.0436
818.00,0.0435
817.00,0.0435
816.00,0.0436
815.00,0.0438
814.00,0.0440
813.00,0.0440
812.00,0.0439
811.00,0.0439
810.00,0.0440
809.00,0.0441
808.00,0.0444
807.00,0.0447
806.00,0.0450
805.00,0.0453
804.00,0.0457
803.00,0.0460
802.00,0.0463
801.00,0.0467
800.00,0.0470
799.00,0.0472
798.00,0.0472
797.00,0.0471
796.00,0.0470
795.00,0.0470
794.00,0.0471
793.00,0.0471
792.00,0.0470
791.00,0.0469
790.00,0.0468
789.00,0.0469
788.00,0.0470
787.00,0.0470
786.00,0.0468
785.00,0.0466
784.00,0.0467
783.00,0.0468
782.00,0.0470
781.00,0.0471
780.00,0.0471
779.00,0.0471
778.00,0.0472
777.00,0.0472
776.00,0.0471
775.00,0.0471
774.00,0.0471
773.00,0.0471
772.00,0.0470
771.00,0.0469
770.00,0.0469
769.00,0.0470
768.00,0.0472
767.00,0.0473
766.00,0.0473
765.00,0.0473
764.00,0.0473
763.00,0.0473
762.00,0.0473
761.00,0.0473
760.00,0.0474
759.00,0.0477
758.00,0.0481
757.00,0.0484
756.00,0.0485
755.00,0.0485
754.00,0.0485
753.00,0.0484
752.00,0.0484
751.00,0.0482
750.00,0.0481
749.00,0.0481
748.00,0.0484
747.00,0.0486
746.00,0.0485
745.00,0.0482
744.00,0.0480
743.00,0.0479
742.00,0.0480
741.00,0.0480
740.00,0.0479
739.00,0.0478
738.00,0.0477
737.00,0.0478
736.00,0.0479
735.00,0.0480
734.00,0.0479
733.00,0.0480
732.00,0.0482
731.00,0.0483
730.00,0.0482
729.00,0.0481
728.00,0.0480
727.00,0.0480
726.00,0.0480
725.00,0.0481
724.00,0.0481
723.00,0.0481
722.00,0.0481
721.00,0.0481
720.00,0.0483
719.00,0.0485
718.00,0.0487
717.00,0.0488
716.00,0.0487
715.00,0.0486
714.00,0.0487
713.00,0.0487
712.00,0.0487
711.00,0.0487
710.00,0.0486
709.00,0.0487
708.00,0.0490
707.00,0.0495
706.00,0.0499
705.00,0.0501
704.00,0.0503
703.00,0.0505
702.00,0.0509
701.00,0.0512
700.00,0.0512
699.00,0.0509
698.00,0.0505
697.00,0.0505
696.00,0.0508
695.00,0.0509
694.00,0.0508
693.00,0.0505
692.00,0.0504
691.00,0.0505
690.00,0.0505
689.00,0.0505
688.00,0.0505
687.00,0.0507
686.00,0.0512
685.00,0.0518
684.00,0.0521
683.00,0.0519
682.00,0.0514
681.00,0.0510
680.00,0.0506
679.00,0.0503
678.00,0.0501
677.00,0.0499
676.00,0.0500
675.00,0.0504
674.00,0.0510
673.00,0.0517
672.00,0.0521
671.00,0.0520
670.00,0.0512
669.00,0.0504
668.00,0.0505
667.00,0.0516
666.00,0.0524
665.00,0.0524
664.00,0.0521
663.00,0.0517
662.00,0.0514
661.00,0.0516
660.00,0.0520
659.00,0.0521
658.00,0.0518
657.00,0.0516
656.00,0.0522
655.00,0.0532
654.00,0.0538
653.00,0.0536
652.00,0.0529
651.00,0.0526
650.00,0.0526
