Created as New Dataset,Monday, April 03 2023
cm-1,A
4000.00,0.0195
3999.00,0.0195
3998.00,0.0195
3997.00,0.0195
3996.00,0.0195
3995.00,0.0195
3994.00,0.0195
3993.00,0.0195
3992.00,0.0195
3991.00,0.0195
3990.00,0.0195
3989.00,0.0195
3988.00,0.0195
3987.00,0.0195
3986.00,0.0195
3985.00,0.0195
3984.00,0.0195
3983.00,0.0194
3982.00,0.0194
3981.00,0.0194
3980.00,0.0194
3979.00,0.0195
3978.00,0.0195
3977.00,0.0195
3976.00,0.0195
3975.00,0.0194
3974.00,0.0194
3973.00,0.0194
3972.00,0.0194
3971.00,0.0195
3970.00,0.0194
3969.00,0.0194
3968.00,0.0194
3967.00,0.0194
3966.00,0.0194
3965.00,0.0194
3964.00,0.0194
3963.00,0.0195
3962.00,0.0195
3961.00,0.0195
3960.00,0.0195
3959.00,0.0195
3958.00,0.0195
3957.00,0.0195
3956.00,0.0195
3955.00,0.0195
3954.00,0.0195
3953.00,0.0195
3952.00,0.0195
3951.00,0.0195
3950.00,0.0195
3949.00,0.0195
3948.00,0.0195
3947.00,0.0195
3946.00,0.0195
3945.00,0.0195
3944.00,0.0196
3943.00,0.0195
3942.00,0.0195
3941.00,0.0194
3940.00,0.0194
3939.00,0.0194
3938.00,0.0195
3937.00,0.0195
3936.00,0.0195
3935.00,0.0196
3934.00,0.0196
3933.00,0.0197
3932.00,0.0196
3931.00,0.0196
3930.00,0.0195
3929.00,0.0195
3928.00,0.0195
3927.00,0.0195
3926.00,0.0195
3925.00,0.0195
3924.00,0.0195
3923.00,0.0194
3922.00,0.0194
3921.00,0.0194
3920.00,0.0194
3919.00,0.0194
3918.00,0.0194
3917.00,0.0194
3916.00,0.0193
3915.00,0.0193
3914.00,0.0193
3913.00,0.0193
3912.00,0.0194
3911.00,0.0194
3910.00,0.0194
3909.00,0.0194
3908.00,0.0194
3907.00,0.0195
3906.00,0.0195
3905.00,0.0195
3904.00,0.0195
3903.00,0.0195
3902.00,0.0195
3901.00,0.0195
3900.00,0.0195
3899.00,0.0194
3898.00,0.0193
3897.00,0.0194
3896.00,0.0194
3895.00,0.0195
3894.00,0.0194
3893.00,0.0194
3892.00,0.0194
3891.00,0.0193
3890.00,0.0192
3889.00,0.0193
3888.00,0.0194
3887.00,0.0195
3886.00,0.0195
3885.00,0.0194
3884.00,0.0194
3883.00,0.0194
3882.00,0.0195
3881.00,0.0195
3880.00,0.0193
3879.00,0.0192
3878.00,0.0192
3877.00,0.0194
3876.00,0.0195
3875.00,0.0195
3874.00,0.0194
3873.00,0.0194
3872.00,0.0195
3871.00,0.0195
3870.00,0.0195
3869.00,0.0194
3868.00,0.0194
3867.00,0.0195
3866.00,0.0197
3865.00,0.0197
3864.00,0.0196
3863.00,0.0195
3862.00,0.0194
3861.00,0.0194
3860.00,0.0194
3859.00,0.0194
3858.00,0.0193
3857.00,0.0192
3856.00,0.0191
3855.00,0.0192
3854.00,0.0195
3853.00,0.0195
3852.00,0.0193
3851.00,0.0193
3850.00,0.0195
3849.00,0.0196
3848.00,0.0195
3847.00,0.0194
3846.00,0.0193
3845.00,0.0193
3844.00,0.0193
3843.00,0.0193
3842.00,0.0194
3841.00,0.0194
3840.00,0.0194
3839.00,0.0195
3838.00,0.0195
3837.00,0.0194
3836.00,0.0194
3835.00,0.0193
3834.00,0.0193
3833.00,0.0193
3832.00,0.0193
3831.00,0.0193
3830.00,0.0193
3829.00,0.0194
3828.00,0.0194
3827.00,0.0194
3826.00,0.0193
3825.00,0.0192
3824.00,0.0192
3823.00,0.0192
3822.00,0.0193
3821.00,0.0193
3820.00,0.0192
3819.00,0.0192
3818.00,0.0194
3817.00,0.0195
3816.00,0.0194
3815.00,0.0193
3814.00,0.0192
3813.00,0.0193
3812.00,0.0193
3811.00,0.0192
3810.00,0.0190
3809.00,0.0190
3808.00,0.0190
3807.00,0.0191
3806.00,0.0191
3805.00,0.0192
3804.00,0.0193
3803.00,0.0194
3802.00,0.0195
3801.00,0.0194
3800.00,0.0193
3799.00,0.0194
3798.00,0.0195
3797.00,0.0194
3796.00,0.0193
3795.00,0.0191
3794.00,0.0191
3793.00,0.0191
3792.00,0.0190
3791.00,0.0190
3790.00,0.0190
3789.00,0.0191
3788.00,0.0191
3787.00,0.0191
3786.00,0.0191
3785.00,0.0191
3784.00,0.0190
3783.00,0.0190
3782.00,0.0190
3781.00,0.0190
3780.00,0.0190
3779.00,0.0190
3778.00,0.0189
3777.00,0.0189
3776.00,0.0189
3775.00,0.0189
3774.00,0.0189
3773.00,0.0189
3772.00,0.0189
3771.00,0.0190
3770.00,0.0190
3769.00,0.0189
3768.00,0.0189
3767.00,0.0190
3766.00,0.0190
3765.00,0.0189
3764.00,0.0188
3763.00,0.0188
3762.00,0.0189
3761.00,0.0190
3760.00,0.0191
3759.00,0.0191
3758.00,0.0190
3757.00,0.0190
3756.00,0.0189
3755.00,0.0188
3754.00,0.0188
3753.00,0.0188
3752.00,0.0189
3751.00,0.0191
3750.00,0.0191
3749.00,0.0191
3748.00,0.0190
3747.00,0.0190
3746.00,0.0190
3745.00,0.0190
3744.00,0.0189
3743.00,0.0187
3742.00,0.0188
3741.00,0.0190
3740.00,0.0191
3739.00,0.0190
3738.00,0.0189
3737.00,0.0189
3736.00,0.0189
3735.00,0.0188
3734.00,0.0187
3733.00,0.0186
3732.00,0.0185
3731.00,0.0185
3730.00,0.0185
3729.00,0.0187
3728.00,0.0188
3727.00,0.0188
3726.00,0.0187
3725.00,0.0186
3724.00,0.0186
3723.00,0.0186
3722.00,0.0186
3721.00,0.0186
3720.00,0.0186
3719.00,0.0186
3718.00,0.0186
3717.00,0.0186
3716.00,0.0187
3715.00,0.0187
3714.00,0.0187
3713.00,0.0186
3712.00,0.0186
3711.00,0.0186
3710.00,0.0186
3709.00,0.0186
3708.00,0.0187
3707.00,0.0188
3706.00,0.0188
3705.00,0.0188
3704.00,0.0188
3703.00,0.0189
3702.00,0.0189
3701.00,0.0189
3700.00,0.0189
3699.00,0.0190
3698.00,0.0191
3697.00,0.0192
3696.00,0.0191
3695.00,0.0191
3694.00,0.0191
3693.00,0.0190
3692.00,0.0190
3691.00,0.0190
3690.00,0.0191
3689.00,0.0192
3688.00,0.0192
3687.00,0.0192
3686.00,0.0192
3685.00,0.0192
3684.00,0.0192
3683.00,0.0191
3682.00,0.0190
3681.00,0.0189
3680.00,0.0188
3679.00,0.0187
3678.00,0.0186
3677.00,0.0188
3676.00,0.0190
3675.00,0.0191
3674.00,0.0190
3673.00,0.0191
3672.00,0.0193
3671.00,0.0193
3670.00,0.0192
3669.00,0.0191
3668.00,0.0190
3667.00,0.0191
3666.00,0.0192
3665.00,0.0192
3664.00,0.0193
3663.00,0.0193
3662.00,0.0194
3661.00,0.0194
3660.00,0.0194
3659.00,0.0195
3658.00,0.0196
3657.00,0.0197
3656.00,0.0198
3655.00,0.0198
3654.00,0.0199
3653.00,0.0200
3652.00,0.0200
3651.00,0.0201
3650.00,0.0204
3649.00,0.0206
3648.00,0.0206
3647.00,0.0205
3646.00,0.0204
3645.00,0.0205
3644.00,0.0205
3643.00,0.0206
3642.00,0.0206
3641.00,0.0207
3640.00,0.0207
3639.00,0.0207
3638.00,0.0207
3637.00,0.0207
3636.00,0.0208
3635.00,0.0209
3634.00,0.0209
3633.00,0.0209
3632.00,0.0209
3631.00,0.0210
3630.00,0.0212
3629.00,0.0215
3628.00,0.0215
3627.00,0.0215
3626.00,0.0217
3625.00,0.0219
3624.00,0.0220
3623.00,0.0220
3622.00,0.0220
3621.00,0.0222
3620.00,0.0224
3619.00,0.0225
3618.00,0.0225
3617.00,0.0225
3616.00,0.0225
3615.00,0.0226
3614.00,0.0226
3613.00,0.0225
3612.00,0.0225
3611.00,0.0226
3610.00,0.0227
3609.00,0.0228
3608.00,0.0228
3607.00,0.0227
3606.00,0.0227
3605.00,0.0228
3604.00,0.0228
3603.00,0.0229
3602.00,0.0230
3601.00,0.0230
3600.00,0.0231
3599.00,0.0231
3598.00,0.0231
3597.00,0.0232
3596.00,0.0232
3595.00,0.0233
3594.00,0.0234
3593.00,0.0234
3592.00,0.0234
3591.00,0.0235
3590.00,0.0235
3589.00,0.0235
3588.00,0.0236
3587.00,0.0235
3586.00,0.0235
3585.00,0.0235
3584.00,0.0236
3583.00,0.0237
3582.00,0.0237
3581.00,0.0238
3580.00,0.0238
3579.00,0.0239
3578.00,0.0239
3577.00,0.0239
3576.00,0.0239
3575.00,0.0240
3574.00,0.0240
3573.00,0.0241
3572.00,0.0241
3571.00,0.0241
3570.00,0.0242
3569.00,0.0243
3568.00,0.0246
3567.00,0.0247
3566.00,0.0247
3565.00,0.0247
3564.00,0.0247
3563.00,0.0247
3562.00,0.0247
3561.00,0.0246
3560.00,0.0246
3559.00,0.0246
3558.00,0.0246
3557.00,0.0247
3556.00,0.0248
3555.00,0.0249
3554.00,0.0250
3553.00,0.0251
3552.00,0.0252
3551.00,0.0252
3550.00,0.0253
3549.00,0.0253
3548.00,0.0254
3547.00,0.0255
3546.00,0.0255
3545.00,0.0255
3544.00,0.0255
3543.00,0.0255
3542.00,0.0255
3541.00,0.0255
3540.00,0.0255
3539.00,0.0255
3538.00,0.0256
3537.00,0.0257
3536.00,0.0258
3535.00,0.0258
3534.00,0.0258
3533.00,0.0258
3532.00,0.0259
3531.00,0.0259
3530.00,0.0259
3529.00,0.0260
3528.00,0.0261
3527.00,0.0262
3526.00,0.0263
3525.00,0.0263
3524.00,0.0263
3523.00,0.0263
3522.00,0.0263
3521.00,0.0263
3520.00,0.0263
3519.00,0.0264
3518.00,0.0264
3517.00,0.0265
3516.00,0.0265
3515.00,0.0265
3514.00,0.0265
3513.00,0.0265
3512.00,0.0265
3511.00,0.0266
3510.00,0.0266
3509.00,0.0267
3508.00,0.0268
3507.00,0.0268
3506.00,0.0269
3505.00,0.0269
3504.00,0.0270
3503.00,0.0271
3502.00,0.0271
3501.00,0.0271
3500.00,0.0271
3499.00,0.0271
3498.00,0.0272
3497.00,0.0273
3496.00,0.0274
3495.00,0.0274
3494.00,0.0274
3493.00,0.0274
3492.00,0.0274
3491.00,0.0274
3490.00,0.0275
3489.00,0.0275
3488.00,0.0276
3487.00,0.0276
3486.00,0.0276
3485.00,0.0276
3484.00,0.0277
3483.00,0.0277
3482.00,0.0277
3481.00,0.0278
3480.00,0.0278
3479.00,0.0279
3478.00,0.0279
3477.00,0.0280
3476.00,0.0280
3475.00,0.0281
3474.00,0.0281
3473.00,0.0281
3472.00,0.0281
3471.00,0.0282
3470.00,0.0282
3469.00,0.0283
3468.00,0.0283
3467.00,0.0284
3466.00,0.0284
3465.00,0.0284
3464.00,0.0284
3463.00,0.0284
3462.00,0.0285
3461.00,0.0285
3460.00,0.0286
3459.00,0.0286
3458.00,0.0286
3457.00,0.0286
3456.00,0.0286
3455.00,0.0286
3454.00,0.0286
3453.00,0.0287
3452.00,0.0288
3451.00,0.0288
3450.00,0.0289
3449.00,0.0289
3448.00,0.0290
3447.00,0.0290
3446.00,0.0290
3445.00,0.0291
3444.00,0.0291
3443.00,0.0292
3442.00,0.0292
3441.00,0.0292
3440.00,0.0292
3439.00,0.0292
3438.00,0.0293
3437.00,0.0293
3436.00,0.0293
3435.00,0.0294
3434.00,0.0294
3433.00,0.0294
3432.00,0.0295
3431.00,0.0295
3430.00,0.0295
3429.00,0.0295
3428.00,0.0295
3427.00,0.0296
3426.00,0.0296
3425.00,0.0297
3424.00,0.0297
3423.00,0.0298
3422.00,0.0298
3421.00,0.0298
3420.00,0.0299
3419.00,0.0299
3418.00,0.0299
3417.00,0.0299
3416.00,0.0299
3415.00,0.0299
3414.00,0.0299
3413.00,0.0299
3412.00,0.0300
3411.00,0.0300
3410.00,0.0300
3409.00,0.0300
3408.00,0.0300
3407.00,0.0300
3406.00,0.0301
3405.00,0.0302
3404.00,0.0303
3403.00,0.0303
3402.00,0.0304
3401.00,0.0304
3400.00,0.0304
3399.00,0.0303
3398.00,0.0303
3397.00,0.0303
3396.00,0.0303
3395.00,0.0304
3394.00,0.0304
3393.00,0.0305
3392.00,0.0305
3391.00,0.0305
3390.00,0.0305
3389.00,0.0305
3388.00,0.0305
3387.00,0.0305
3386.00,0.0306
3385.00,0.0306
3384.00,0.0307
3383.00,0.0307
3382.00,0.0307
3381.00,0.0307
3380.00,0.0308
3379.00,0.0308
3378.00,0.0308
3377.00,0.0308
3376.00,0.0308
3375.00,0.0308
3374.00,0.0308
3373.00,0.0308
3372.00,0.0308
3371.00,0.0308
3370.00,0.0308
3369.00,0.0309
3368.00,0.0309
3367.00,0.0309
3366.00,0.0309
3365.00,0.0310
3364.00,0.0311
3363.00,0.0311
3362.00,0.0311
3361.00,0.0311
3360.00,0.0311
3359.00,0.0311
3358.00,0.0311
3357.00,0.0311
3356.00,0.0312
3355.00,0.0312
3354.00,0.0312
3353.00,0.0312
3352.00,0.0312
3351.00,0.0313
3350.00,0.0313
3349.00,0.0313
3348.00,0.0313
3347.00,0.0313
3346.00,0.0312
3345.00,0.0312
3344.00,0.0312
3343.00,0.0313
3342.00,0.0313
3341.00,0.0314
3340.00,0.0314
3339.00,0.0314
3338.00,0.0314
3337.00,0.0314
3336.00,0.0314
3335.00,0.0314
3334.00,0.0314
3333.00,0.0314
3332.00,0.0314
3331.00,0.0314
3330.00,0.0314
3329.00,0.0314
3328.00,0.0314
3327.00,0.0315
3326.00,0.0315
3325.00,0.0315
3324.00,0.0315
3323.00,0.0315
3322.00,0.0315
3321.00,0.0315
3320.00,0.0315
3319.00,0.0316
3318.00,0.0316
3317.00,0.0316
3316.00,0.0316
3315.00,0.0316
3314.00,0.0316
3313.00,0.0316
3312.00,0.0316
3311.00,0.0316
3310.00,0.0316
3309.00,0.0316
3308.00,0.0316
3307.00,0.0316
3306.00,0.0316
3305.00,0.0316
3304.00,0.0316
3303.00,0.0316
3302.00,0.0317
3301.00,0.0318
3300.00,0.0318
3299.00,0.0318
3298.00,0.0318
3297.00,0.0318
3296.00,0.0318
3295.00,0.0317
3294.00,0.0317
3293.00,0.0317
3292.00,0.0318
3291.00,0.0318
3290.00,0.0319
3289.00,0.0319
3288.00,0.0319
3287.00,0.0319
3286.00,0.0319
3285.00,0.0319
3284.00,0.0318
3283.00,0.0318
3282.00,0.0318
3281.00,0.0318
3280.00,0.0318
3279.00,0.0318
3278.00,0.0319
3277.00,0.0319
3276.00,0.0320
3275.00,0.0320
3274.00,0.0319
3273.00,0.0319
3272.00,0.0319
3271.00,0.0319
3270.00,0.0319
3269.00,0.0319
3268.00,0.0319
3267.00,0.0319
3266.00,0.0319
3265.00,0.0319
3264.00,0.0319
3263.00,0.0319
3262.00,0.0319
3261.00,0.0319
3260.00,0.0319
3259.00,0.0319
3258.00,0.0319
3257.00,0.0319
3256.00,0.0319
3255.00,0.0319
3254.00,0.0319
3253.00,0.0319
3252.00,0.0319
3251.00,0.0320
3250.00,0.0320
3249.00,0.0320
3248.00,0.0320
3247.00,0.0320
3246.00,0.0320
3245.00,0.0320
3244.00,0.0320
3243.00,0.0320
3242.00,0.0320
3241.00,0.0320
3240.00,0.0320
3239.00,0.0320
3238.00,0.0320
3237.00,0.0321
3236.00,0.0320
3235.00,0.0320
3234.00,0.0320
3233.00,0.0320
3232.00,0.0320
3231.00,0.0320
3230.00,0.0320
3229.00,0.0320
3228.00,0.0320
3227.00,0.0320
3226.00,0.0320
3225.00,0.0320
3224.00,0.0320
3223.00,0.0320
3222.00,0.0320
3221.00,0.0320
3220.00,0.0320
3219.00,0.0320
3218.00,0.0320
3217.00,0.0320
3216.00,0.0320
3215.00,0.0320
3214.00,0.0320
3213.00,0.0320
3212.00,0.0319
3211.00,0.0319
3210.00,0.0319
3209.00,0.0319
3208.00,0.0318
3207.00,0.0318
3206.00,0.0318
3205.00,0.0319
3204.00,0.0319
3203.00,0.0319
3202.00,0.0319
3201.00,0.0319
3200.00,0.0319
3199.00,0.0319
3198.00,0.0319
3197.00,0.0318
3196.00,0.0318
3195.00,0.0318
3194.00,0.0318
3193.00,0.0318
3192.00,0.0318
3191.00,0.0318
3190.00,0.0318
3189.00,0.0317
3188.00,0.0317
3187.00,0.0317
3186.00,0.0318
3185.00,0.0318
3184.00,0.0318
3183.00,0.0317
3182.00,0.0317
3181.00,0.0316
3180.00,0.0316
3179.00,0.0316
3178.00,0.0316
3177.00,0.0315
3176.00,0.0315
3175.00,0.0315
3174.00,0.0315
3173.00,0.0315
3172.00,0.0315
3171.00,0.0316
3170.00,0.0316
3169.00,0.0316
3168.00,0.0316
3167.00,0.0315
3166.00,0.0315
3165.00,0.0315
3164.00,0.0315
3163.00,0.0315
3162.00,0.0314
3161.00,0.0314
3160.00,0.0314
3159.00,0.0314
3158.00,0.0314
3157.00,0.0313
3156.00,0.0313
3155.00,0.0312
3154.00,0.0312
3153.00,0.0312
3152.00,0.0312
3151.00,0.0312
3150.00,0.0312
3149.00,0.0312
3148.00,0.0312
3147.00,0.0312
3146.00,0.0312
3145.00,0.0312
3144.00,0.0312
3143.00,0.0311
3142.00,0.0311
3141.00,0.0310
3140.00,0.0311
3139.00,0.0311
3138.00,0.0311
3137.00,0.0310
3136.00,0.0310
3135.00,0.0310
3134.00,0.0309
3133.00,0.0309
3132.00,0.0309
3131.00,0.0309
3130.00,0.0309
3129.00,0.0309
3128.00,0.0309
3127.00,0.0308
3126.00,0.0308
3125.00,0.0308
3124.00,0.0308
3123.00,0.0307
3122.00,0.0307
3121.00,0.0307
3120.00,0.0308
3119.00,0.0308
3118.00,0.0308
3117.00,0.0307
3116.00,0.0307
3115.00,0.0306
3114.00,0.0306
3113.00,0.0306
3112.00,0.0306
3111.00,0.0305
3110.00,0.0305
3109.00,0.0305
3108.00,0.0305
3107.00,0.0306
3106.00,0.0306
3105.00,0.0306
3104.00,0.0305
3103.00,0.0305
3102.00,0.0305
3101.00,0.0305
3100.00,0.0305
3099.00,0.0304
3098.00,0.0303
3097.00,0.0303
3096.00,0.0303
3095.00,0.0303
3094.00,0.0303
3093.00,0.0303
3092.00,0.0303
3091.00,0.0303
3090.00,0.0303
3089.00,0.0303
3088.00,0.0303
3087.00,0.0303
3086.00,0.0303
3085.00,0.0303
3084.00,0.0303
3083.00,0.0303
3082.00,0.0303
3081.00,0.0303
3080.00,0.0303
3079.00,0.0302
3078.00,0.0302
3077.00,0.0302
3076.00,0.0301
3075.00,0.0301
3074.00,0.0301
3073.00,0.0301
3072.00,0.0300
3071.00,0.0300
3070.00,0.0300
3069.00,0.0300
3068.00,0.0300
3067.00,0.0300
3066.00,0.0301
3065.00,0.0301
3064.00,0.0300
3063.00,0.0300
3062.00,0.0299
3061.00,0.0299
3060.00,0.0299
3059.00,0.0298
3058.00,0.0298
3057.00,0.0298
3056.00,0.0298
3055.00,0.0298
3054.00,0.0297
3053.00,0.0297
3052.00,0.0297
3051.00,0.0297
3050.00,0.0297
3049.00,0.0297
3048.00,0.0297
3047.00,0.0297
3046.00,0.0296
3045.00,0.0296
3044.00,0.0296
3043.00,0.0296
3042.00,0.0295
3041.00,0.0294
3040.00,0.0294
3039.00,0.0294
3038.00,0.0294
3037.00,0.0294
3036.00,0.0294
3035.00,0.0294
3034.00,0.0294
3033.00,0.0293
3032.00,0.0293
3031.00,0.0292
3030.00,0.0292
3029.00,0.0291
3028.00,0.0291
3027.00,0.0291
3026.00,0.0291
3025.00,0.0291
3024.00,0.0291
3023.00,0.0291
3022.00,0.0290
3021.00,0.0290
3020.00,0.0289
3019.00,0.0289
3018.00,0.0289
3017.00,0.0289
3016.00,0.0289
3015.00,0.0289
3014.00,0.0289
3013.00,0.0289
3012.00,0.0288
3011.00,0.0288
3010.00,0.0287
3009.00,0.0287
3008.00,0.0286
3007.00,0.0286
3006.00,0.0286
3005.00,0.0286
3004.00,0.0286
3003.00,0.0286
3002.00,0.0285
3001.00,0.0285
3000.00,0.0285
2999.00,0.0284
2998.00,0.0284
2997.00,0.0283
2996.00,0.0283
2995.00,0.0283
2994.00,0.0283
2993.00,0.0283
2992.00,0.0282
2991.00,0.0282
2990.00,0.0281
2989.00,0.0281
2988.00,0.0280
2987.00,0.0280
2986.00,0.0280
2985.00,0.0280
2984.00,0.0279
2983.00,0.0279
2982.00,0.0278
2981.00,0.0278
2980.00,0.0278
2979.00,0.0278
2978.00,0.0279
2977.00,0.0279
2976.00,0.0279
2975.00,0.0280
2974.00,0.0280
2973.00,0.0280
2972.00,0.0279
2971.00,0.0279
2970.00,0.0279
2969.00,0.0279
2968.00,0.0280
2967.00,0.0280
2966.00,0.0279
2965.00,0.0279
2964.00,0.0279
2963.00,0.0279
2962.00,0.0279
2961.00,0.0279
2960.00,0.0279
2959.00,0.0279
2958.00,0.0280
2957.00,0.0280
2956.00,0.0281
2955.00,0.0282
2954.00,0.0282
2953.00,0.0282
2952.00,0.0283
2951.00,0.0283
2950.00,0.0283
2949.00,0.0284
2948.00,0.0284
2947.00,0.0284
2946.00,0.0285
2945.00,0.0285
2944.00,0.0286
2943.00,0.0286
2942.00,0.0287
2941.00,0.0287
2940.00,0.0288
2939.00,0.0288
2938.00,0.0289
2937.00,0.0289
2936.00,0.0290
2935.00,0.0290
2934.00,0.0291
2933.00,0.0291
2932.00,0.0292
2931.00,0.0293
2930.00,0.0293
2929.00,0.0293
2928.00,0.0293
2927.00,0.0294
2926.00,0.0294
2925.00,0.0295
2924.00,0.0295
2923.00,0.0295
2922.00,0.0294
2921.00,0.0293
2920.00,0.0292
2919.00,0.0290
2918.00,0.0287
2917.00,0.0285
2916.00,0.0285
2915.00,0.0285
2914.00,0.0286
2913.00,0.0287
2912.00,0.0287
2911.00,0.0287
2910.00,0.0287
2909.00,0.0286
2908.00,0.0286
2907.00,0.0286
2906.00,0.0286
2905.00,0.0286
2904.00,0.0285
2903.00,0.0285
2902.00,0.0284
2901.00,0.0284
2900.00,0.0284
2899.00,0.0284
2898.00,0.0283
2897.00,0.0282
2896.00,0.0282
2895.00,0.0281
2894.00,0.0281
2893.00,0.0280
2892.00,0.0280
2891.00,0.0279
2890.00,0.0279
2889.00,0.0279
2888.00,0.0278
2887.00,0.0278
2886.00,0.0278
2885.00,0.0277
2884.00,0.0277
2883.00,0.0276
2882.00,0.0276
2881.00,0.0276
2880.00,0.0275
2879.00,0.0275
2878.00,0.0275
2877.00,0.0275
2876.00,0.0275
2875.00,0.0275
2874.00,0.0274
2873.00,0.0274
2872.00,0.0274
2871.00,0.0274
2870.00,0.0274
2869.00,0.0273
2868.00,0.0273
2867.00,0.0274
2866.00,0.0274
2865.00,0.0274
2864.00,0.0274
2863.00,0.0275
2862.00,0.0275
2861.00,0.0276
2860.00,0.0277
2859.00,0.0277
2858.00,0.0278
2857.00,0.0279
2856.00,0.0280
2855.00,0.0280
2854.00,0.0281
2853.00,0.0281
2852.00,0.0280
2851.00,0.0279
2850.00,0.0278
2849.00,0.0277
2848.00,0.0276
2847.00,0.0275
2846.00,0.0274
2845.00,0.0273
2844.00,0.0273
2843.00,0.0272
2842.00,0.0272
2841.00,0.0271
2840.00,0.0270
2839.00,0.0270
2838.00,0.0269
2837.00,0.0268
2836.00,0.0267
2835.00,0.0266
2834.00,0.0265
2833.00,0.0265
2832.00,0.0265
2831.00,0.0264
2830.00,0.0264
2829.00,0.0264
2828.00,0.0263
2827.00,0.0263
2826.00,0.0263
2825.00,0.0263
2824.00,0.0263
2823.00,0.0263
2822.00,0.0263
2821.00,0.0262
2820.00,0.0262
2819.00,0.0261
2818.00,0.0261
2817.00,0.0261
2816.00,0.0260
2815.00,0.0260
2814.00,0.0260
2813.00,0.0260
2812.00,0.0260
2811.00,0.0259
2810.00,0.0259
2809.00,0.0259
2808.00,0.0258
2807.00,0.0258
2806.00,0.0258
2805.00,0.0258
2804.00,0.0258
2803.00,0.0258
2802.00,0.0257
2801.00,0.0257
2800.00,0.0257
2799.00,0.0256
2798.00,0.0256
2797.00,0.0256
2796.00,0.0256
2795.00,0.0256
2794.00,0.0256
2793.00,0.0256
2792.00,0.0255
2791.00,0.0255
2790.00,0.0255
2789.00,0.0255
2788.00,0.0254
2787.00,0.0254
2786.00,0.0254
2785.00,0.0254
2784.00,0.0253
2783.00,0.0253
2782.00,0.0253
2781.00,0.0253
2780.00,0.0253
2779.00,0.0253
2778.00,0.0253
2777.00,0.0253
2776.00,0.0253
2775.00,0.0252
2774.00,0.0252
2773.00,0.0251
2772.00,0.0251
2771.00,0.0252
2770.00,0.0252
2769.00,0.0252
2768.00,0.0252
2767.00,0.0251
2766.00,0.0251
2765.00,0.0250
2764.00,0.0250
2763.00,0.0250
2762.00,0.0250
2761.00,0.0250
2760.00,0.0250
2759.00,0.0250
2758.00,0.0250
2757.00,0.0250
2756.00,0.0250
2755.00,0.0249
2754.00,0.0249
2753.00,0.0249
2752.00,0.0249
2751.00,0.0249
2750.00,0.0249
2749.00,0.0249
2748.00,0.0249
2747.00,0.0248
2746.00,0.0248
2745.00,0.0248
2744.00,0.0247
2743.00,0.0247
2742.00,0.0247
2741.00,0.0247
2740.00,0.0247
2739.00,0.0247
2738.00,0.0247
2737.00,0.0247
2736.00,0.0247
2735.00,0.0247
2734.00,0.0247
2733.00,0.0246
2732.00,0.0246
2731.00,0.0246
2730.00,0.0246
2729.00,0.0246
2728.00,0.0245
2727.00,0.0245
2726.00,0.0245
2725.00,0.0245
2724.00,0.0246
2723.00,0.0245
2722.00,0.0245
2721.00,0.0245
2720.00,0.0245
2719.00,0.0245
2718.00,0.0245
2717.00,0.0245
2716.00,0.0245
2715.00,0.0244
2714.00,0.0244
2713.00,0.0244
2712.00,0.0244
2711.00,0.0244
2710.00,0.0244
2709.00,0.0244
2708.00,0.0243
2707.00,0.0243
2706.00,0.0243
2705.00,0.0242
2704.00,0.0242
2703.00,0.0242
2702.00,0.0242
2701.00,0.0242
2700.00,0.0242
2699.00,0.0242
2698.00,0.0242
2697.00,0.0242
2696.00,0.0242
2695.00,0.0242
2694.00,0.0242
2693.00,0.0242
2692.00,0.0242
2691.00,0.0242
2690.00,0.0241
2689.00,0.0241
2688.00,0.0241
2687.00,0.0241
2686.00,0.0241
2685.00,0.0241
2684.00,0.0241
2683.00,0.0241
2682.00,0.0241
2681.00,0.0240
2680.00,0.0240
2679.00,0.0240
2678.00,0.0240
2677.00,0.0240
2676.00,0.0240
2675.00,0.0240
2674.00,0.0240
2673.00,0.0240
2672.00,0.0240
2671.00,0.0240
2670.00,0.0240
2669.00,0.0240
2668.00,0.0239
2667.00,0.0239
2666.00,0.0239
2665.00,0.0240
2664.00,0.0240
2663.00,0.0240
2662.00,0.0240
2661.00,0.0240
2660.00,0.0240
2659.00,0.0240
2658.00,0.0240
2657.00,0.0240
2656.00,0.0240
2655.00,0.0241
2654.00,0.0241
2653.00,0.0241
2652.00,0.0241
2651.00,0.0241
2650.00,0.0241
2649.00,0.0240
2648.00,0.0240
2647.00,0.0240
2646.00,0.0240
2645.00,0.0240
2644.00,0.0240
2643.00,0.0240
2642.00,0.0240
2641.00,0.0240
2640.00,0.0240
2639.00,0.0240
2638.00,0.0240
2637.00,0.0240
2636.00,0.0240
2635.00,0.0240
2634.00,0.0240
2633.00,0.0240
2632.00,0.0240
2631.00,0.0240
2630.00,0.0240
2629.00,0.0240
2628.00,0.0241
2627.00,0.0240
2626.00,0.0240
2625.00,0.0240
2624.00,0.0239
2623.00,0.0239
2622.00,0.0239
2621.00,0.0240
2620.00,0.0240
2619.00,0.0240
2618.00,0.0240
2617.00,0.0240
2616.00,0.0240
2615.00,0.0240
2614.00,0.0240
2613.00,0.0240
2612.00,0.0239
2611.00,0.0239
2610.00,0.0240
2609.00,0.0240
2608.00,0.0240
2607.00,0.0240
2606.00,0.0240
2605.00,0.0240
2604.00,0.0240
2603.00,0.0240
2602.00,0.0239
2601.00,0.0239
2600.00,0.0239
2599.00,0.0239
2598.00,0.0239
2597.00,0.0239
2596.00,0.0239
2595.00,0.0238
2594.00,0.0238
2593.00,0.0238
2592.00,0.0238
2591.00,0.0239
2590.00,0.0239
2589.00,0.0239
2588.00,0.0239
2587.00,0.0238
2586.00,0.0238
2585.00,0.0238
2584.00,0.0238
2583.00,0.0238
2582.00,0.0238
2581.00,0.0238
2580.00,0.0238
2579.00,0.0238
2578.00,0.0238
2577.00,0.0238
2576.00,0.0238
2575.00,0.0237
2574.00,0.0237
2573.00,0.0237
2572.00,0.0237
2571.00,0.0237
2570.00,0.0237
2569.00,0.0236
2568.00,0.0236
2567.00,0.0237
2566.00,0.0237
2565.00,0.0237
2564.00,0.0237
2563.00,0.0237
2562.00,0.0237
2561.00,0.0236
2560.00,0.0236
2559.00,0.0236
2558.00,0.0236
2557.00,0.0236
2556.00,0.0236
2555.00,0.0236
2554.00,0.0236
2553.00,0.0237
2552.00,0.0237
2551.00,0.0237
2550.00,0.0236
2549.00,0.0236
2548.00,0.0235
2547.00,0.0235
2546.00,0.0235
2545.00,0.0235
2544.00,0.0234
2543.00,0.0234
2542.00,0.0234
2541.00,0.0234
2540.00,0.0234
2539.00,0.0235
2538.00,0.0235
2537.00,0.0235
2536.00,0.0234
2535.00,0.0234
2534.00,0.0234
2533.00,0.0234
2532.00,0.0234
2531.00,0.0234
2530.00,0.0234
2529.00,0.0234
2528.00,0.0234
2527.00,0.0234
2526.00,0.0234
2525.00,0.0234
2524.00,0.0234
2523.00,0.0234
2522.00,0.0234
2521.00,0.0234
2520.00,0.0234
2519.00,0.0234
2518.00,0.0234
2517.00,0.0233
2516.00,0.0233
2515.00,0.0233
2514.00,0.0233
2513.00,0.0233
2512.00,0.0233
2511.00,0.0232
2510.00,0.0232
2509.00,0.0231
2508.00,0.0231
2507.00,0.0232
2506.00,0.0232
2505.00,0.0233
2504.00,0.0233
2503.00,0.0234
2502.00,0.0234
2501.00,0.0233
2500.00,0.0232
2499.00,0.0231
2498.00,0.0231
2497.00,0.0232
2496.00,0.0232
2495.00,0.0232
2494.00,0.0232
2493.00,0.0232
2492.00,0.0231
2491.00,0.0231
2490.00,0.0231
2489.00,0.0231
2488.00,0.0231
2487.00,0.0231
2486.00,0.0231
2485.00,0.0230
2484.00,0.0230
2483.00,0.0230
2482.00,0.0230
2481.00,0.0230
2480.00,0.0230
2479.00,0.0230
2478.00,0.0231
2477.00,0.0231
2476.00,0.0231
2475.00,0.0230
2474.00,0.0230
2473.00,0.0229
2472.00,0.0229
2471.00,0.0229
2470.00,0.0229
2469.00,0.0229
2468.00,0.0229
2467.00,0.0228
2466.00,0.0228
2465.00,0.0228
2464.00,0.0228
2463.00,0.0228
2462.00,0.0228
2461.00,0.0228
2460.00,0.0228
2459.00,0.0229
2458.00,0.0229
2457.00,0.0228
2456.00,0.0228
2455.00,0.0228
2454.00,0.0228
2453.00,0.0228
2452.00,0.0228
2451.00,0.0228
2450.00,0.0228
2449.00,0.0228
2448.00,0.0228
2447.00,0.0228
2446.00,0.0228
2445.00,0.0227
2444.00,0.0227
2443.00,0.0226
2442.00,0.0226
2441.00,0.0226
2440.00,0.0226
2439.00,0.0226
2438.00,0.0225
2437.00,0.0225
2436.00,0.0224
2435.00,0.0224
2434.00,0.0225
2433.00,0.0225
2432.00,0.0224
2431.00,0.0224
2430.00,0.0224
2429.00,0.0223
2428.00,0.0223
2427.00,0.0223
2426.00,0.0224
2425.00,0.0224
2424.00,0.0224
2423.00,0.0223
2422.00,0.0223
2421.00,0.0223
2420.00,0.0223
2419.00,0.0223
2418.00,0.0222
2417.00,0.0222
2416.00,0.0222
2415.00,0.0222
2414.00,0.0222
2413.00,0.0221
2412.00,0.0221
2411.00,0.0220
2410.00,0.0219
2409.00,0.0219
2408.00,0.0219
2407.00,0.0219
2406.00,0.0219
2405.00,0.0219
2404.00,0.0219
2403.00,0.0219
2402.00,0.0219
2401.00,0.0220
2400.00,0.0220
2399.00,0.0219
2398.00,0.0219
2397.00,0.0219
2396.00,0.0219
2395.00,0.0218
2394.00,0.0218
2393.00,0.0217
2392.00,0.0217
2391.00,0.0217
2390.00,0.0217
2389.00,0.0217
2388.00,0.0216
2387.00,0.0215
2386.00,0.0214
2385.00,0.0213
2384.00,0.0212
2383.00,0.0211
2382.00,0.0210
2381.00,0.0209
2380.00,0.0208
2379.00,0.0207
2378.00,0.0206
2377.00,0.0206
2376.00,0.0207
2375.00,0.0207
2374.00,0.0207
2373.00,0.0207
2372.00,0.0207
2371.00,0.0207
2370.00,0.0207
2369.00,0.0208
2368.00,0.0208
2367.00,0.0208
2366.00,0.0207
2365.00,0.0206
2364.00,0.0205
2363.00,0.0205
2362.00,0.0205
2361.00,0.0206
2360.00,0.0207
2359.00,0.0208
2358.00,0.0209
2357.00,0.0210
2356.00,0.0211
2355.00,0.0210
2354.00,0.0209
2353.00,0.0208
2352.00,0.0207
2351.00,0.0206
2350.00,0.0205
2349.00,0.0203
2348.00,0.0201
2347.00,0.0199
2346.00,0.0198
2345.00,0.0199
2344.00,0.0201
2343.00,0.0203
2342.00,0.0204
2341.00,0.0206
2340.00,0.0206
2339.00,0.0207
2338.00,0.0207
2337.00,0.0207
2336.00,0.0207
2335.00,0.0207
2334.00,0.0207
2333.00,0.0207
2332.00,0.0206
2331.00,0.0207
2330.00,0.0208
2329.00,0.0209
2328.00,0.0211
2327.00,0.0212
2326.00,0.0213
2325.00,0.0213
2324.00,0.0212
2323.00,0.0211
2322.00,0.0211
2321.00,0.0212
2320.00,0.0213
2319.00,0.0214
2318.00,0.0214
2317.00,0.0214
2316.00,0.0212
2315.00,0.0210
2314.00,0.0209
2313.00,0.0208
2312.00,0.0207
2311.00,0.0207
2310.00,0.0208
2309.00,0.0209
2308.00,0.0209
2307.00,0.0209
2306.00,0.0209
2305.00,0.0209
2304.00,0.0208
2303.00,0.0207
2302.00,0.0207
2301.00,0.0206
2300.00,0.0206
2299.00,0.0207
2298.00,0.0207
2297.00,0.0208
2296.00,0.0208
2295.00,0.0208
2294.00,0.0209
2293.00,0.0209
2292.00,0.0210
2291.00,0.0210
2290.00,0.0210
2289.00,0.0211
2288.00,0.0211
2287.00,0.0211
2286.00,0.0211
2285.00,0.0210
2284.00,0.0209
2283.00,0.0209
2282.00,0.0209
2281.00,0.0209
2280.00,0.0209
2279.00,0.0208
2278.00,0.0207
2277.00,0.0206
2276.00,0.0205
2275.00,0.0205
2274.00,0.0204
2273.00,0.0204
2272.00,0.0204
2271.00,0.0205
2270.00,0.0206
2269.00,0.0206
2268.00,0.0205
2267.00,0.0205
2266.00,0.0205
2265.00,0.0206
2264.00,0.0207
2263.00,0.0207
2262.00,0.0207
2261.00,0.0207
2260.00,0.0206
2259.00,0.0205
2258.00,0.0205
2257.00,0.0205
2256.00,0.0205
2255.00,0.0205
2254.00,0.0205
2253.00,0.0205
2252.00,0.0204
2251.00,0.0204
2250.00,0.0204
2249.00,0.0204
2248.00,0.0203
2247.00,0.0203
2246.00,0.0202
2245.00,0.0202
2244.00,0.0202
2243.00,0.0203
2242.00,0.0203
2241.00,0.0202
2240.00,0.0203
2239.00,0.0203
2238.00,0.0204
2237.00,0.0204
2236.00,0.0204
2235.00,0.0204
2234.00,0.0203
2233.00,0.0203
2232.00,0.0204
2231.00,0.0205
2230.00,0.0206
2229.00,0.0206
2228.00,0.0205
2227.00,0.0204
2226.00,0.0203
2225.00,0.0202
2224.00,0.0202
2223.00,0.0202
2222.00,0.0202
2221.00,0.0202
2220.00,0.0203
2219.00,0.0202
2218.00,0.0202
2217.00,0.0201
2216.00,0.0201
2215.00,0.0202
2214.00,0.0202
2213.00,0.0203
2212.00,0.0203
2211.00,0.0203
2210.00,0.0202
2209.00,0.0201
2208.00,0.0200
2207.00,0.0199
2206.00,0.0198
2205.00,0.0198
2204.00,0.0199
2203.00,0.0199
2202.00,0.0199
2201.00,0.0200
2200.00,0.0201
2199.00,0.0203
2198.00,0.0204
2197.00,0.0205
2196.00,0.0204
2195.00,0.0203
2194.00,0.0203
2193.00,0.0203
2192.00,0.0203
2191.00,0.0203
2190.00,0.0202
2189.00,0.0203
2188.00,0.0204
2187.00,0.0205
2186.00,0.0205
2185.00,0.0204
2184.00,0.0202
2183.00,0.0200
2182.00,0.0199
2181.00,0.0199
2180.00,0.0199
2179.00,0.0198
2178.00,0.0196
2177.00,0.0194
2176.00,0.0194
2175.00,0.0196
2174.00,0.0198
2173.00,0.0200
2172.00,0.0201
2171.00,0.0202
2170.00,0.0203
2169.00,0.0204
2168.00,0.0204
2167.00,0.0203
2166.00,0.0202
2165.00,0.0203
2164.00,0.0204
2163.00,0.0205
2162.00,0.0204
2161.00,0.0201
2160.00,0.0195
2159.00,0.0191
2158.00,0.0189
2157.00,0.0190
2156.00,0.0191
2155.00,0.0192
2154.00,0.0192
2153.00,0.0192
2152.00,0.0193
2151.00,0.0194
2150.00,0.0193
2149.00,0.0192
2148.00,0.0191
2147.00,0.0191
2146.00,0.0191
2145.00,0.0191
2144.00,0.0192
2143.00,0.0192
2142.00,0.0191
2141.00,0.0191
2140.00,0.0190
2139.00,0.0188
2138.00,0.0187
2137.00,0.0186
2136.00,0.0185
2135.00,0.0184
2134.00,0.0184
2133.00,0.0185
2132.00,0.0186
2131.00,0.0186
2130.00,0.0187
2129.00,0.0187
2128.00,0.0188
2127.00,0.0188
2126.00,0.0188
2125.00,0.0187
2124.00,0.0187
2123.00,0.0187
2122.00,0.0188
2121.00,0.0188
2120.00,0.0189
2119.00,0.0189
2118.00,0.0190
2117.00,0.0191
2116.00,0.0192
2115.00,0.0192
2114.00,0.0192
2113.00,0.0192
2112.00,0.0191
2111.00,0.0191
2110.00,0.0190
2109.00,0.0190
2108.00,0.0189
2107.00,0.0189
2106.00,0.0188
2105.00,0.0188
2104.00,0.0188
2103.00,0.0188
2102.00,0.0188
2101.00,0.0188
2100.00,0.0188
2099.00,0.0188
2098.00,0.0188
2097.00,0.0187
2096.00,0.0187
2095.00,0.0187
2094.00,0.0186
2093.00,0.0186
2092.00,0.0186
2091.00,0.0187
2090.00,0.0187
2089.00,0.0187
2088.00,0.0187
2087.00,0.0187
2086.00,0.0187
2085.00,0.0187
2084.00,0.0186
2083.00,0.0185
2082.00,0.0185
2081.00,0.0185
2080.00,0.0185
2079.00,0.0186
2078.00,0.0187
2077.00,0.0187
2076.00,0.0187
2075.00,0.0186
2074.00,0.0186
2073.00,0.0187
2072.00,0.0187
2071.00,0.0187
2070.00,0.0187
2069.00,0.0187
2068.00,0.0186
2067.00,0.0185
2066.00,0.0184
2065.00,0.0184
2064.00,0.0184
2063.00,0.0184
2062.00,0.0183
2061.00,0.0184
2060.00,0.0183
2059.00,0.0183
2058.00,0.0183
2057.00,0.0184
2056.00,0.0184
2055.00,0.0185
2054.00,0.0186
2053.00,0.0187
2052.00,0.0187
2051.00,0.0187
2050.00,0.0186
2049.00,0.0185
2048.00,0.0183
2047.00,0.0183
2046.00,0.0183
2045.00,0.0184
2044.00,0.0185
2043.00,0.0185
2042.00,0.0185
2041.00,0.0185
2040.00,0.0186
2039.00,0.0186
2038.00,0.0188
2037.00,0.0190
2036.00,0.0191
2035.00,0.0191
2034.00,0.0189
2033.00,0.0186
2032.00,0.0185
2031.00,0.0185
2030.00,0.0186
2029.00,0.0187
2028.00,0.0187
2027.00,0.0186
2026.00,0.0184
2025.00,0.0183
2024.00,0.0182
2023.00,0.0182
2022.00,0.0181
2021.00,0.0182
2020.00,0.0182
2019.00,0.0182
2018.00,0.0182
2017.00,0.0182
2016.00,0.0181
2015.00,0.0180
2014.00,0.0179
2013.00,0.0179
2012.00,0.0180
2011.00,0.0181
2010.00,0.0182
2009.00,0.0182
2008.00,0.0182
2007.00,0.0181
2006.00,0.0180
2005.00,0.0180
2004.00,0.0180
2003.00,0.0179
2002.00,0.0178
2001.00,0.0177
2000.00,0.0176
1999.00,0.0177
1998.00,0.0178
1997.00,0.0179
1996.00,0.0178
1995.00,0.0177
1994.00,0.0177
1993.00,0.0177
1992.00,0.0178
1991.00,0.0179
1990.00,0.0179
1989.00,0.0179
1988.00,0.0178
1987.00,0.0176
1986.00,0.0175
1985.00,0.0176
1984.00,0.0177
1983.00,0.0178
1982.00,0.0179
1981.00,0.0180
1980.00,0.0180
1979.00,0.0179
1978.00,0.0177
1977.00,0.0175
1976.00,0.0173
1975.00,0.0172
1974.00,0.0172
1973.00,0.0173
1972.00,0.0173
1971.00,0.0173
1970.00,0.0172
1969.00,0.0171
1968.00,0.0170
1967.00,0.0169
1966.00,0.0170
1965.00,0.0171
1964.00,0.0172
1963.00,0.0172
1962.00,0.0172
1961.00,0.0171
1960.00,0.0170
1959.00,0.0170
1958.00,0.0170
1957.00,0.0169
1956.00,0.0168
1955.00,0.0167
1954.00,0.0167
1953.00,0.0166
1952.00,0.0166
1951.00,0.0165
1950.00,0.0164
1949.00,0.0165
1948.00,0.0166
1947.00,0.0166
1946.00,0.0167
1945.00,0.0167
1944.00,0.0167
1943.00,0.0166
1942.00,0.0164
1941.00,0.0162
1940.00,0.0161
1939.00,0.0160
1938.00,0.0159
1937.00,0.0160
1936.00,0.0160
1935.00,0.0161
1934.00,0.0161
1933.00,0.0162
1932.00,0.0161
1931.00,0.0160
1930.00,0.0158
1929.00,0.0157
1928.00,0.0156
1927.00,0.0156
1926.00,0.0157
1925.00,0.0158
1924.00,0.0159
1923.00,0.0159
1922.00,0.0158
1921.00,0.0158
1920.00,0.0157
1919.00,0.0156
1918.00,0.0154
1917.00,0.0153
1916.00,0.0153
1915.00,0.0153
1914.00,0.0153
1913.00,0.0153
1912.00,0.0153
1911.00,0.0152
1910.00,0.0152
1909.00,0.0152
1908.00,0.0152
1907.00,0.0152
1906.00,0.0152
1905.00,0.0151
1904.00,0.0151
1903.00,0.0150
1902.00,0.0150
1901.00,0.0150
1900.00,0.0149
1899.00,0.0149
1898.00,0.0149
1897.00,0.0149
1896.00,0.0149
1895.00,0.0148
1894.00,0.0147
1893.00,0.0146
1892.00,0.0147
1891.00,0.0147
1890.00,0.0146
1889.00,0.0145
1888.00,0.0144
1887.00,0.0143
1886.00,0.0144
1885.00,0.0144
1884.00,0.0144
1883.00,0.0144
1882.00,0.0144
1881.00,0.0143
1880.00,0.0142
1879.00,0.0141
1878.00,0.0141
1877.00,0.0140
1876.00,0.0140
1875.00,0.0140
1874.00,0.0140
1873.00,0.0140
1872.00,0.0141
1871.00,0.0141
1870.00,0.0141
1869.00,0.0140
1868.00,0.0138
1867.00,0.0136
1866.00,0.0136
1865.00,0.0137
1864.00,0.0137
1863.00,0.0137
1862.00,0.0136
1861.00,0.0135
1860.00,0.0134
1859.00,0.0134
1858.00,0.0134
1857.00,0.0133
1856.00,0.0133
1855.00,0.0132
1854.00,0.0132
1853.00,0.0132
1852.00,0.0132
1851.00,0.0133
1850.00,0.0133
1849.00,0.0133
1848.00,0.0133
1847.00,0.0132
1846.00,0.0132
1845.00,0.0131
1844.00,0.0129
1843.00,0.0127
1842.00,0.0126
1841.00,0.0127
1840.00,0.0127
1839.00,0.0127
1838.00,0.0127
1837.00,0.0126
1836.00,0.0126
1835.00,0.0125
1834.00,0.0125
1833.00,0.0126
1832.00,0.0127
1831.00,0.0126
1830.00,0.0124
1829.00,0.0122
1828.00,0.0121
1827.00,0.0122
1826.00,0.0122
1825.00,0.0121
1824.00,0.0120
1823.00,0.0119
1822.00,0.0119
1821.00,0.0120
1820.00,0.0119
1819.00,0.0119
1818.00,0.0118
1817.00,0.0117
1816.00,0.0117
1815.00,0.0117
1814.00,0.0117
1813.00,0.0118
1812.00,0.0118
1811.00,0.0117
1810.00,0.0117
1809.00,0.0117
1808.00,0.0117
1807.00,0.0117
1806.00,0.0117
1805.00,0.0118
1804.00,0.0118
1803.00,0.0118
1802.00,0.0119
1801.00,0.0118
1800.00,0.0117
1799.00,0.0117
1798.00,0.0118
1797.00,0.0119
1796.00,0.0120
1795.00,0.0121
1794.00,0.0122
1793.00,0.0122
1792.00,0.0122
1791.00,0.0121
1790.00,0.0121
1789.00,0.0122
1788.00,0.0123
1787.00,0.0125
1786.00,0.0126
1785.00,0.0127
1784.00,0.0128
1783.00,0.0129
1782.00,0.0130
1781.00,0.0131
1780.00,0.0132
1779.00,0.0132
1778.00,0.0134
1777.00,0.0136
1776.00,0.0138
1775.00,0.0140
1774.00,0.0142
1773.00,0.0142
1772.00,0.0142
1771.00,0.0142
1770.00,0.0144
1769.00,0.0146
1768.00,0.0148
1767.00,0.0148
1766.00,0.0149
1765.00,0.0151
1764.00,0.0153
1763.00,0.0154
1762.00,0.0154
1761.00,0.0155
1760.00,0.0157
1759.00,0.0159
1758.00,0.0161
1757.00,0.0161
1756.00,0.0162
1755.00,0.0163
1754.00,0.0166
1753.00,0.0170
1752.00,0.0174
1751.00,0.0177
1750.00,0.0178
1749.00,0.0179
1748.00,0.0179
1747.00,0.0180
1746.00,0.0182
1745.00,0.0185
1744.00,0.0187
1743.00,0.0189
1742.00,0.0190
1741.00,0.0193
1740.00,0.0195
1739.00,0.0197
1738.00,0.0199
1737.00,0.0202
1736.00,0.0206
1735.00,0.0209
1734.00,0.0213
1733.00,0.0215
1732.00,0.0216
1731.00,0.0218
1730.00,0.0219
1729.00,0.0221
1728.00,0.0223
1727.00,0.0226
1726.00,0.0229
1725.00,0.0232
1724.00,0.0235
1723.00,0.0237
1722.00,0.0238
1721.00,0.0240
1720.00,0.0241
1719.00,0.0243
1718.00,0.0246
1717.00,0.0249
1716.00,0.0251
1715.00,0.0252
1714.00,0.0253
1713.00,0.0254
1712.00,0.0255
1711.00,0.0256
1710.00,0.0257
1709.00,0.0259
1708.00,0.0259
1707.00,0.0259
1706.00,0.0259
1705.00,0.0260
1704.00,0.0260
1703.00,0.0261
1702.00,0.0261
1701.00,0.0262
1700.00,0.0262
1699.00,0.0263
1698.00,0.0265
1697.00,0.0266
1696.00,0.0265
1695.00,0.0263
1694.00,0.0262
1693.00,0.0263
1692.00,0.0263
1691.00,0.0263
1690.00,0.0263
1689.00,0.0264
1688.00,0.0264
1687.00,0.0264
1686.00,0.0264
1685.00,0.0264
1684.00,0.0264
1683.00,0.0263
1682.00,0.0265
1681.00,0.0267
1680.00,0.0269
1679.00,0.0269
1678.00,0.0270
1677.00,0.0270
1676.00,0.0271
1675.00,0.0272
1674.00,0.0272
1673.00,0.0273
1672.00,0.0275
1671.00,0.0276
1670.00,0.0277
1669.00,0.0278
1668.00,0.0279
1667.00,0.0281
1666.00,0.0283
1665.00,0.0284
1664.00,0.0285
1663.00,0.0286
1662.00,0.0287
1661.00,0.0289
1660.00,0.0292
1659.00,0.0294
1658.00,0.0296
1657.00,0.0297
1656.00,0.0297
1655.00,0.0297
1654.00,0.0300
1653.00,0.0304
1652.00,0.0305
1651.00,0.0308
1650.00,0.0310
1649.00,0.0310
1648.00,0.0311
1647.00,0.0313
1646.00,0.0316
1645.00,0.0318
1644.00,0.0321
1643.00,0.0323
1642.00,0.0324
1641.00,0.0325
1640.00,0.0326
1639.00,0.0327
1638.00,0.0328
1637.00,0.0329
1636.00,0.0332
1635.00,0.0335
1634.00,0.0338
1633.00,0.0342
1632.00,0.0345
1631.00,0.0347
1630.00,0.0349
1629.00,0.0350
1628.00,0.0352
1627.00,0.0354
1626.00,0.0356
1625.00,0.0359
1624.00,0.0362
1623.00,0.0364
1622.00,0.0366
1621.00,0.0368
1620.00,0.0370
1619.00,0.0371
1618.00,0.0373
1617.00,0.0377
1616.00,0.0380
1615.00,0.0382
1614.00,0.0384
1613.00,0.0386
1612.00,0.0387
1611.00,0.0389
1610.00,0.0391
1609.00,0.0392
1608.00,0.0394
1607.00,0.0396
1606.00,0.0398
1605.00,0.0399
1604.00,0.0401
1603.00,0.0403
1602.00,0.0405
1601.00,0.0406
1600.00,0.0408
1599.00,0.0409
1598.00,0.0410
1597.00,0.0412
1596.00,0.0413
1595.00,0.0414
1594.00,0.0416
1593.00,0.0417
1592.00,0.0418
1591.00,0.0419
1590.00,0.0421
1589.00,0.0422
1588.00,0.0423
1587.00,0.0424
1586.00,0.0425
1585.00,0.0425
1584.00,0.0426
1583.00,0.0427
1582.00,0.0428
1581.00,0.0428
1580.00,0.0428
1579.00,0.0428
1578.00,0.0429
1577.00,0.0431
1576.00,0.0433
1575.00,0.0433
1574.00,0.0433
1573.00,0.0432
1572.00,0.0430
1571.00,0.0429
1570.00,0.0429
1569.00,0.0429
1568.00,0.0429
1567.00,0.0430
1566.00,0.0429
1565.00,0.0429
1564.00,0.0428
1563.00,0.0427
1562.00,0.0425
1561.00,0.0421
1560.00,0.0420
1559.00,0.0424
1558.00,0.0422
1557.00,0.0421
1556.00,0.0422
1555.00,0.0421
1554.00,0.0419
1553.00,0.0418
1552.00,0.0416
1551.00,0.0415
1550.00,0.0412
1549.00,0.0409
1548.00,0.0407
1547.00,0.0405
1546.00,0.0403
1545.00,0.0402
1544.00,0.0399
1543.00,0.0396
1542.00,0.0392
1541.00,0.0388
1540.00,0.0385
1539.00,0.0381
1538.00,0.0381
1537.00,0.0381
1536.00,0.0380
1535.00,0.0378
1534.00,0.0376
1533.00,0.0374
1532.00,0.0373
1531.00,0.0373
1530.00,0.0372
1529.00,0.0371
1528.00,0.0370
1527.00,0.0368
1526.00,0.0367
1525.00,0.0365
1524.00,0.0363
1523.00,0.0362
1522.00,0.0360
1521.00,0.0357
1520.00,0.0355
1519.00,0.0353
1518.00,0.0351
1517.00,0.0349
1516.00,0.0348
1515.00,0.0347
1514.00,0.0346
1513.00,0.0345
1512.00,0.0345
1511.00,0.0345
1510.00,0.0344
1509.00,0.0342
1508.00,0.0341
1507.00,0.0337
1506.00,0.0331
1505.00,0.0328
1504.00,0.0329
1503.00,0.0329
1502.00,0.0327
1501.00,0.0325
1500.00,0.0323
1499.00,0.0322
1498.00,0.0321
1497.00,0.0320
1496.00,0.0320
1495.00,0.0321
1494.00,0.0321
1493.00,0.0322
1492.00,0.0323
1491.00,0.0324
1490.00,0.0323
1489.00,0.0322
1488.00,0.0321
1487.00,0.0319
1486.00,0.0319
1485.00,0.0319
1484.00,0.0320
1483.00,0.0320
1482.00,0.0321
1481.00,0.0321
1480.00,0.0322
1479.00,0.0322
1478.00,0.0322
1477.00,0.0323
1476.00,0.0325
1475.00,0.0327
1474.00,0.0329
1473.00,0.0330
1472.00,0.0331
1471.00,0.0332
1470.00,0.0332
1469.00,0.0333
1468.00,0.0334
1467.00,0.0334
1466.00,0.0335
1465.00,0.0336
1464.00,0.0336
1463.00,0.0336
1462.00,0.0337
1461.00,0.0337
1460.00,0.0337
1459.00,0.0338
1458.00,0.0341
1457.00,0.0344
1456.00,0.0346
1455.00,0.0347
1454.00,0.0347
1453.00,0.0347
1452.00,0.0347
1451.00,0.0348
1450.00,0.0349
1449.00,0.0350
1448.00,0.0351
1447.00,0.0352
1446.00,0.0353
1445.00,0.0353
1444.00,0.0354
1443.00,0.0356
1442.00,0.0357
1441.00,0.0358
1440.00,0.0359
1439.00,0.0360
1438.00,0.0361
1437.00,0.0363
1436.00,0.0365
1435.00,0.0366
1434.00,0.0367
1433.00,0.0367
1432.00,0.0368
1431.00,0.0368
1430.00,0.0369
1429.00,0.0369
1428.00,0.0370
1427.00,0.0371
1426.00,0.0372
1425.00,0.0373
1424.00,0.0374
1423.00,0.0375
1422.00,0.0376
1421.00,0.0376
1420.00,0.0378
1419.00,0.0380
1418.00,0.0381
1417.00,0.0382
1416.00,0.0382
1415.00,0.0383
1414.00,0.0383
1413.00,0.0383
1412.00,0.0384
1411.00,0.0385
1410.00,0.0386
1409.00,0.0386
1408.00,0.0387
1407.00,0.0387
1406.00,0.0388
1405.00,0.0389
1404.00,0.0390
1403.00,0.0391
1402.00,0.0392
1401.00,0.0393
1400.00,0.0395
1399.00,0.0397
1398.00,0.0399
1397.00,0.0400
1396.00,0.0401
1395.00,0.0401
1394.00,0.0402
1393.00,0.0402
1392.00,0.0403
1391.00,0.0405
1390.00,0.0406
1389.00,0.0408
1388.00,0.0410
1387.00,0.0411
1386.00,0.0412
1385.00,0.0412
1384.00,0.0413
1383.00,0.0414
1382.00,0.0415
1381.00,0.0416
1380.00,0.0418
1379.00,0.0418
1378.00,0.0419
1377.00,0.0419
1376.00,0.0420
1375.00,0.0421
1374.00,0.0422
1373.00,0.0422
1372.00,0.0422
1371.00,0.0422
1370.00,0.0422
1369.00,0.0422
1368.00,0.0423
1367.00,0.0423
1366.00,0.0424
1365.00,0.0424
1364.00,0.0424
1363.00,0.0425
1362.00,0.0424
1361.00,0.0423
1360.00,0.0422
1359.00,0.0422
1358.00,0.0421
1357.00,0.0420
1356.00,0.0420
1355.00,0.0419
1354.00,0.0418
1353.00,0.0418
1352.00,0.0417
1351.00,0.0416
1350.00,0.0416
1349.00,0.0415
1348.00,0.0415
1347.00,0.0414
1346.00,0.0413
1345.00,0.0413
1344.00,0.0412
1343.00,0.0412
1342.00,0.0412
1341.00,0.0412
1340.00,0.0411
1339.00,0.0410
1338.00,0.0409
1337.00,0.0407
1336.00,0.0406
1335.00,0.0405
1334.00,0.0404
1333.00,0.0404
1332.00,0.0403
1331.00,0.0403
1330.00,0.0402
1329.00,0.0402
1328.00,0.0401
1327.00,0.0400
1326.00,0.0400
1325.00,0.0399
1324.00,0.0399
1323.00,0.0399
1322.00,0.0399
1321.00,0.0399
1320.00,0.0399
1319.00,0.0399
1318.00,0.0399
1317.00,0.0399
1316.00,0.0399
1315.00,0.0399
1314.00,0.0399
1313.00,0.0399
1312.00,0.0398
1311.00,0.0398
1310.00,0.0398
1309.00,0.0398
1308.00,0.0398
1307.00,0.0398
1306.00,0.0398
1305.00,0.0398
1304.00,0.0398
1303.00,0.0398
1302.00,0.0398
1301.00,0.0398
1300.00,0.0398
1299.00,0.0399
1298.00,0.0399
1297.00,0.0399
1296.00,0.0400
1295.00,0.0400
1294.00,0.0400
1293.00,0.0401
1292.00,0.0401
1291.00,0.0402
1290.00,0.0403
1289.00,0.0403
1288.00,0.0404
1287.00,0.0404
1286.00,0.0405
1285.00,0.0405
1284.00,0.0406
1283.00,0.0406
1282.00,0.0406
1281.00,0.0406
1280.00,0.0407
1279.00,0.0407
1278.00,0.0407
1277.00,0.0408
1276.00,0.0409
1275.00,0.0410
1274.00,0.0410
1273.00,0.0411
1272.00,0.0411
1271.00,0.0412
1270.00,0.0412
1269.00,0.0412
1268.00,0.0412
1267.00,0.0412
1266.00,0.0412
1265.00,0.0413
1264.00,0.0413
1263.00,0.0413
1262.00,0.0413
1261.00,0.0413
1260.00,0.0414
1259.00,0.0415
1258.00,0.0415
1257.00,0.0415
1256.00,0.0415
1255.00,0.0415
1254.00,0.0416
1253.00,0.0416
1252.00,0.0417
1251.00,0.0418
1250.00,0.0418
1249.00,0.0418
1248.00,0.0418
1247.00,0.0418
1246.00,0.0418
1245.00,0.0418
1244.00,0.0417
1243.00,0.0417
1242.00,0.0417
1241.00,0.0418
1240.00,0.0418
1239.00,0.0418
1238.00,0.0418
1237.00,0.0418
1236.00,0.0418
1235.00,0.0418
1234.00,0.0418
1233.00,0.0418
1232.00,0.0418
1231.00,0.0417
1230.00,0.0417
1229.00,0.0417
1228.00,0.0417
1227.00,0.0417
1226.00,0.0417
1225.00,0.0416
1224.00,0.0416
1223.00,0.0416
1222.00,0.0415
1221.00,0.0414
1220.00,0.0414
1219.00,0.0414
1218.00,0.0413
1217.00,0.0412
1216.00,0.0411
1215.00,0.0410
1214.00,0.0410
1213.00,0.0409
1212.00,0.0409
1211.00,0.0408
1210.00,0.0408
1209.00,0.0408
1208.00,0.0408
1207.00,0.0408
1206.00,0.0408
1205.00,0.0408
1204.00,0.0407
1203.00,0.0407
1202.00,0.0406
1201.00,0.0406
1200.00,0.0405
1199.00,0.0405
1198.00,0.0404
1197.00,0.0403
1196.00,0.0403
1195.00,0.0402
1194.00,0.0402
1193.00,0.0401
1192.00,0.0401
1191.00,0.0400
1190.00,0.0399
1189.00,0.0398
1188.00,0.0398
1187.00,0.0397
1186.00,0.0397
1185.00,0.0397
1184.00,0.0397
1183.00,0.0397
1182.00,0.0397
1181.00,0.0397
1180.00,0.0397
1179.00,0.0398
1178.00,0.0399
1177.00,0.0400
1176.00,0.0399
1175.00,0.0399
1174.00,0.0398
1173.00,0.0397
1172.00,0.0397
1171.00,0.0397
1170.00,0.0396
1169.00,0.0396
1168.00,0.0396
1167.00,0.0397
1166.00,0.0397
1165.00,0.0397
1164.00,0.0397
1163.00,0.0397
1162.00,0.0398
1161.00,0.0398
1160.00,0.0398
1159.00,0.0398
1158.00,0.0397
1157.00,0.0397
1156.00,0.0396
1155.00,0.0395
1154.00,0.0395
1153.00,0.0394
1152.00,0.0393
1151.00,0.0392
1150.00,0.0391
1149.00,0.0390
1148.00,0.0391
1147.00,0.0391
1146.00,0.0392
1145.00,0.0392
1144.00,0.0392
1143.00,0.0392
1142.00,0.0391
1141.00,0.0390
1140.00,0.0390
1139.00,0.0390
1138.00,0.0390
1137.00,0.0391
1136.00,0.0391
1135.00,0.0391
1134.00,0.0391
1133.00,0.0390
1132.00,0.0390
1131.00,0.0391
1130.00,0.0391
1129.00,0.0392
1128.00,0.0393
1127.00,0.0393
1126.00,0.0394
1125.00,0.0395
1124.00,0.0396
1123.00,0.0397
1122.00,0.0399
1121.00,0.0401
1120.00,0.0402
1119.00,0.0403
1118.00,0.0404
1117.00,0.0405
1116.00,0.0407
1115.00,0.0407
1114.00,0.0407
1113.00,0.0407
1112.00,0.0407
1111.00,0.0408
1110.00,0.0409
1109.00,0.0411
1108.00,0.0412
1107.00,0.0412
1106.00,0.0413
1105.00,0.0413
1104.00,0.0413
1103.00,0.0413
1102.00,0.0414
1101.00,0.0415
1100.00,0.0417
1099.00,0.0419
1098.00,0.0420
1097.00,0.0422
1096.00,0.0423
1095.00,0.0423
1094.00,0.0423
1093.00,0.0424
1092.00,0.0424
1091.00,0.0425
1090.00,0.0426
1089.00,0.0427
1088.00,0.0428
1087.00,0.0429
1086.00,0.0429
1085.00,0.0430
1084.00,0.0430
1083.00,0.0430
1082.00,0.0431
1081.00,0.0432
1080.00,0.0433
1079.00,0.0434
1078.00,0.0434
1077.00,0.0434
1076.00,0.0434
1075.00,0.0436
1074.00,0.0437
1073.00,0.0437
1072.00,0.0437
1071.00,0.0437
1070.00,0.0437
1069.00,0.0438
1068.00,0.0438
1067.00,0.0439
1066.00,0.0440
1065.00,0.0440
1064.00,0.0441
1063.00,0.0442
1062.00,0.0443
1061.00,0.0444
1060.00,0.0445
1059.00,0.0445
1058.00,0.0445
1057.00,0.0446
1056.00,0.0446
1055.00,0.0446
1054.00,0.0447
1053.00,0.0447
1052.00,0.0448
1051.00,0.0450
1050.00,0.0452
1049.00,0.0454
1048.00,0.0456
1047.00,0.0458
1046.00,0.0459
1045.00,0.0460
1044.00,0.0461
1043.00,0.0461
1042.00,0.0461
1041.00,0.0463
1040.00,0.0464
1039.00,0.0466
1038.00,0.0467
1037.00,0.0468
1036.00,0.0469
1035.00,0.0470
1034.00,0.0470
1033.00,0.0471
1032.00,0.0471
1031.00,0.0471
1030.00,0.0470
1029.00,0.0470
1028.00,0.0469
1027.00,0.0468
1026.00,0.0466
1025.00,0.0465
1024.00,0.0463
1023.00,0.0461
1022.00,0.0459
1021.00,0.0458
1020.00,0.0457
1019.00,0.0456
1018.00,0.0456
1017.00,0.0455
1016.00,0.0455
1015.00,0.0456
1014.00,0.0457
1013.00,0.0457
1012.00,0.0457
1011.00,0.0457
1010.00,0.0457
1009.00,0.0456
1008.00,0.0455
1007.00,0.0455
1006.00,0.0454
1005.00,0.0453
1004.00,0.0452
1003.00,0.0452
1002.00,0.0452
1001.00,0.0451
1000.00,0.0449
999.00,0.0447
998.00,0.0445
997.00,0.0443
996.00,0.0442
995.00,0.0441
994.00,0.0440
993.00,0.0438
992.00,0.0437
991.00,0.0436
990.00,0.0434
989.00,0.0432
988.00,0.0429
987.00,0.0426
986.00,0.0425
985.00,0.0424
984.00,0.0424
983.00,0.0423
982.00,0.0421
981.00,0.0419
980.00,0.0419
979.00,0.0418
978.00,0.0417
977.00,0.0416
976.00,0.0415
975.00,0.0414
974.00,0.0412
973.00,0.0410
972.00,0.0409
971.00,0.0408
970.00,0.0407
969.00,0.0406
968.00,0.0406
967.00,0.0405
966.00,0.0404
965.00,0.0403
964.00,0.0402
963.00,0.0400
962.00,0.0398
961.00,0.0398
960.00,0.0397
959.00,0.0398
958.00,0.0398
957.00,0.0398
956.00,0.0398
955.00,0.0399
954.00,0.0398
953.00,0.0398
952.00,0.0397
951.00,0.0396
950.00,0.0396
949.00,0.0395
948.00,0.0395
947.00,0.0394
946.00,0.0394
945.00,0.0394
944.00,0.0395
943.00,0.0395
942.00,0.0396
941.00,0.0397
940.00,0.0398
939.00,0.0399
938.00,0.0400
937.00,0.0401
936.00,0.0401
935.00,0.0401
934.00,0.0401
933.00,0.0401
932.00,0.0400
931.00,0.0400
930.00,0.0399
929.00,0.0399
928.00,0.0399
927.00,0.0400
926.00,0.0402
925.00,0.0404
924.00,0.0405
923.00,0.0405
922.00,0.0406
921.00,0.0407
920.00,0.0408
919.00,0.0410
918.00,0.0411
917.00,0.0413
916.00,0.0415
915.00,0.0417
914.00,0.0417
913.00,0.0418
912.00,0.0418
911.00,0.0418
910.00,0.0417
909.00,0.0415
908.00,0.0414
907.00,0.0413
906.00,0.0413
905.00,0.0414
904.00,0.0414
903.00,0.0415
902.00,0.0415
901.00,0.0415
900.00,0.0414
899.00,0.0414
898.00,0.0414
897.00,0.0414
896.00,0.0414
895.00,0.0414
894.00,0.0413
893.00,0.0411
892.00,0.0410
891.00,0.0409
890.00,0.0409
889.00,0.0409
888.00,0.0409
887.00,0.0409
886.00,0.0409
885.00,0.0408
884.00,0.0407
883.00,0.0407
882.00,0.0407
881.00,0.0408
880.00,0.0408
879.00,0.0408
878.00,0.0408
877.00,0.0408
876.00,0.0408
875.00,0.0408
874.00,0.0408
873.00,0.0407
872.00,0.0407
871.00,0.0407
870.00,0.0407
869.00,0.0407
868.00,0.0407
867.00,0.0406
866.00,0.0405
865.00,0.0405
864.00,0.0405
863.00,0.0405
862.00,0.0406
861.00,0.0406
860.00,0.0407
859.00,0.0408
858.00,0.0409
857.00,0.0410
856.00,0.0411
855.00,0.0410
854.00,0.0410
853.00,0.0410
852.00,0.0411
851.00,0.0412
850.00,0.0412
849.00,0.0413
848.00,0.0414
847.00,0.0415
846.00,0.0416
845.00,0.0416
844.00,0.0417
843.00,0.0418
842.00,0.0418
841.00,0.0419
840.00,0.0420
839.00,0.0423
838.00,0.0424
837.00,0.0425
836.00,0.0426
835.00,0.0427
834.00,0.0427
833.00,0.0427
832.00,0.0427
831.00,0.0428
830.00,0.0428
829.00,0.0429
828.00,0.0430
827.00,0.0431
826.00,0.0433
825.00,0.0434
824.00,0.0435
823.00,0.0437
822.00,0.0440
821.00,0.0442
820.00,0.0443
819.00,0.0443
818.00,0.0442
817.00,0.0443
816.00,0.0445
815.00,0.0447
814.00,0.0449
813.00,0.0450
812.00,0.0450
811.00,0.0449
810.00,0.0448
809.00,0.0449
808.00,0.0450
807.00,0.0452
806.00,0.0453
805.00,0.0455
804.00,0.0457
803.00,0.0460
802.00,0.0463
801.00,0.0465
800.00,0.0467
799.00,0.0468
798.00,0.0468
797.00,0.0468
796.00,0.0468
795.00,0.0468
794.00,0.0468
793.00,0.0467
792.00,0.0467
791.00,0.0469
790.00,0.0470
789.00,0.0472
788.00,0.0472
787.00,0.0472
786.00,0.0472
785.00,0.0473
784.00,0.0473
783.00,0.0474
782.00,0.0476
781.00,0.0479
780.00,0.0483
779.00,0.0485
778.00,0.0485
777.00,0.0485
776.00,0.0484
775.00,0.0483
774.00,0.0483
773.00,0.0483
772.00,0.0483
771.00,0.0483
770.00,0.0484
769.00,0.0485
768.00,0.0487
767.00,0.0489
766.00,0.0491
765.00,0.0492
764.00,0.0493
763.00,0.0493
762.00,0.0493
761.00,0.0494
760.00,0.0495
759.00,0.0496
758.00,0.0497
757.00,0.0498
756.00,0.0499
755.00,0.0499
754.00,0.0498
753.00,0.0495
752.00,0.0494
751.00,0.0495
750.00,0.0497
749.00,0.0500
748.00,0.0502
747.00,0.0503
746.00,0.0503
745.00,0.0503
744.00,0.0503
743.00,0.0503
742.00,0.0503
741.00,0.0503
740.00,0.0503
739.00,0.0503
738.00,0.0503
737.00,0.0503
736.00,0.0505
735.00,0.0506
734.00,0.0507
733.00,0.0508
732.00,0.0510
731.00,0.0511
730.00,0.0512
729.00,0.0512
728.00,0.0512
727.00,0.0512
726.00,0.0513
725.00,0.0513
724.00,0.0513
723.00,0.0514
722.00,0.0516
721.00,0.0518
720.00,0.0519
719.00,0.0520
718.00,0.0520
717.00,0.0520
716.00,0.0522
715.00,0.0525
714.00,0.0527
713.00,0.0528
712.00,0.0528
711.00,0.0529
710.00,0.0531
709.00,0.0532
708.00,0.0534
707.00,0.0537
706.00,0.0539
705.00,0.0540
704.00,0.0541
703.00,0.0541
702.00,0.0540
701.00,0.0542
700.00,0.0545
699.00,0.0547
698.00,0.0549
697.00,0.0550
696.00,0.0552
695.00,0.0554
694.00,0.0555
693.00,0.0554
692.00,0.0554
691.00,0.0555
690.00,0.0557
689.00,0.0560
688.00,0.0563
687.00,0.0566
686.00,0.0569
685.00,0.0571
684.00,0.0572
683.00,0.0571
682.00,0.0569
681.00,0.0569
680.00,0.0569
679.00,0.0570
678.00,0.0571
677.00,0.0572
676.00,0.0576
675.00,0.0580
674.00,0.0584
673.00,0.0587
672.00,0.0587
671.00,0.0587
670.00,0.0589
669.00,0.0596
668.00,0.0607
667.00,0.0611
666.00,0.0604
665.00,0.0597
664.00,0.0595
663.00,0.0596
662.00,0.0597
661.00,0.0598
660.00,0.0598
659.00,0.0599
658.00,0.0598
657.00,0.0598
656.00,0.0598
655.00,0.0600
654.00,0.0605
653.00,0.0611
652.00,0.0615
651.00,0.0617
650.00,0.0617
