Created as New Dataset,Monday, April 03 2023
cm-1,A
4000.00,0.0699
3999.00,0.0699
3998.00,0.0699
3997.00,0.0699
3996.00,0.0699
3995.00,0.0699
3994.00,0.0699
3993.00,0.0699
3992.00,0.0699
3991.00,0.0699
3990.00,0.0698
3989.00,0.0698
3988.00,0.0698
3987.00,0.0698
3986.00,0.0698
3985.00,0.0698
3984.00,0.0698
3983.00,0.0698
3982.00,0.0698
3981.00,0.0697
3980.00,0.0697
3979.00,0.0698
3978.00,0.0698
3977.00,0.0697
3976.00,0.0697
3975.00,0.0696
3974.00,0.0696
3973.00,0.0695
3972.00,0.0695
3971.00,0.0695
3970.00,0.0695
3969.00,0.0695
3968.00,0.0695
3967.00,0.0695
3966.00,0.0695
3965.00,0.0695
3964.00,0.0695
3963.00,0.0695
3962.00,0.0695
3961.00,0.0695
3960.00,0.0695
3959.00,0.0695
3958.00,0.0694
3957.00,0.0694
3956.00,0.0694
3955.00,0.0693
3954.00,0.0693
3953.00,0.0693
3952.00,0.0692
3951.00,0.0692
3950.00,0.0691
3949.00,0.0691
3948.00,0.0691
3947.00,0.0692
3946.00,0.0692
3945.00,0.0692
3944.00,0.0691
3943.00,0.0690
3942.00,0.0690
3941.00,0.0690
3940.00,0.0691
3939.00,0.0691
3938.00,0.0691
3937.00,0.0691
3936.00,0.0691
3935.00,0.0691
3934.00,0.0692
3933.00,0.0692
3932.00,0.0691
3931.00,0.0691
3930.00,0.0690
3929.00,0.0689
3928.00,0.0689
3927.00,0.0688
3926.00,0.0688
3925.00,0.0686
3924.00,0.0686
3923.00,0.0686
3922.00,0.0687
3921.00,0.0687
3920.00,0.0688
3919.00,0.0689
3918.00,0.0689
3917.00,0.0689
3916.00,0.0689
3915.00,0.0689
3914.00,0.0689
3913.00,0.0689
3912.00,0.0689
3911.00,0.0689
3910.00,0.0689
3909.00,0.0688
3908.00,0.0687
3907.00,0.0686
3906.00,0.0685
3905.00,0.0684
3904.00,0.0684
3903.00,0.0684
3902.00,0.0686
3901.00,0.0686
3900.00,0.0686
3899.00,0.0684
3898.00,0.0684
3897.00,0.0685
3896.00,0.0686
3895.00,0.0686
3894.00,0.0685
3893.00,0.0685
3892.00,0.0684
3891.00,0.0683
3890.00,0.0683
3889.00,0.0685
3888.00,0.0686
3887.00,0.0685
3886.00,0.0684
3885.00,0.0683
3884.00,0.0683
3883.00,0.0684
3882.00,0.0683
3881.00,0.0681
3880.00,0.0680
3879.00,0.0681
3878.00,0.0683
3877.00,0.0684
3876.00,0.0683
3875.00,0.0681
3874.00,0.0680
3873.00,0.0681
3872.00,0.0683
3871.00,0.0683
3870.00,0.0680
3869.00,0.0680
3868.00,0.0682
3867.00,0.0684
3866.00,0.0684
3865.00,0.0682
3864.00,0.0681
3863.00,0.0681
3862.00,0.0682
3861.00,0.0682
3860.00,0.0682
3859.00,0.0681
3858.00,0.0679
3857.00,0.0677
3856.00,0.0676
3855.00,0.0678
3854.00,0.0680
3853.00,0.0676
3852.00,0.0673
3851.00,0.0675
3850.00,0.0678
3849.00,0.0679
3848.00,0.0680
3847.00,0.0681
3846.00,0.0681
3845.00,0.0680
3844.00,0.0679
3843.00,0.0679
3842.00,0.0679
3841.00,0.0679
3840.00,0.0678
3839.00,0.0678
3838.00,0.0676
3837.00,0.0675
3836.00,0.0675
3835.00,0.0676
3834.00,0.0677
3833.00,0.0678
3832.00,0.0679
3831.00,0.0680
3830.00,0.0681
3829.00,0.0682
3828.00,0.0682
3827.00,0.0679
3826.00,0.0677
3825.00,0.0677
3824.00,0.0677
3823.00,0.0678
3822.00,0.0677
3821.00,0.0674
3820.00,0.0674
3819.00,0.0677
3818.00,0.0679
3817.00,0.0678
3816.00,0.0676
3815.00,0.0675
3814.00,0.0677
3813.00,0.0679
3812.00,0.0679
3811.00,0.0678
3810.00,0.0678
3809.00,0.0679
3808.00,0.0679
3807.00,0.0678
3806.00,0.0677
3805.00,0.0678
3804.00,0.0679
3803.00,0.0678
3802.00,0.0676
3801.00,0.0673
3800.00,0.0673
3799.00,0.0674
3798.00,0.0675
3797.00,0.0674
3796.00,0.0675
3795.00,0.0676
3794.00,0.0678
3793.00,0.0679
3792.00,0.0679
3791.00,0.0679
3790.00,0.0679
3789.00,0.0679
3788.00,0.0679
3787.00,0.0679
3786.00,0.0678
3785.00,0.0677
3784.00,0.0676
3783.00,0.0676
3782.00,0.0677
3781.00,0.0677
3780.00,0.0676
3779.00,0.0675
3778.00,0.0675
3777.00,0.0676
3776.00,0.0677
3775.00,0.0676
3774.00,0.0676
3773.00,0.0677
3772.00,0.0677
3771.00,0.0676
3770.00,0.0675
3769.00,0.0675
3768.00,0.0675
3767.00,0.0676
3766.00,0.0675
3765.00,0.0674
3764.00,0.0675
3763.00,0.0676
3762.00,0.0676
3761.00,0.0675
3760.00,0.0674
3759.00,0.0674
3758.00,0.0673
3757.00,0.0672
3756.00,0.0672
3755.00,0.0671
3754.00,0.0670
3753.00,0.0670
3752.00,0.0673
3751.00,0.0674
3750.00,0.0672
3749.00,0.0670
3748.00,0.0670
3747.00,0.0671
3746.00,0.0670
3745.00,0.0669
3744.00,0.0667
3743.00,0.0668
3742.00,0.0671
3741.00,0.0672
3740.00,0.0671
3739.00,0.0669
3738.00,0.0669
3737.00,0.0669
3736.00,0.0669
3735.00,0.0669
3734.00,0.0669
3733.00,0.0669
3732.00,0.0668
3731.00,0.0669
3730.00,0.0671
3729.00,0.0673
3728.00,0.0673
3727.00,0.0673
3726.00,0.0672
3725.00,0.0672
3724.00,0.0670
3723.00,0.0669
3722.00,0.0668
3721.00,0.0668
3720.00,0.0668
3719.00,0.0668
3718.00,0.0668
3717.00,0.0667
3716.00,0.0667
3715.00,0.0667
3714.00,0.0666
3713.00,0.0667
3712.00,0.0668
3711.00,0.0667
3710.00,0.0666
3709.00,0.0666
3708.00,0.0666
3707.00,0.0667
3706.00,0.0668
3705.00,0.0668
3704.00,0.0667
3703.00,0.0667
3702.00,0.0666
3701.00,0.0666
3700.00,0.0666
3699.00,0.0667
3698.00,0.0667
3697.00,0.0667
3696.00,0.0666
3695.00,0.0666
3694.00,0.0666
3693.00,0.0665
3692.00,0.0664
3691.00,0.0664
3690.00,0.0664
3689.00,0.0663
3688.00,0.0661
3687.00,0.0662
3686.00,0.0665
3685.00,0.0666
3684.00,0.0667
3683.00,0.0667
3682.00,0.0667
3681.00,0.0665
3680.00,0.0663
3679.00,0.0661
3678.00,0.0661
3677.00,0.0662
3676.00,0.0661
3675.00,0.0658
3674.00,0.0660
3673.00,0.0664
3672.00,0.0666
3671.00,0.0664
3670.00,0.0662
3669.00,0.0660
3668.00,0.0661
3667.00,0.0663
3666.00,0.0665
3665.00,0.0666
3664.00,0.0667
3663.00,0.0668
3662.00,0.0668
3661.00,0.0667
3660.00,0.0667
3659.00,0.0667
3658.00,0.0668
3657.00,0.0668
3656.00,0.0667
3655.00,0.0667
3654.00,0.0667
3653.00,0.0665
3652.00,0.0662
3651.00,0.0662
3650.00,0.0664
3649.00,0.0664
3648.00,0.0661
3647.00,0.0660
3646.00,0.0662
3645.00,0.0666
3644.00,0.0668
3643.00,0.0670
3642.00,0.0670
3641.00,0.0671
3640.00,0.0672
3639.00,0.0671
3638.00,0.0671
3637.00,0.0671
3636.00,0.0671
3635.00,0.0671
3634.00,0.0670
3633.00,0.0669
3632.00,0.0669
3631.00,0.0670
3630.00,0.0672
3629.00,0.0673
3628.00,0.0673
3627.00,0.0674
3626.00,0.0675
3625.00,0.0676
3624.00,0.0675
3623.00,0.0675
3622.00,0.0675
3621.00,0.0675
3620.00,0.0676
3619.00,0.0675
3618.00,0.0675
3617.00,0.0676
3616.00,0.0676
3615.00,0.0676
3614.00,0.0676
3613.00,0.0677
3612.00,0.0678
3611.00,0.0681
3610.00,0.0683
3609.00,0.0684
3608.00,0.0684
3607.00,0.0684
3606.00,0.0684
3605.00,0.0685
3604.00,0.0685
3603.00,0.0685
3602.00,0.0685
3601.00,0.0685
3600.00,0.0684
3599.00,0.0684
3598.00,0.0684
3597.00,0.0685
3596.00,0.0685
3595.00,0.0686
3594.00,0.0687
3593.00,0.0688
3592.00,0.0688
3591.00,0.0689
3590.00,0.0689
3589.00,0.0689
3588.00,0.0690
3587.00,0.0690
3586.00,0.0691
3585.00,0.0692
3584.00,0.0693
3583.00,0.0694
3582.00,0.0694
3581.00,0.0695
3580.00,0.0696
3579.00,0.0696
3578.00,0.0697
3577.00,0.0697
3576.00,0.0698
3575.00,0.0698
3574.00,0.0698
3573.00,0.0698
3572.00,0.0697
3571.00,0.0696
3570.00,0.0694
3569.00,0.0694
3568.00,0.0696
3567.00,0.0698
3566.00,0.0699
3565.00,0.0700
3564.00,0.0701
3563.00,0.0702
3562.00,0.0703
3561.00,0.0703
3560.00,0.0704
3559.00,0.0705
3558.00,0.0706
3557.00,0.0707
3556.00,0.0707
3555.00,0.0708
3554.00,0.0708
3553.00,0.0708
3552.00,0.0709
3551.00,0.0709
3550.00,0.0709
3549.00,0.0710
3548.00,0.0711
3547.00,0.0712
3546.00,0.0713
3545.00,0.0714
3544.00,0.0714
3543.00,0.0714
3542.00,0.0714
3541.00,0.0715
3540.00,0.0716
3539.00,0.0716
3538.00,0.0717
3537.00,0.0718
3536.00,0.0718
3535.00,0.0719
3534.00,0.0719
3533.00,0.0719
3532.00,0.0719
3531.00,0.0720
3530.00,0.0720
3529.00,0.0721
3528.00,0.0721
3527.00,0.0722
3526.00,0.0723
3525.00,0.0724
3524.00,0.0724
3523.00,0.0725
3522.00,0.0725
3521.00,0.0726
3520.00,0.0726
3519.00,0.0727
3518.00,0.0728
3517.00,0.0729
3516.00,0.0729
3515.00,0.0729
3514.00,0.0729
3513.00,0.0729
3512.00,0.0729
3511.00,0.0729
3510.00,0.0730
3509.00,0.0731
3508.00,0.0732
3507.00,0.0732
3506.00,0.0733
3505.00,0.0733
3504.00,0.0733
3503.00,0.0734
3502.00,0.0735
3501.00,0.0735
3500.00,0.0736
3499.00,0.0736
3498.00,0.0737
3497.00,0.0738
3496.00,0.0738
3495.00,0.0739
3494.00,0.0740
3493.00,0.0740
3492.00,0.0741
3491.00,0.0741
3490.00,0.0742
3489.00,0.0742
3488.00,0.0743
3487.00,0.0743
3486.00,0.0743
3485.00,0.0744
3484.00,0.0744
3483.00,0.0744
3482.00,0.0744
3481.00,0.0745
3480.00,0.0746
3479.00,0.0746
3478.00,0.0747
3477.00,0.0747
3476.00,0.0748
3475.00,0.0748
3474.00,0.0749
3473.00,0.0749
3472.00,0.0749
3471.00,0.0750
3470.00,0.0750
3469.00,0.0751
3468.00,0.0752
3467.00,0.0753
3466.00,0.0753
3465.00,0.0753
3464.00,0.0754
3463.00,0.0754
3462.00,0.0755
3461.00,0.0755
3460.00,0.0756
3459.00,0.0756
3458.00,0.0757
3457.00,0.0757
3456.00,0.0758
3455.00,0.0758
3454.00,0.0758
3453.00,0.0759
3452.00,0.0760
3451.00,0.0761
3450.00,0.0761
3449.00,0.0761
3448.00,0.0761
3447.00,0.0761
3446.00,0.0761
3445.00,0.0762
3444.00,0.0762
3443.00,0.0763
3442.00,0.0764
3441.00,0.0764
3440.00,0.0765
3439.00,0.0765
3438.00,0.0765
3437.00,0.0766
3436.00,0.0766
3435.00,0.0767
3434.00,0.0767
3433.00,0.0768
3432.00,0.0768
3431.00,0.0769
3430.00,0.0770
3429.00,0.0770
3428.00,0.0770
3427.00,0.0770
3426.00,0.0771
3425.00,0.0771
3424.00,0.0771
3423.00,0.0772
3422.00,0.0772
3421.00,0.0773
3420.00,0.0774
3419.00,0.0774
3418.00,0.0775
3417.00,0.0775
3416.00,0.0775
3415.00,0.0775
3414.00,0.0776
3413.00,0.0776
3412.00,0.0777
3411.00,0.0777
3410.00,0.0777
3409.00,0.0777
3408.00,0.0777
3407.00,0.0777
3406.00,0.0778
3405.00,0.0778
3404.00,0.0779
3403.00,0.0780
3402.00,0.0780
3401.00,0.0780
3400.00,0.0780
3399.00,0.0780
3398.00,0.0780
3397.00,0.0781
3396.00,0.0782
3395.00,0.0782
3394.00,0.0783
3393.00,0.0783
3392.00,0.0783
3391.00,0.0784
3390.00,0.0785
3389.00,0.0785
3388.00,0.0786
3387.00,0.0786
3386.00,0.0786
3385.00,0.0786
3384.00,0.0786
3383.00,0.0786
3382.00,0.0786
3381.00,0.0786
3380.00,0.0787
3379.00,0.0787
3378.00,0.0788
3377.00,0.0788
3376.00,0.0789
3375.00,0.0789
3374.00,0.0789
3373.00,0.0789
3372.00,0.0789
3371.00,0.0789
3370.00,0.0789
3369.00,0.0789
3368.00,0.0789
3367.00,0.0790
3366.00,0.0790
3365.00,0.0791
3364.00,0.0791
3363.00,0.0792
3362.00,0.0792
3361.00,0.0792
3360.00,0.0793
3359.00,0.0793
3358.00,0.0793
3357.00,0.0793
3356.00,0.0793
3355.00,0.0793
3354.00,0.0794
3353.00,0.0794
3352.00,0.0795
3351.00,0.0795
3350.00,0.0796
3349.00,0.0797
3348.00,0.0797
3347.00,0.0796
3346.00,0.0796
3345.00,0.0795
3344.00,0.0795
3343.00,0.0795
3342.00,0.0795
3341.00,0.0796
3340.00,0.0796
3339.00,0.0797
3338.00,0.0797
3337.00,0.0797
3336.00,0.0798
3335.00,0.0798
3334.00,0.0798
3333.00,0.0798
3332.00,0.0798
3331.00,0.0797
3330.00,0.0797
3329.00,0.0797
3328.00,0.0797
3327.00,0.0798
3326.00,0.0798
3325.00,0.0799
3324.00,0.0799
3323.00,0.0799
3322.00,0.0799
3321.00,0.0799
3320.00,0.0799
3319.00,0.0800
3318.00,0.0800
3317.00,0.0800
3316.00,0.0800
3315.00,0.0800
3314.00,0.0800
3313.00,0.0800
3312.00,0.0800
3311.00,0.0800
3310.00,0.0801
3309.00,0.0801
3308.00,0.0801
3307.00,0.0801
3306.00,0.0801
3305.00,0.0801
3304.00,0.0801
3303.00,0.0801
3302.00,0.0802
3301.00,0.0802
3300.00,0.0802
3299.00,0.0802
3298.00,0.0802
3297.00,0.0802
3296.00,0.0802
3295.00,0.0802
3294.00,0.0802
3293.00,0.0803
3292.00,0.0803
3291.00,0.0803
3290.00,0.0804
3289.00,0.0804
3288.00,0.0804
3287.00,0.0803
3286.00,0.0803
3285.00,0.0803
3284.00,0.0803
3283.00,0.0803
3282.00,0.0803
3281.00,0.0804
3280.00,0.0804
3279.00,0.0804
3278.00,0.0804
3277.00,0.0804
3276.00,0.0804
3275.00,0.0804
3274.00,0.0804
3273.00,0.0804
3272.00,0.0805
3271.00,0.0805
3270.00,0.0806
3269.00,0.0806
3268.00,0.0806
3267.00,0.0806
3266.00,0.0806
3265.00,0.0806
3264.00,0.0806
3263.00,0.0805
3262.00,0.0805
3261.00,0.0805
3260.00,0.0806
3259.00,0.0806
3258.00,0.0806
3257.00,0.0807
3256.00,0.0807
3255.00,0.0807
3254.00,0.0807
3253.00,0.0807
3252.00,0.0807
3251.00,0.0808
3250.00,0.0808
3249.00,0.0808
3248.00,0.0808
3247.00,0.0809
3246.00,0.0809
3245.00,0.0809
3244.00,0.0809
3243.00,0.0809
3242.00,0.0809
3241.00,0.0809
3240.00,0.0809
3239.00,0.0809
3238.00,0.0809
3237.00,0.0809
3236.00,0.0809
3235.00,0.0809
3234.00,0.0809
3233.00,0.0809
3232.00,0.0810
3231.00,0.0810
3230.00,0.0810
3229.00,0.0810
3228.00,0.0811
3227.00,0.0811
3226.00,0.0811
3225.00,0.0810
3224.00,0.0810
3223.00,0.0810
3222.00,0.0810
3221.00,0.0811
3220.00,0.0811
3219.00,0.0811
3218.00,0.0811
3217.00,0.0812
3216.00,0.0812
3215.00,0.0812
3214.00,0.0812
3213.00,0.0812
3212.00,0.0812
3211.00,0.0812
3210.00,0.0813
3209.00,0.0813
3208.00,0.0813
3207.00,0.0813
3206.00,0.0812
3205.00,0.0812
3204.00,0.0812
3203.00,0.0812
3202.00,0.0812
3201.00,0.0812
3200.00,0.0812
3199.00,0.0812
3198.00,0.0812
3197.00,0.0812
3196.00,0.0812
3195.00,0.0812
3194.00,0.0812
3193.00,0.0812
3192.00,0.0812
3191.00,0.0813
3190.00,0.0813
3189.00,0.0813
3188.00,0.0813
3187.00,0.0814
3186.00,0.0814
3185.00,0.0814
3184.00,0.0814
3183.00,0.0814
3182.00,0.0814
3181.00,0.0814
3180.00,0.0814
3179.00,0.0814
3178.00,0.0814
3177.00,0.0814
3176.00,0.0814
3175.00,0.0814
3174.00,0.0814
3173.00,0.0814
3172.00,0.0814
3171.00,0.0814
3170.00,0.0814
3169.00,0.0814
3168.00,0.0813
3167.00,0.0813
3166.00,0.0813
3165.00,0.0813
3164.00,0.0813
3163.00,0.0813
3162.00,0.0813
3161.00,0.0813
3160.00,0.0813
3159.00,0.0813
3158.00,0.0813
3157.00,0.0813
3156.00,0.0813
3155.00,0.0812
3154.00,0.0811
3153.00,0.0811
3152.00,0.0811
3151.00,0.0812
3150.00,0.0813
3149.00,0.0813
3148.00,0.0813
3147.00,0.0813
3146.00,0.0813
3145.00,0.0813
3144.00,0.0813
3143.00,0.0813
3142.00,0.0812
3141.00,0.0812
3140.00,0.0813
3139.00,0.0813
3138.00,0.0813
3137.00,0.0813
3136.00,0.0812
3135.00,0.0812
3134.00,0.0812
3133.00,0.0812
3132.00,0.0812
3131.00,0.0812
3130.00,0.0812
3129.00,0.0812
3128.00,0.0812
3127.00,0.0812
3126.00,0.0812
3125.00,0.0811
3124.00,0.0811
3123.00,0.0811
3122.00,0.0810
3121.00,0.0810
3120.00,0.0810
3119.00,0.0810
3118.00,0.0810
3117.00,0.0810
3116.00,0.0810
3115.00,0.0810
3114.00,0.0810
3113.00,0.0810
3112.00,0.0810
3111.00,0.0810
3110.00,0.0810
3109.00,0.0810
3108.00,0.0810
3107.00,0.0810
3106.00,0.0810
3105.00,0.0810
3104.00,0.0810
3103.00,0.0810
3102.00,0.0811
3101.00,0.0811
3100.00,0.0810
3099.00,0.0810
3098.00,0.0809
3097.00,0.0809
3096.00,0.0809
3095.00,0.0809
3094.00,0.0809
3093.00,0.0809
3092.00,0.0809
3091.00,0.0809
3090.00,0.0810
3089.00,0.0809
3088.00,0.0809
3087.00,0.0809
3086.00,0.0809
3085.00,0.0809
3084.00,0.0809
3083.00,0.0808
3082.00,0.0808
3081.00,0.0808
3080.00,0.0808
3079.00,0.0809
3078.00,0.0808
3077.00,0.0808
3076.00,0.0808
3075.00,0.0808
3074.00,0.0808
3073.00,0.0808
3072.00,0.0808
3071.00,0.0808
3070.00,0.0807
3069.00,0.0807
3068.00,0.0807
3067.00,0.0807
3066.00,0.0808
3065.00,0.0808
3064.00,0.0808
3063.00,0.0808
3062.00,0.0809
3061.00,0.0809
3060.00,0.0808
3059.00,0.0808
3058.00,0.0808
3057.00,0.0808
3056.00,0.0808
3055.00,0.0807
3054.00,0.0807
3053.00,0.0806
3052.00,0.0806
3051.00,0.0806
3050.00,0.0806
3049.00,0.0806
3048.00,0.0806
3047.00,0.0806
3046.00,0.0806
3045.00,0.0806
3044.00,0.0806
3043.00,0.0806
3042.00,0.0806
3041.00,0.0806
3040.00,0.0806
3039.00,0.0806
3038.00,0.0806
3037.00,0.0805
3036.00,0.0805
3035.00,0.0805
3034.00,0.0805
3033.00,0.0805
3032.00,0.0804
3031.00,0.0804
3030.00,0.0804
3029.00,0.0804
3028.00,0.0804
3027.00,0.0803
3026.00,0.0804
3025.00,0.0804
3024.00,0.0804
3023.00,0.0804
3022.00,0.0804
3021.00,0.0804
3020.00,0.0804
3019.00,0.0804
3018.00,0.0804
3017.00,0.0805
3016.00,0.0805
3015.00,0.0806
3014.00,0.0807
3013.00,0.0807
3012.00,0.0807
3011.00,0.0807
3010.00,0.0807
3009.00,0.0807
3008.00,0.0808
3007.00,0.0809
3006.00,0.0810
3005.00,0.0812
3004.00,0.0813
3003.00,0.0814
3002.00,0.0815
3001.00,0.0816
3000.00,0.0816
2999.00,0.0817
2998.00,0.0818
2997.00,0.0818
2996.00,0.0819
2995.00,0.0819
2994.00,0.0819
2993.00,0.0820
2992.00,0.0820
2991.00,0.0821
2990.00,0.0821
2989.00,0.0821
2988.00,0.0822
2987.00,0.0823
2986.00,0.0824
2985.00,0.0827
2984.00,0.0830
2983.00,0.0833
2982.00,0.0834
2981.00,0.0834
2980.00,0.0833
2979.00,0.0831
2978.00,0.0829
2977.00,0.0827
2976.00,0.0826
2975.00,0.0826
2974.00,0.0826
2973.00,0.0826
2972.00,0.0826
2971.00,0.0825
2970.00,0.0823
2969.00,0.0822
2968.00,0.0820
2967.00,0.0818
2966.00,0.0817
2965.00,0.0816
2964.00,0.0815
2963.00,0.0814
2962.00,0.0813
2961.00,0.0812
2960.00,0.0811
2959.00,0.0809
2958.00,0.0808
2957.00,0.0808
2956.00,0.0807
2955.00,0.0806
2954.00,0.0806
2953.00,0.0805
2952.00,0.0805
2951.00,0.0805
2950.00,0.0804
2949.00,0.0803
2948.00,0.0803
2947.00,0.0802
2946.00,0.0802
2945.00,0.0801
2944.00,0.0800
2943.00,0.0799
2942.00,0.0799
2941.00,0.0798
2940.00,0.0798
2939.00,0.0797
2938.00,0.0797
2937.00,0.0797
2936.00,0.0797
2935.00,0.0796
2934.00,0.0795
2933.00,0.0794
2932.00,0.0793
2931.00,0.0792
2930.00,0.0791
2929.00,0.0790
2928.00,0.0789
2927.00,0.0789
2926.00,0.0788
2925.00,0.0788
2924.00,0.0789
2923.00,0.0789
2922.00,0.0790
2921.00,0.0790
2920.00,0.0789
2919.00,0.0789
2918.00,0.0788
2917.00,0.0787
2916.00,0.0788
2915.00,0.0789
2914.00,0.0790
2913.00,0.0792
2912.00,0.0793
2911.00,0.0794
2910.00,0.0795
2909.00,0.0796
2908.00,0.0796
2907.00,0.0797
2906.00,0.0797
2905.00,0.0797
2904.00,0.0797
2903.00,0.0798
2902.00,0.0798
2901.00,0.0799
2900.00,0.0799
2899.00,0.0799
2898.00,0.0799
2897.00,0.0800
2896.00,0.0800
2895.00,0.0800
2894.00,0.0800
2893.00,0.0800
2892.00,0.0800
2891.00,0.0800
2890.00,0.0800
2889.00,0.0800
2888.00,0.0800
2887.00,0.0800
2886.00,0.0800
2885.00,0.0800
2884.00,0.0799
2883.00,0.0799
2882.00,0.0798
2881.00,0.0797
2880.00,0.0796
2879.00,0.0796
2878.00,0.0795
2877.00,0.0795
2876.00,0.0794
2875.00,0.0794
2874.00,0.0793
2873.00,0.0793
2872.00,0.0792
2871.00,0.0791
2870.00,0.0790
2869.00,0.0790
2868.00,0.0789
2867.00,0.0789
2866.00,0.0788
2865.00,0.0788
2864.00,0.0787
2863.00,0.0786
2862.00,0.0786
2861.00,0.0786
2860.00,0.0785
2859.00,0.0785
2858.00,0.0783
2857.00,0.0782
2856.00,0.0781
2855.00,0.0781
2854.00,0.0780
2853.00,0.0780
2852.00,0.0780
2851.00,0.0780
2850.00,0.0780
2849.00,0.0780
2848.00,0.0780
2847.00,0.0780
2846.00,0.0781
2845.00,0.0781
2844.00,0.0782
2843.00,0.0782
2842.00,0.0782
2841.00,0.0782
2840.00,0.0782
2839.00,0.0782
2838.00,0.0782
2837.00,0.0782
2836.00,0.0782
2835.00,0.0782
2834.00,0.0782
2833.00,0.0782
2832.00,0.0782
2831.00,0.0782
2830.00,0.0782
2829.00,0.0782
2828.00,0.0782
2827.00,0.0781
2826.00,0.0781
2825.00,0.0781
2824.00,0.0781
2823.00,0.0781
2822.00,0.0781
2821.00,0.0781
2820.00,0.0780
2819.00,0.0780
2818.00,0.0779
2817.00,0.0779
2816.00,0.0779
2815.00,0.0778
2814.00,0.0778
2813.00,0.0778
2812.00,0.0778
2811.00,0.0777
2810.00,0.0777
2809.00,0.0777
2808.00,0.0777
2807.00,0.0777
2806.00,0.0776
2805.00,0.0776
2804.00,0.0776
2803.00,0.0776
2802.00,0.0776
2801.00,0.0776
2800.00,0.0775
2799.00,0.0775
2798.00,0.0775
2797.00,0.0775
2796.00,0.0775
2795.00,0.0775
2794.00,0.0774
2793.00,0.0774
2792.00,0.0773
2791.00,0.0773
2790.00,0.0773
2789.00,0.0773
2788.00,0.0773
2787.00,0.0773
2786.00,0.0773
2785.00,0.0772
2784.00,0.0772
2783.00,0.0772
2782.00,0.0771
2781.00,0.0771
2780.00,0.0771
2779.00,0.0770
2778.00,0.0770
2777.00,0.0770
2776.00,0.0770
2775.00,0.0770
2774.00,0.0770
2773.00,0.0769
2772.00,0.0769
2771.00,0.0769
2770.00,0.0769
2769.00,0.0769
2768.00,0.0769
2767.00,0.0769
2766.00,0.0769
2765.00,0.0769
2764.00,0.0769
2763.00,0.0768
2762.00,0.0768
2761.00,0.0768
2760.00,0.0768
2759.00,0.0767
2758.00,0.0767
2757.00,0.0767
2756.00,0.0767
2755.00,0.0767
2754.00,0.0767
2753.00,0.0767
2752.00,0.0766
2751.00,0.0766
2750.00,0.0765
2749.00,0.0765
2748.00,0.0765
2747.00,0.0764
2746.00,0.0764
2745.00,0.0764
2744.00,0.0764
2743.00,0.0764
2742.00,0.0764
2741.00,0.0764
2740.00,0.0763
2739.00,0.0763
2738.00,0.0763
2737.00,0.0763
2736.00,0.0763
2735.00,0.0762
2734.00,0.0762
2733.00,0.0762
2732.00,0.0762
2731.00,0.0762
2730.00,0.0762
2729.00,0.0761
2728.00,0.0761
2727.00,0.0761
2726.00,0.0761
2725.00,0.0761
2724.00,0.0760
2723.00,0.0760
2722.00,0.0760
2721.00,0.0760
2720.00,0.0760
2719.00,0.0760
2718.00,0.0760
2717.00,0.0760
2716.00,0.0759
2715.00,0.0759
2714.00,0.0759
2713.00,0.0759
2712.00,0.0758
2711.00,0.0758
2710.00,0.0758
2709.00,0.0758
2708.00,0.0758
2707.00,0.0757
2706.00,0.0757
2705.00,0.0757
2704.00,0.0756
2703.00,0.0756
2702.00,0.0756
2701.00,0.0756
2700.00,0.0756
2699.00,0.0756
2698.00,0.0756
2697.00,0.0756
2696.00,0.0756
2695.00,0.0756
2694.00,0.0756
2693.00,0.0756
2692.00,0.0756
2691.00,0.0755
2690.00,0.0755
2689.00,0.0755
2688.00,0.0755
2687.00,0.0755
2686.00,0.0755
2685.00,0.0755
2684.00,0.0755
2683.00,0.0754
2682.00,0.0754
2681.00,0.0754
2680.00,0.0754
2679.00,0.0753
2678.00,0.0753
2677.00,0.0752
2676.00,0.0752
2675.00,0.0752
2674.00,0.0752
2673.00,0.0752
2672.00,0.0752
2671.00,0.0752
2670.00,0.0751
2669.00,0.0751
2668.00,0.0751
2667.00,0.0751
2666.00,0.0752
2665.00,0.0752
2664.00,0.0752
2663.00,0.0752
2662.00,0.0752
2661.00,0.0751
2660.00,0.0751
2659.00,0.0751
2658.00,0.0751
2657.00,0.0751
2656.00,0.0751
2655.00,0.0752
2654.00,0.0752
2653.00,0.0753
2652.00,0.0753
2651.00,0.0752
2650.00,0.0752
2649.00,0.0752
2648.00,0.0751
2647.00,0.0751
2646.00,0.0751
2645.00,0.0752
2644.00,0.0752
2643.00,0.0752
2642.00,0.0752
2641.00,0.0752
2640.00,0.0751
2639.00,0.0751
2638.00,0.0751
2637.00,0.0750
2636.00,0.0750
2635.00,0.0751
2634.00,0.0751
2633.00,0.0751
2632.00,0.0751
2631.00,0.0751
2630.00,0.0751
2629.00,0.0752
2628.00,0.0752
2627.00,0.0752
2626.00,0.0752
2625.00,0.0752
2624.00,0.0752
2623.00,0.0752
2622.00,0.0752
2621.00,0.0752
2620.00,0.0752
2619.00,0.0752
2618.00,0.0751
2617.00,0.0751
2616.00,0.0752
2615.00,0.0752
2614.00,0.0752
2613.00,0.0752
2612.00,0.0752
2611.00,0.0752
2610.00,0.0752
2609.00,0.0752
2608.00,0.0752
2607.00,0.0752
2606.00,0.0752
2605.00,0.0752
2604.00,0.0752
2603.00,0.0752
2602.00,0.0752
2601.00,0.0752
2600.00,0.0752
2599.00,0.0752
2598.00,0.0752
2597.00,0.0752
2596.00,0.0751
2595.00,0.0751
2594.00,0.0751
2593.00,0.0751
2592.00,0.0751
2591.00,0.0751
2590.00,0.0751
2589.00,0.0751
2588.00,0.0751
2587.00,0.0752
2586.00,0.0752
2585.00,0.0752
2584.00,0.0752
2583.00,0.0752
2582.00,0.0752
2581.00,0.0752
2580.00,0.0752
2579.00,0.0752
2578.00,0.0752
2577.00,0.0752
2576.00,0.0752
2575.00,0.0752
2574.00,0.0751
2573.00,0.0751
2572.00,0.0751
2571.00,0.0751
2570.00,0.0751
2569.00,0.0750
2568.00,0.0750
2567.00,0.0750
2566.00,0.0751
2565.00,0.0751
2564.00,0.0751
2563.00,0.0751
2562.00,0.0751
2561.00,0.0751
2560.00,0.0751
2559.00,0.0751
2558.00,0.0751
2557.00,0.0751
2556.00,0.0751
2555.00,0.0751
2554.00,0.0751
2553.00,0.0752
2552.00,0.0752
2551.00,0.0752
2550.00,0.0751
2549.00,0.0751
2548.00,0.0751
2547.00,0.0750
2546.00,0.0750
2545.00,0.0750
2544.00,0.0750
2543.00,0.0750
2542.00,0.0751
2541.00,0.0751
2540.00,0.0751
2539.00,0.0752
2538.00,0.0751
2537.00,0.0751
2536.00,0.0750
2535.00,0.0749
2534.00,0.0749
2533.00,0.0749
2532.00,0.0749
2531.00,0.0749
2530.00,0.0749
2529.00,0.0749
2528.00,0.0750
2527.00,0.0750
2526.00,0.0750
2525.00,0.0750
2524.00,0.0750
2523.00,0.0749
2522.00,0.0749
2521.00,0.0749
2520.00,0.0750
2519.00,0.0750
2518.00,0.0750
2517.00,0.0750
2516.00,0.0750
2515.00,0.0750
2514.00,0.0750
2513.00,0.0751
2512.00,0.0751
2511.00,0.0751
2510.00,0.0751
2509.00,0.0750
2508.00,0.0749
2507.00,0.0749
2506.00,0.0749
2505.00,0.0749
2504.00,0.0750
2503.00,0.0750
2502.00,0.0750
2501.00,0.0750
2500.00,0.0750
2499.00,0.0750
2498.00,0.0749
2497.00,0.0749
2496.00,0.0749
2495.00,0.0750
2494.00,0.0750
2493.00,0.0750
2492.00,0.0750
2491.00,0.0751
2490.00,0.0751
2489.00,0.0751
2488.00,0.0750
2487.00,0.0750
2486.00,0.0749
2485.00,0.0749
2484.00,0.0749
2483.00,0.0748
2482.00,0.0748
2481.00,0.0748
2480.00,0.0748
2479.00,0.0748
2478.00,0.0749
2477.00,0.0749
2476.00,0.0748
2475.00,0.0748
2474.00,0.0748
2473.00,0.0748
2472.00,0.0748
2471.00,0.0748
2470.00,0.0747
2469.00,0.0748
2468.00,0.0748
2467.00,0.0748
2466.00,0.0748
2465.00,0.0748
2464.00,0.0748
2463.00,0.0748
2462.00,0.0748
2461.00,0.0748
2460.00,0.0748
2459.00,0.0747
2458.00,0.0747
2457.00,0.0747
2456.00,0.0747
2455.00,0.0747
2454.00,0.0747
2453.00,0.0748
2452.00,0.0748
2451.00,0.0748
2450.00,0.0749
2449.00,0.0749
2448.00,0.0749
2447.00,0.0749
2446.00,0.0749
2445.00,0.0748
2444.00,0.0748
2443.00,0.0748
2442.00,0.0748
2441.00,0.0748
2440.00,0.0747
2439.00,0.0747
2438.00,0.0747
2437.00,0.0746
2436.00,0.0746
2435.00,0.0746
2434.00,0.0746
2433.00,0.0746
2432.00,0.0746
2431.00,0.0745
2430.00,0.0745
2429.00,0.0745
2428.00,0.0746
2427.00,0.0746
2426.00,0.0746
2425.00,0.0746
2424.00,0.0746
2423.00,0.0745
2422.00,0.0745
2421.00,0.0746
2420.00,0.0746
2419.00,0.0745
2418.00,0.0745
2417.00,0.0745
2416.00,0.0745
2415.00,0.0745
2414.00,0.0745
2413.00,0.0745
2412.00,0.0744
2411.00,0.0744
2410.00,0.0743
2409.00,0.0743
2408.00,0.0743
2407.00,0.0743
2406.00,0.0743
2405.00,0.0744
2404.00,0.0744
2403.00,0.0743
2402.00,0.0743
2401.00,0.0743
2400.00,0.0742
2399.00,0.0742
2398.00,0.0741
2397.00,0.0741
2396.00,0.0741
2395.00,0.0741
2394.00,0.0741
2393.00,0.0740
2392.00,0.0740
2391.00,0.0740
2390.00,0.0740
2389.00,0.0739
2388.00,0.0739
2387.00,0.0739
2386.00,0.0738
2385.00,0.0738
2384.00,0.0738
2383.00,0.0737
2382.00,0.0737
2381.00,0.0736
2380.00,0.0735
2379.00,0.0733
2378.00,0.0732
2377.00,0.0731
2376.00,0.0731
2375.00,0.0731
2374.00,0.0731
2373.00,0.0732
2372.00,0.0731
2371.00,0.0731
2370.00,0.0731
2369.00,0.0731
2368.00,0.0731
2367.00,0.0731
2366.00,0.0730
2365.00,0.0728
2364.00,0.0726
2363.00,0.0726
2362.00,0.0726
2361.00,0.0728
2360.00,0.0728
2359.00,0.0728
2358.00,0.0728
2357.00,0.0728
2356.00,0.0728
2355.00,0.0729
2354.00,0.0731
2353.00,0.0732
2352.00,0.0731
2351.00,0.0728
2350.00,0.0724
2349.00,0.0721
2348.00,0.0720
2347.00,0.0722
2346.00,0.0725
2345.00,0.0727
2344.00,0.0726
2343.00,0.0725
2342.00,0.0725
2341.00,0.0726
2340.00,0.0727
2339.00,0.0727
2338.00,0.0727
2337.00,0.0727
2336.00,0.0727
2335.00,0.0727
2334.00,0.0726
2333.00,0.0726
2332.00,0.0727
2331.00,0.0727
2330.00,0.0728
2329.00,0.0728
2328.00,0.0728
2327.00,0.0728
2326.00,0.0728
2325.00,0.0728
2324.00,0.0729
2323.00,0.0729
2322.00,0.0729
2321.00,0.0728
2320.00,0.0729
2319.00,0.0729
2318.00,0.0730
2317.00,0.0731
2316.00,0.0732
2315.00,0.0732
2314.00,0.0732
2313.00,0.0731
2312.00,0.0731
2311.00,0.0732
2310.00,0.0732
2309.00,0.0732
2308.00,0.0733
2307.00,0.0733
2306.00,0.0733
2305.00,0.0733
2304.00,0.0732
2303.00,0.0732
2302.00,0.0732
2301.00,0.0732
2300.00,0.0731
2299.00,0.0731
2298.00,0.0731
2297.00,0.0730
2296.00,0.0730
2295.00,0.0730
2294.00,0.0730
2293.00,0.0731
2292.00,0.0731
2291.00,0.0731
2290.00,0.0732
2289.00,0.0732
2288.00,0.0732
2287.00,0.0732
2286.00,0.0731
2285.00,0.0731
2284.00,0.0730
2283.00,0.0730
2282.00,0.0730
2281.00,0.0731
2280.00,0.0732
2279.00,0.0732
2278.00,0.0732
2277.00,0.0732
2276.00,0.0732
2275.00,0.0731
2274.00,0.0731
2273.00,0.0731
2272.00,0.0731
2271.00,0.0731
2270.00,0.0732
2269.00,0.0732
2268.00,0.0731
2267.00,0.0731
2266.00,0.0731
2265.00,0.0732
2264.00,0.0732
2263.00,0.0732
2262.00,0.0732
2261.00,0.0732
2260.00,0.0732
2259.00,0.0732
2258.00,0.0731
2257.00,0.0731
2256.00,0.0730
2255.00,0.0729
2254.00,0.0728
2253.00,0.0728
2252.00,0.0728
2251.00,0.0728
2250.00,0.0728
2249.00,0.0728
2248.00,0.0729
2247.00,0.0729
2246.00,0.0731
2245.00,0.0731
2244.00,0.0731
2243.00,0.0731
2242.00,0.0731
2241.00,0.0731
2240.00,0.0731
2239.00,0.0731
2238.00,0.0731
2237.00,0.0731
2236.00,0.0731
2235.00,0.0731
2234.00,0.0731
2233.00,0.0731
2232.00,0.0732
2231.00,0.0732
2230.00,0.0733
2229.00,0.0734
2228.00,0.0734
2227.00,0.0733
2226.00,0.0731
2225.00,0.0730
2224.00,0.0730
2223.00,0.0730
2222.00,0.0730
2221.00,0.0731
2220.00,0.0731
2219.00,0.0732
2218.00,0.0732
2217.00,0.0732
2216.00,0.0732
2215.00,0.0732
2214.00,0.0732
2213.00,0.0731
2212.00,0.0730
2211.00,0.0729
2210.00,0.0729
2209.00,0.0729
2208.00,0.0728
2207.00,0.0727
2206.00,0.0726
2205.00,0.0726
2204.00,0.0726
2203.00,0.0727
2202.00,0.0728
2201.00,0.0729
2200.00,0.0730
2199.00,0.0731
2198.00,0.0731
2197.00,0.0730
2196.00,0.0728
2195.00,0.0727
2194.00,0.0726
2193.00,0.0727
2192.00,0.0726
2191.00,0.0726
2190.00,0.0725
2189.00,0.0726
2188.00,0.0726
2187.00,0.0727
2186.00,0.0727
2185.00,0.0727
2184.00,0.0725
2183.00,0.0724
2182.00,0.0723
2181.00,0.0723
2180.00,0.0722
2179.00,0.0721
2178.00,0.0720
2177.00,0.0720
2176.00,0.0720
2175.00,0.0722
2174.00,0.0724
2173.00,0.0726
2172.00,0.0727
2171.00,0.0728
2170.00,0.0728
2169.00,0.0728
2168.00,0.0726
2167.00,0.0724
2166.00,0.0723
2165.00,0.0722
2164.00,0.0723
2163.00,0.0723
2162.00,0.0722
2161.00,0.0719
2160.00,0.0717
2159.00,0.0716
2158.00,0.0717
2157.00,0.0720
2156.00,0.0721
2155.00,0.0721
2154.00,0.0720
2153.00,0.0719
2152.00,0.0718
2151.00,0.0717
2150.00,0.0717
2149.00,0.0716
2148.00,0.0716
2147.00,0.0716
2146.00,0.0717
2145.00,0.0719
2144.00,0.0719
2143.00,0.0719
2142.00,0.0717
2141.00,0.0716
2140.00,0.0715
2139.00,0.0714
2138.00,0.0714
2137.00,0.0712
2136.00,0.0711
2135.00,0.0710
2134.00,0.0710
2133.00,0.0711
2132.00,0.0711
2131.00,0.0710
2130.00,0.0710
2129.00,0.0711
2128.00,0.0711
2127.00,0.0712
2126.00,0.0712
2125.00,0.0711
2124.00,0.0710
2123.00,0.0709
2122.00,0.0708
2121.00,0.0708
2120.00,0.0708
2119.00,0.0708
2118.00,0.0708
2117.00,0.0708
2116.00,0.0707
2115.00,0.0706
2114.00,0.0705
2113.00,0.0705
2112.00,0.0705
2111.00,0.0705
2110.00,0.0706
2109.00,0.0706
2108.00,0.0705
2107.00,0.0704
2106.00,0.0703
2105.00,0.0703
2104.00,0.0703
2103.00,0.0703
2102.00,0.0704
2101.00,0.0704
2100.00,0.0703
2099.00,0.0702
2098.00,0.0701
2097.00,0.0701
2096.00,0.0701
2095.00,0.0701
2094.00,0.0701
2093.00,0.0702
2092.00,0.0702
2091.00,0.0702
2090.00,0.0701
2089.00,0.0700
2088.00,0.0698
2087.00,0.0697
2086.00,0.0697
2085.00,0.0697
2084.00,0.0697
2083.00,0.0696
2082.00,0.0695
2081.00,0.0694
2080.00,0.0694
2079.00,0.0694
2078.00,0.0695
2077.00,0.0696
2076.00,0.0697
2075.00,0.0696
2074.00,0.0696
2073.00,0.0696
2072.00,0.0695
2071.00,0.0694
2070.00,0.0693
2069.00,0.0694
2068.00,0.0694
2067.00,0.0694
2066.00,0.0695
2065.00,0.0695
2064.00,0.0695
2063.00,0.0695
2062.00,0.0694
2061.00,0.0693
2060.00,0.0693
2059.00,0.0693
2058.00,0.0693
2057.00,0.0694
2056.00,0.0693
2055.00,0.0693
2054.00,0.0693
2053.00,0.0692
2052.00,0.0691
2051.00,0.0691
2050.00,0.0691
2049.00,0.0690
2048.00,0.0688
2047.00,0.0687
2046.00,0.0688
2045.00,0.0689
2044.00,0.0690
2043.00,0.0689
2042.00,0.0689
2041.00,0.0689
2040.00,0.0690
2039.00,0.0692
2038.00,0.0694
2037.00,0.0696
2036.00,0.0696
2035.00,0.0695
2034.00,0.0694
2033.00,0.0693
2032.00,0.0692
2031.00,0.0691
2030.00,0.0691
2029.00,0.0691
2028.00,0.0691
2027.00,0.0691
2026.00,0.0691
2025.00,0.0690
2024.00,0.0688
2023.00,0.0686
2022.00,0.0685
2021.00,0.0685
2020.00,0.0685
2019.00,0.0685
2018.00,0.0685
2017.00,0.0685
2016.00,0.0685
2015.00,0.0685
2014.00,0.0686
2013.00,0.0686
2012.00,0.0685
2011.00,0.0683
2010.00,0.0682
2009.00,0.0682
2008.00,0.0682
2007.00,0.0683
2006.00,0.0682
2005.00,0.0682
2004.00,0.0680
2003.00,0.0679
2002.00,0.0678
2001.00,0.0679
2000.00,0.0680
1999.00,0.0681
1998.00,0.0681
1997.00,0.0681
1996.00,0.0681
1995.00,0.0681
1994.00,0.0681
1993.00,0.0680
1992.00,0.0680
1991.00,0.0679
1990.00,0.0679
1989.00,0.0679
1988.00,0.0678
1987.00,0.0677
1986.00,0.0677
1985.00,0.0677
1984.00,0.0677
1983.00,0.0677
1982.00,0.0678
1981.00,0.0677
1980.00,0.0676
1979.00,0.0674
1978.00,0.0672
1977.00,0.0671
1976.00,0.0669
1975.00,0.0668
1974.00,0.0668
1973.00,0.0668
1972.00,0.0669
1971.00,0.0671
1970.00,0.0672
1969.00,0.0672
1968.00,0.0672
1967.00,0.0671
1966.00,0.0671
1965.00,0.0671
1964.00,0.0672
1963.00,0.0672
1962.00,0.0672
1961.00,0.0671
1960.00,0.0669
1959.00,0.0668
1958.00,0.0667
1957.00,0.0667
1956.00,0.0666
1955.00,0.0665
1954.00,0.0663
1953.00,0.0662
1952.00,0.0660
1951.00,0.0660
1950.00,0.0661
1949.00,0.0662
1948.00,0.0663
1947.00,0.0663
1946.00,0.0663
1945.00,0.0662
1944.00,0.0661
1943.00,0.0660
1942.00,0.0658
1941.00,0.0656
1940.00,0.0654
1939.00,0.0652
1938.00,0.0652
1937.00,0.0652
1936.00,0.0652
1935.00,0.0652
1934.00,0.0652
1933.00,0.0652
1932.00,0.0651
1931.00,0.0650
1930.00,0.0650
1929.00,0.0651
1928.00,0.0650
1927.00,0.0650
1926.00,0.0649
1925.00,0.0648
1924.00,0.0647
1923.00,0.0646
1922.00,0.0646
1921.00,0.0646
1920.00,0.0646
1919.00,0.0646
1918.00,0.0644
1917.00,0.0642
1916.00,0.0640
1915.00,0.0640
1914.00,0.0640
1913.00,0.0640
1912.00,0.0640
1911.00,0.0639
1910.00,0.0638
1909.00,0.0637
1908.00,0.0636
1907.00,0.0635
1906.00,0.0636
1905.00,0.0636
1904.00,0.0636
1903.00,0.0635
1902.00,0.0634
1901.00,0.0633
1900.00,0.0633
1899.00,0.0632
1898.00,0.0632
1897.00,0.0632
1896.00,0.0631
1895.00,0.0629
1894.00,0.0628
1893.00,0.0628
1892.00,0.0628
1891.00,0.0628
1890.00,0.0627
1889.00,0.0625
1888.00,0.0624
1887.00,0.0624
1886.00,0.0625
1885.00,0.0625
1884.00,0.0625
1883.00,0.0624
1882.00,0.0623
1881.00,0.0622
1880.00,0.0621
1879.00,0.0620
1878.00,0.0620
1877.00,0.0619
1876.00,0.0619
1875.00,0.0618
1874.00,0.0617
1873.00,0.0617
1872.00,0.0616
1871.00,0.0616
1870.00,0.0615
1869.00,0.0614
1868.00,0.0611
1867.00,0.0608
1866.00,0.0608
1865.00,0.0609
1864.00,0.0610
1863.00,0.0609
1862.00,0.0609
1861.00,0.0608
1860.00,0.0607
1859.00,0.0606
1858.00,0.0606
1857.00,0.0606
1856.00,0.0605
1855.00,0.0603
1854.00,0.0602
1853.00,0.0601
1852.00,0.0600
1851.00,0.0601
1850.00,0.0602
1849.00,0.0602
1848.00,0.0602
1847.00,0.0601
1846.00,0.0601
1845.00,0.0599
1844.00,0.0596
1843.00,0.0594
1842.00,0.0593
1841.00,0.0592
1840.00,0.0592
1839.00,0.0591
1838.00,0.0590
1837.00,0.0589
1836.00,0.0588
1835.00,0.0587
1834.00,0.0587
1833.00,0.0588
1832.00,0.0588
1831.00,0.0586
1830.00,0.0583
1829.00,0.0579
1828.00,0.0578
1827.00,0.0578
1826.00,0.0578
1825.00,0.0577
1824.00,0.0575
1823.00,0.0575
1822.00,0.0575
1821.00,0.0575
1820.00,0.0575
1819.00,0.0575
1818.00,0.0574
1817.00,0.0573
1816.00,0.0572
1815.00,0.0570
1814.00,0.0569
1813.00,0.0568
1812.00,0.0567
1811.00,0.0565
1810.00,0.0563
1809.00,0.0562
1808.00,0.0562
1807.00,0.0561
1806.00,0.0560
1805.00,0.0560
1804.00,0.0560
1803.00,0.0559
1802.00,0.0558
1801.00,0.0557
1800.00,0.0555
1799.00,0.0554
1798.00,0.0554
1797.00,0.0554
1796.00,0.0555
1795.00,0.0555
1794.00,0.0555
1793.00,0.0554
1792.00,0.0551
1791.00,0.0546
1790.00,0.0545
1789.00,0.0546
1788.00,0.0547
1787.00,0.0548
1786.00,0.0549
1785.00,0.0549
1784.00,0.0548
1783.00,0.0547
1782.00,0.0547
1781.00,0.0546
1780.00,0.0545
1779.00,0.0545
1778.00,0.0546
1777.00,0.0548
1776.00,0.0549
1775.00,0.0551
1774.00,0.0551
1773.00,0.0551
1772.00,0.0548
1771.00,0.0546
1770.00,0.0547
1769.00,0.0550
1768.00,0.0552
1767.00,0.0552
1766.00,0.0553
1765.00,0.0555
1764.00,0.0557
1763.00,0.0558
1762.00,0.0557
1761.00,0.0556
1760.00,0.0557
1759.00,0.0558
1758.00,0.0559
1757.00,0.0560
1756.00,0.0560
1755.00,0.0562
1754.00,0.0564
1753.00,0.0568
1752.00,0.0572
1751.00,0.0574
1750.00,0.0574
1749.00,0.0573
1748.00,0.0572
1747.00,0.0573
1746.00,0.0576
1745.00,0.0578
1744.00,0.0580
1743.00,0.0582
1742.00,0.0584
1741.00,0.0588
1740.00,0.0591
1739.00,0.0593
1738.00,0.0595
1737.00,0.0599
1736.00,0.0603
1735.00,0.0608
1734.00,0.0610
1733.00,0.0608
1732.00,0.0609
1731.00,0.0611
1730.00,0.0613
1729.00,0.0616
1728.00,0.0619
1727.00,0.0622
1726.00,0.0626
1725.00,0.0629
1724.00,0.0631
1723.00,0.0633
1722.00,0.0634
1721.00,0.0636
1720.00,0.0637
1719.00,0.0638
1718.00,0.0639
1717.00,0.0640
1716.00,0.0639
1715.00,0.0639
1714.00,0.0640
1713.00,0.0643
1712.00,0.0646
1711.00,0.0647
1710.00,0.0649
1709.00,0.0651
1708.00,0.0652
1707.00,0.0652
1706.00,0.0652
1705.00,0.0651
1704.00,0.0652
1703.00,0.0653
1702.00,0.0655
1701.00,0.0659
1700.00,0.0661
1699.00,0.0660
1698.00,0.0661
1697.00,0.0662
1696.00,0.0660
1695.00,0.0658
1694.00,0.0659
1693.00,0.0661
1692.00,0.0663
1691.00,0.0665
1690.00,0.0666
1689.00,0.0667
1688.00,0.0667
1687.00,0.0667
1686.00,0.0667
1685.00,0.0667
1684.00,0.0666
1683.00,0.0665
1682.00,0.0669
1681.00,0.0673
1680.00,0.0677
1679.00,0.0679
1678.00,0.0681
1677.00,0.0685
1676.00,0.0688
1675.00,0.0691
1674.00,0.0692
1673.00,0.0692
1672.00,0.0694
1671.00,0.0696
1670.00,0.0699
1669.00,0.0700
1668.00,0.0702
1667.00,0.0704
1666.00,0.0707
1665.00,0.0710
1664.00,0.0713
1663.00,0.0716
1662.00,0.0719
1661.00,0.0721
1660.00,0.0724
1659.00,0.0727
1658.00,0.0730
1657.00,0.0731
1656.00,0.0730
1655.00,0.0730
1654.00,0.0734
1653.00,0.0737
1652.00,0.0739
1651.00,0.0744
1650.00,0.0748
1649.00,0.0750
1648.00,0.0755
1647.00,0.0760
1646.00,0.0763
1645.00,0.0766
1644.00,0.0770
1643.00,0.0774
1642.00,0.0777
1641.00,0.0779
1640.00,0.0781
1639.00,0.0782
1638.00,0.0783
1637.00,0.0787
1636.00,0.0793
1635.00,0.0797
1634.00,0.0801
1633.00,0.0806
1632.00,0.0811
1631.00,0.0814
1630.00,0.0817
1629.00,0.0821
1628.00,0.0824
1627.00,0.0827
1626.00,0.0830
1625.00,0.0834
1624.00,0.0839
1623.00,0.0845
1622.00,0.0848
1621.00,0.0850
1620.00,0.0852
1619.00,0.0855
1618.00,0.0860
1617.00,0.0867
1616.00,0.0872
1615.00,0.0874
1614.00,0.0877
1613.00,0.0880
1612.00,0.0884
1611.00,0.0889
1610.00,0.0893
1609.00,0.0897
1608.00,0.0901
1607.00,0.0905
1606.00,0.0908
1605.00,0.0911
1604.00,0.0914
1603.00,0.0918
1602.00,0.0922
1601.00,0.0925
1600.00,0.0929
1599.00,0.0932
1598.00,0.0936
1597.00,0.0939
1596.00,0.0943
1595.00,0.0946
1594.00,0.0950
1593.00,0.0953
1592.00,0.0956
1591.00,0.0959
1590.00,0.0963
1589.00,0.0966
1588.00,0.0969
1587.00,0.0972
1586.00,0.0975
1585.00,0.0977
1584.00,0.0979
1583.00,0.0982
1582.00,0.0985
1581.00,0.0986
1580.00,0.0986
1579.00,0.0986
1578.00,0.0987
1577.00,0.0991
1576.00,0.0997
1575.00,0.1000
1574.00,0.1000
1573.00,0.0999
1572.00,0.0997
1571.00,0.0998
1570.00,0.1001
1569.00,0.1004
1568.00,0.1005
1567.00,0.1005
1566.00,0.1006
1565.00,0.1005
1564.00,0.1005
1563.00,0.1002
1562.00,0.0996
1561.00,0.0987
1560.00,0.0990
1559.00,0.1002
1558.00,0.1004
1557.00,0.1003
1556.00,0.1004
1555.00,0.1004
1554.00,0.1003
1553.00,0.1001
1552.00,0.0999
1551.00,0.0998
1550.00,0.0996
1549.00,0.0995
1548.00,0.0993
1547.00,0.0990
1546.00,0.0988
1545.00,0.0987
1544.00,0.0986
1543.00,0.0983
1542.00,0.0980
1541.00,0.0980
1540.00,0.0978
1539.00,0.0973
1538.00,0.0972
1537.00,0.0971
1536.00,0.0969
1535.00,0.0967
1534.00,0.0966
1533.00,0.0964
1532.00,0.0962
1531.00,0.0960
1530.00,0.0958
1529.00,0.0957
1528.00,0.0956
1527.00,0.0954
1526.00,0.0952
1525.00,0.0950
1524.00,0.0948
1523.00,0.0946
1522.00,0.0947
1521.00,0.0945
1520.00,0.0942
1519.00,0.0938
1518.00,0.0935
1517.00,0.0933
1516.00,0.0932
1515.00,0.0932
1514.00,0.0931
1513.00,0.0931
1512.00,0.0930
1511.00,0.0927
1510.00,0.0923
1509.00,0.0919
1508.00,0.0920
1507.00,0.0919
1506.00,0.0914
1505.00,0.0914
1504.00,0.0915
1503.00,0.0914
1502.00,0.0911
1501.00,0.0909
1500.00,0.0907
1499.00,0.0905
1498.00,0.0904
1497.00,0.0905
1496.00,0.0905
1495.00,0.0904
1494.00,0.0903
1493.00,0.0903
1492.00,0.0903
1491.00,0.0903
1490.00,0.0903
1489.00,0.0900
1488.00,0.0897
1487.00,0.0895
1486.00,0.0895
1485.00,0.0894
1484.00,0.0894
1483.00,0.0893
1482.00,0.0893
1481.00,0.0892
1480.00,0.0892
1479.00,0.0890
1478.00,0.0889
1477.00,0.0889
1476.00,0.0889
1475.00,0.0890
1474.00,0.0892
1473.00,0.0894
1472.00,0.0894
1471.00,0.0891
1470.00,0.0889
1469.00,0.0888
1468.00,0.0886
1467.00,0.0886
1466.00,0.0887
1465.00,0.0889
1464.00,0.0890
1463.00,0.0889
1462.00,0.0888
1461.00,0.0886
1460.00,0.0884
1459.00,0.0884
1458.00,0.0887
1457.00,0.0891
1456.00,0.0891
1455.00,0.0890
1454.00,0.0888
1453.00,0.0888
1452.00,0.0889
1451.00,0.0889
1450.00,0.0890
1449.00,0.0891
1448.00,0.0892
1447.00,0.0892
1446.00,0.0891
1445.00,0.0890
1444.00,0.0890
1443.00,0.0891
1442.00,0.0892
1441.00,0.0892
1440.00,0.0892
1439.00,0.0893
1438.00,0.0894
1437.00,0.0897
1436.00,0.0900
1435.00,0.0900
1434.00,0.0899
1433.00,0.0898
1432.00,0.0899
1431.00,0.0900
1430.00,0.0901
1429.00,0.0902
1428.00,0.0903
1427.00,0.0904
1426.00,0.0905
1425.00,0.0906
1424.00,0.0906
1423.00,0.0906
1422.00,0.0906
1421.00,0.0905
1420.00,0.0908
1419.00,0.0912
1418.00,0.0913
1417.00,0.0914
1416.00,0.0915
1415.00,0.0916
1414.00,0.0917
1413.00,0.0917
1412.00,0.0918
1411.00,0.0920
1410.00,0.0921
1409.00,0.0921
1408.00,0.0922
1407.00,0.0923
1406.00,0.0925
1405.00,0.0927
1404.00,0.0930
1403.00,0.0932
1402.00,0.0933
1401.00,0.0934
1400.00,0.0937
1399.00,0.0941
1398.00,0.0943
1397.00,0.0945
1396.00,0.0947
1395.00,0.0949
1394.00,0.0950
1393.00,0.0951
1392.00,0.0953
1391.00,0.0954
1390.00,0.0955
1389.00,0.0957
1388.00,0.0960
1387.00,0.0962
1386.00,0.0963
1385.00,0.0964
1384.00,0.0965
1383.00,0.0967
1382.00,0.0969
1381.00,0.0970
1380.00,0.0971
1379.00,0.0972
1378.00,0.0972
1377.00,0.0971
1376.00,0.0972
1375.00,0.0973
1374.00,0.0974
1373.00,0.0975
1372.00,0.0975
1371.00,0.0976
1370.00,0.0976
1369.00,0.0977
1368.00,0.0977
1367.00,0.0977
1366.00,0.0977
1365.00,0.0976
1364.00,0.0976
1363.00,0.0977
1362.00,0.0978
1361.00,0.0978
1360.00,0.0979
1359.00,0.0979
1358.00,0.0979
1357.00,0.0979
1356.00,0.0979
1355.00,0.0979
1354.00,0.0979
1353.00,0.0979
1352.00,0.0979
1351.00,0.0979
1350.00,0.0979
1349.00,0.0979
1348.00,0.0979
1347.00,0.0979
1346.00,0.0979
1345.00,0.0979
1344.00,0.0979
1343.00,0.0979
1342.00,0.0979
1341.00,0.0979
1340.00,0.0979
1339.00,0.0979
1338.00,0.0979
1337.00,0.0979
1336.00,0.0979
1335.00,0.0979
1334.00,0.0979
1333.00,0.0979
1332.00,0.0978
1331.00,0.0978
1330.00,0.0978
1329.00,0.0978
1328.00,0.0979
1327.00,0.0979
1326.00,0.0979
1325.00,0.0979
1324.00,0.0979
1323.00,0.0980
1322.00,0.0981
1321.00,0.0981
1320.00,0.0982
1319.00,0.0982
1318.00,0.0982
1317.00,0.0982
1316.00,0.0982
1315.00,0.0983
1314.00,0.0983
1313.00,0.0984
1312.00,0.0984
1311.00,0.0985
1310.00,0.0985
1309.00,0.0985
1308.00,0.0986
1307.00,0.0987
1306.00,0.0988
1305.00,0.0988
1304.00,0.0989
1303.00,0.0990
1302.00,0.0990
1301.00,0.0991
1300.00,0.0991
1299.00,0.0992
1298.00,0.0993
1297.00,0.0994
1296.00,0.0995
1295.00,0.0996
1294.00,0.0996
1293.00,0.0997
1292.00,0.0998
1291.00,0.1000
1290.00,0.1001
1289.00,0.1001
1288.00,0.1002
1287.00,0.1004
1286.00,0.1005
1285.00,0.1006
1284.00,0.1007
1283.00,0.1008
1282.00,0.1010
1281.00,0.1011
1280.00,0.1012
1279.00,0.1014
1278.00,0.1015
1277.00,0.1017
1276.00,0.1019
1275.00,0.1021
1274.00,0.1022
1273.00,0.1023
1272.00,0.1024
1271.00,0.1026
1270.00,0.1027
1269.00,0.1029
1268.00,0.1030
1267.00,0.1031
1266.00,0.1033
1265.00,0.1034
1264.00,0.1036
1263.00,0.1038
1262.00,0.1039
1261.00,0.1041
1260.00,0.1043
1259.00,0.1044
1258.00,0.1045
1257.00,0.1046
1256.00,0.1047
1255.00,0.1049
1254.00,0.1050
1253.00,0.1051
1252.00,0.1053
1251.00,0.1054
1250.00,0.1055
1249.00,0.1056
1248.00,0.1057
1247.00,0.1057
1246.00,0.1057
1245.00,0.1057
1244.00,0.1057
1243.00,0.1058
1242.00,0.1058
1241.00,0.1059
1240.00,0.1060
1239.00,0.1060
1238.00,0.1060
1237.00,0.1060
1236.00,0.1061
1235.00,0.1062
1234.00,0.1063
1233.00,0.1063
1232.00,0.1063
1231.00,0.1063
1230.00,0.1063
1229.00,0.1063
1228.00,0.1063
1227.00,0.1064
1226.00,0.1064
1225.00,0.1063
1224.00,0.1063
1223.00,0.1062
1222.00,0.1061
1221.00,0.1061
1220.00,0.1060
1219.00,0.1059
1218.00,0.1058
1217.00,0.1057
1216.00,0.1056
1215.00,0.1057
1214.00,0.1057
1213.00,0.1057
1212.00,0.1058
1211.00,0.1058
1210.00,0.1057
1209.00,0.1057
1208.00,0.1057
1207.00,0.1057
1206.00,0.1056
1205.00,0.1056
1204.00,0.1056
1203.00,0.1055
1202.00,0.1054
1201.00,0.1054
1200.00,0.1053
1199.00,0.1052
1198.00,0.1051
1197.00,0.1050
1196.00,0.1049
1195.00,0.1048
1194.00,0.1047
1193.00,0.1047
1192.00,0.1048
1191.00,0.1048
1190.00,0.1048
1189.00,0.1047
1188.00,0.1047
1187.00,0.1047
1186.00,0.1047
1185.00,0.1048
1184.00,0.1048
1183.00,0.1048
1182.00,0.1048
1181.00,0.1047
1180.00,0.1048
1179.00,0.1048
1178.00,0.1049
1177.00,0.1049
1176.00,0.1048
1175.00,0.1048
1174.00,0.1047
1173.00,0.1047
1172.00,0.1046
1171.00,0.1046
1170.00,0.1046
1169.00,0.1046
1168.00,0.1046
1167.00,0.1047
1166.00,0.1047
1165.00,0.1047
1164.00,0.1048
1163.00,0.1049
1162.00,0.1050
1161.00,0.1050
1160.00,0.1049
1159.00,0.1048
1158.00,0.1048
1157.00,0.1048
1156.00,0.1048
1155.00,0.1049
1154.00,0.1049
1153.00,0.1049
1152.00,0.1049
1151.00,0.1049
1150.00,0.1049
1149.00,0.1048
1148.00,0.1048
1147.00,0.1047
1146.00,0.1046
1145.00,0.1045
1144.00,0.1045
1143.00,0.1044
1142.00,0.1044
1141.00,0.1044
1140.00,0.1044
1139.00,0.1044
1138.00,0.1044
1137.00,0.1043
1136.00,0.1042
1135.00,0.1041
1134.00,0.1040
1133.00,0.1040
1132.00,0.1039
1131.00,0.1038
1130.00,0.1038
1129.00,0.1037
1128.00,0.1037
1127.00,0.1036
1126.00,0.1036
1125.00,0.1036
1124.00,0.1036
1123.00,0.1036
1122.00,0.1035
1121.00,0.1035
1120.00,0.1035
1119.00,0.1035
1118.00,0.1036
1117.00,0.1037
1116.00,0.1038
1115.00,0.1039
1114.00,0.1040
1113.00,0.1039
1112.00,0.1040
1111.00,0.1040
1110.00,0.1040
1109.00,0.1039
1108.00,0.1038
1107.00,0.1038
1106.00,0.1039
1105.00,0.1041
1104.00,0.1042
1103.00,0.1043
1102.00,0.1043
1101.00,0.1042
1100.00,0.1041
1099.00,0.1040
1098.00,0.1039
1097.00,0.1040
1096.00,0.1041
1095.00,0.1043
1094.00,0.1045
1093.00,0.1046
1092.00,0.1048
1091.00,0.1049
1090.00,0.1049
1089.00,0.1049
1088.00,0.1050
1087.00,0.1049
1086.00,0.1049
1085.00,0.1050
1084.00,0.1051
1083.00,0.1052
1082.00,0.1053
1081.00,0.1053
1080.00,0.1054
1079.00,0.1055
1078.00,0.1055
1077.00,0.1055
1076.00,0.1056
1075.00,0.1057
1074.00,0.1059
1073.00,0.1059
1072.00,0.1060
1071.00,0.1059
1070.00,0.1060
1069.00,0.1060
1068.00,0.1060
1067.00,0.1061
1066.00,0.1060
1065.00,0.1059
1064.00,0.1058
1063.00,0.1057
1062.00,0.1056
1061.00,0.1056
1060.00,0.1056
1059.00,0.1055
1058.00,0.1055
1057.00,0.1055
1056.00,0.1055
1055.00,0.1056
1054.00,0.1056
1053.00,0.1057
1052.00,0.1059
1051.00,0.1060
1050.00,0.1061
1049.00,0.1062
1048.00,0.1062
1047.00,0.1061
1046.00,0.1060
1045.00,0.1059
1044.00,0.1059
1043.00,0.1059
1042.00,0.1058
1041.00,0.1058
1040.00,0.1057
1039.00,0.1057
1038.00,0.1056
1037.00,0.1055
1036.00,0.1054
1035.00,0.1053
1034.00,0.1051
1033.00,0.1050
1032.00,0.1049
1031.00,0.1048
1030.00,0.1049
1029.00,0.1048
1028.00,0.1047
1027.00,0.1044
1026.00,0.1041
1025.00,0.1039
1024.00,0.1038
1023.00,0.1038
1022.00,0.1037
1021.00,0.1037
1020.00,0.1036
1019.00,0.1034
1018.00,0.1033
1017.00,0.1031
1016.00,0.1029
1015.00,0.1028
1014.00,0.1027
1013.00,0.1025
1012.00,0.1024
1011.00,0.1023
1010.00,0.1022
1009.00,0.1021
1008.00,0.1020
1007.00,0.1019
1006.00,0.1018
1005.00,0.1016
1004.00,0.1013
1003.00,0.1011
1002.00,0.1009
1001.00,0.1008
1000.00,0.1007
999.00,0.1006
998.00,0.1005
997.00,0.1004
996.00,0.1002
995.00,0.0999
994.00,0.0997
993.00,0.0995
992.00,0.0994
991.00,0.0993
990.00,0.0992
989.00,0.0990
988.00,0.0989
987.00,0.0987
986.00,0.0985
985.00,0.0984
984.00,0.0984
983.00,0.0984
982.00,0.0984
981.00,0.0983
980.00,0.0983
979.00,0.0982
978.00,0.0981
977.00,0.0981
976.00,0.0981
975.00,0.0981
974.00,0.0980
973.00,0.0980
972.00,0.0979
971.00,0.0977
970.00,0.0977
969.00,0.0976
968.00,0.0976
967.00,0.0975
966.00,0.0974
965.00,0.0972
964.00,0.0971
963.00,0.0968
962.00,0.0966
961.00,0.0965
960.00,0.0965
959.00,0.0964
958.00,0.0964
957.00,0.0963
956.00,0.0962
955.00,0.0962
954.00,0.0962
953.00,0.0962
952.00,0.0960
951.00,0.0959
950.00,0.0958
949.00,0.0958
948.00,0.0958
947.00,0.0957
946.00,0.0956
945.00,0.0955
944.00,0.0955
943.00,0.0955
942.00,0.0954
941.00,0.0953
940.00,0.0952
939.00,0.0951
938.00,0.0950
937.00,0.0948
936.00,0.0947
935.00,0.0946
934.00,0.0945
933.00,0.0944
932.00,0.0942
931.00,0.0941
930.00,0.0939
929.00,0.0937
928.00,0.0937
927.00,0.0936
926.00,0.0936
925.00,0.0936
924.00,0.0936
923.00,0.0936
922.00,0.0936
921.00,0.0935
920.00,0.0936
919.00,0.0936
918.00,0.0938
917.00,0.0939
916.00,0.0939
915.00,0.0939
914.00,0.0938
913.00,0.0937
912.00,0.0937
911.00,0.0937
910.00,0.0937
909.00,0.0937
908.00,0.0937
907.00,0.0938
906.00,0.0938
905.00,0.0938
904.00,0.0938
903.00,0.0939
902.00,0.0939
901.00,0.0938
900.00,0.0937
899.00,0.0938
898.00,0.0939
897.00,0.0939
896.00,0.0938
895.00,0.0936
894.00,0.0935
893.00,0.0935
892.00,0.0936
891.00,0.0936
890.00,0.0936
889.00,0.0935
888.00,0.0934
887.00,0.0934
886.00,0.0933
885.00,0.0932
884.00,0.0931
883.00,0.0930
882.00,0.0930
881.00,0.0930
880.00,0.0930
879.00,0.0931
878.00,0.0932
877.00,0.0931
876.00,0.0931
875.00,0.0931
874.00,0.0933
873.00,0.0934
872.00,0.0935
871.00,0.0936
870.00,0.0935
869.00,0.0934
868.00,0.0932
867.00,0.0930
866.00,0.0928
865.00,0.0928
864.00,0.0929
863.00,0.0931
862.00,0.0933
861.00,0.0934
860.00,0.0934
859.00,0.0933
858.00,0.0932
857.00,0.0931
856.00,0.0930
855.00,0.0930
854.00,0.0930
853.00,0.0930
852.00,0.0931
851.00,0.0933
850.00,0.0936
849.00,0.0938
848.00,0.0939
847.00,0.0939
846.00,0.0940
845.00,0.0942
844.00,0.0945
843.00,0.0947
842.00,0.0948
841.00,0.0948
840.00,0.0950
839.00,0.0952
838.00,0.0954
837.00,0.0955
836.00,0.0956
835.00,0.0957
834.00,0.0958
833.00,0.0959
832.00,0.0961
831.00,0.0963
830.00,0.0966
829.00,0.0968
828.00,0.0970
827.00,0.0969
826.00,0.0968
825.00,0.0967
824.00,0.0968
823.00,0.0970
822.00,0.0973
821.00,0.0975
820.00,0.0976
819.00,0.0977
818.00,0.0978
817.00,0.0979
816.00,0.0980
815.00,0.0982
814.00,0.0984
813.00,0.0986
812.00,0.0987
811.00,0.0987
810.00,0.0988
809.00,0.0990
808.00,0.0992
807.00,0.0994
806.00,0.0997
805.00,0.1000
804.00,0.1002
803.00,0.1003
802.00,0.1001
801.00,0.0998
800.00,0.0997
799.00,0.0997
798.00,0.0998
797.00,0.1000
796.00,0.1002
795.00,0.1003
794.00,0.1003
793.00,0.1004
792.00,0.1006
791.00,0.1009
790.00,0.1012
789.00,0.1014
788.00,0.1015
787.00,0.1016
786.00,0.1016
785.00,0.1016
784.00,0.1016
783.00,0.1016
782.00,0.1016
781.00,0.1018
780.00,0.1021
779.00,0.1023
778.00,0.1024
777.00,0.1023
776.00,0.1023
775.00,0.1023
774.00,0.1024
773.00,0.1025
772.00,0.1026
771.00,0.1027
770.00,0.1028
769.00,0.1031
768.00,0.1035
767.00,0.1041
766.00,0.1047
765.00,0.1052
764.00,0.1054
763.00,0.1053
762.00,0.1052
761.00,0.1052
760.00,0.1054
759.00,0.1055
758.00,0.1057
757.00,0.1057
756.00,0.1055
755.00,0.1051
754.00,0.1047
753.00,0.1044
752.00,0.1043
751.00,0.1044
750.00,0.1047
749.00,0.1050
748.00,0.1053
747.00,0.1055
746.00,0.1057
745.00,0.1058
744.00,0.1060
743.00,0.1063
742.00,0.1068
741.00,0.1072
740.00,0.1076
739.00,0.1077
738.00,0.1076
737.00,0.1076
736.00,0.1077
735.00,0.1080
734.00,0.1083
733.00,0.1084
732.00,0.1084
731.00,0.1082
730.00,0.1079
729.00,0.1079
728.00,0.1080
727.00,0.1081
726.00,0.1080
725.00,0.1078
724.00,0.1075
723.00,0.1074
722.00,0.1077
721.00,0.1083
720.00,0.1091
719.00,0.1097
718.00,0.1101
717.00,0.1104
716.00,0.1107
715.00,0.1109
714.00,0.1108
713.00,0.1107
712.00,0.1105
711.00,0.1103
710.00,0.1102
709.00,0.1102
708.00,0.1101
707.00,0.1101
706.00,0.1101
705.00,0.1103
704.00,0.1107
703.00,0.1110
702.00,0.1112
701.00,0.1113
700.00,0.1115
699.00,0.1117
698.00,0.1119
697.00,0.1124
696.00,0.1131
695.00,0.1139
694.00,0.1144
693.00,0.1147
692.00,0.1148
691.00,0.1148
690.00,0.1149
689.00,0.1152
688.00,0.1155
687.00,0.1158
686.00,0.1158
685.00,0.1156
684.00,0.1153
683.00,0.1147
682.00,0.1139
681.00,0.1132
680.00,0.1127
679.00,0.1124
678.00,0.1124
677.00,0.1126
676.00,0.1132
675.00,0.1139
674.00,0.1150
673.00,0.1162
672.00,0.1173
671.00,0.1181
670.00,0.1189
669.00,0.1201
668.00,0.1209
667.00,0.1209
666.00,0.1207
665.00,0.1205
664.00,0.1203
663.00,0.1201
662.00,0.1199
661.00,0.1196
660.00,0.1195
659.00,0.1193
658.00,0.1189
657.00,0.1183
656.00,0.1177
655.00,0.1172
654.00,0.1169
653.00,0.1168
652.00,0.1169
651.00,0.1172
650.00,0.1177
