Created as New Dataset,Monday, April 03 2023
cm-1,A
4000.00,0.0358
3999.00,0.0358
3998.00,0.0358
3997.00,0.0358
3996.00,0.0358
3995.00,0.0358
3994.00,0.0359
3993.00,0.0359
3992.00,0.0359
3991.00,0.0359
3990.00,0.0359
3989.00,0.0359
3988.00,0.0359
3987.00,0.0358
3986.00,0.0358
3985.00,0.0358
3984.00,0.0358
3983.00,0.0357
3982.00,0.0357
3981.00,0.0357
3980.00,0.0357
3979.00,0.0357
3978.00,0.0358
3977.00,0.0358
3976.00,0.0358
3975.00,0.0358
3974.00,0.0358
3973.00,0.0358
3972.00,0.0358
3971.00,0.0358
3970.00,0.0358
3969.00,0.0358
3968.00,0.0358
3967.00,0.0358
3966.00,0.0358
3965.00,0.0358
3964.00,0.0358
3963.00,0.0358
3962.00,0.0358
3961.00,0.0358
3960.00,0.0358
3959.00,0.0358
3958.00,0.0358
3957.00,0.0357
3956.00,0.0357
3955.00,0.0357
3954.00,0.0357
3953.00,0.0358
3952.00,0.0358
3951.00,0.0358
3950.00,0.0358
3949.00,0.0358
3948.00,0.0358
3947.00,0.0358
3946.00,0.0359
3945.00,0.0358
3944.00,0.0357
3943.00,0.0357
3942.00,0.0357
3941.00,0.0357
3940.00,0.0358
3939.00,0.0358
3938.00,0.0358
3937.00,0.0359
3936.00,0.0359
3935.00,0.0360
3934.00,0.0360
3933.00,0.0360
3932.00,0.0360
3931.00,0.0359
3930.00,0.0358
3929.00,0.0357
3928.00,0.0357
3927.00,0.0357
3926.00,0.0357
3925.00,0.0356
3924.00,0.0356
3923.00,0.0357
3922.00,0.0357
3921.00,0.0358
3920.00,0.0358
3919.00,0.0358
3918.00,0.0358
3917.00,0.0358
3916.00,0.0358
3915.00,0.0358
3914.00,0.0358
3913.00,0.0358
3912.00,0.0358
3911.00,0.0358
3910.00,0.0358
3909.00,0.0358
3908.00,0.0358
3907.00,0.0358
3906.00,0.0358
3905.00,0.0358
3904.00,0.0359
3903.00,0.0360
3902.00,0.0361
3901.00,0.0360
3900.00,0.0359
3899.00,0.0358
3898.00,0.0358
3897.00,0.0359
3896.00,0.0360
3895.00,0.0360
3894.00,0.0360
3893.00,0.0359
3892.00,0.0358
3891.00,0.0358
3890.00,0.0358
3889.00,0.0360
3888.00,0.0360
3887.00,0.0361
3886.00,0.0361
3885.00,0.0361
3884.00,0.0361
3883.00,0.0360
3882.00,0.0358
3881.00,0.0356
3880.00,0.0356
3879.00,0.0357
3878.00,0.0359
3877.00,0.0360
3876.00,0.0359
3875.00,0.0358
3874.00,0.0358
3873.00,0.0359
3872.00,0.0360
3871.00,0.0360
3870.00,0.0359
3869.00,0.0360
3868.00,0.0362
3867.00,0.0363
3866.00,0.0363
3865.00,0.0362
3864.00,0.0360
3863.00,0.0360
3862.00,0.0360
3861.00,0.0361
3860.00,0.0361
3859.00,0.0361
3858.00,0.0360
3857.00,0.0359
3856.00,0.0359
3855.00,0.0363
3854.00,0.0365
3853.00,0.0363
3852.00,0.0361
3851.00,0.0361
3850.00,0.0362
3849.00,0.0362
3848.00,0.0362
3847.00,0.0362
3846.00,0.0361
3845.00,0.0361
3844.00,0.0361
3843.00,0.0362
3842.00,0.0363
3841.00,0.0364
3840.00,0.0365
3839.00,0.0365
3838.00,0.0364
3837.00,0.0362
3836.00,0.0361
3835.00,0.0360
3834.00,0.0360
3833.00,0.0360
3832.00,0.0361
3831.00,0.0362
3830.00,0.0363
3829.00,0.0364
3828.00,0.0363
3827.00,0.0362
3826.00,0.0361
3825.00,0.0362
3824.00,0.0363
3823.00,0.0364
3822.00,0.0363
3821.00,0.0363
3820.00,0.0363
3819.00,0.0364
3818.00,0.0365
3817.00,0.0364
3816.00,0.0362
3815.00,0.0361
3814.00,0.0362
3813.00,0.0362
3812.00,0.0362
3811.00,0.0361
3810.00,0.0361
3809.00,0.0362
3808.00,0.0363
3807.00,0.0363
3806.00,0.0364
3805.00,0.0365
3804.00,0.0365
3803.00,0.0365
3802.00,0.0364
3801.00,0.0364
3800.00,0.0364
3799.00,0.0364
3798.00,0.0363
3797.00,0.0361
3796.00,0.0361
3795.00,0.0362
3794.00,0.0362
3793.00,0.0362
3792.00,0.0362
3791.00,0.0362
3790.00,0.0362
3789.00,0.0363
3788.00,0.0363
3787.00,0.0363
3786.00,0.0363
3785.00,0.0362
3784.00,0.0361
3783.00,0.0362
3782.00,0.0362
3781.00,0.0361
3780.00,0.0360
3779.00,0.0360
3778.00,0.0360
3777.00,0.0361
3776.00,0.0362
3775.00,0.0362
3774.00,0.0362
3773.00,0.0362
3772.00,0.0363
3771.00,0.0363
3770.00,0.0364
3769.00,0.0364
3768.00,0.0365
3767.00,0.0364
3766.00,0.0363
3765.00,0.0363
3764.00,0.0364
3763.00,0.0365
3762.00,0.0365
3761.00,0.0365
3760.00,0.0364
3759.00,0.0364
3758.00,0.0364
3757.00,0.0365
3756.00,0.0366
3755.00,0.0367
3754.00,0.0368
3753.00,0.0371
3752.00,0.0375
3751.00,0.0377
3750.00,0.0376
3749.00,0.0375
3748.00,0.0373
3747.00,0.0370
3746.00,0.0368
3745.00,0.0367
3744.00,0.0367
3743.00,0.0369
3742.00,0.0371
3741.00,0.0371
3740.00,0.0371
3739.00,0.0370
3738.00,0.0370
3737.00,0.0371
3736.00,0.0371
3735.00,0.0370
3734.00,0.0369
3733.00,0.0369
3732.00,0.0369
3731.00,0.0369
3730.00,0.0369
3729.00,0.0369
3728.00,0.0368
3727.00,0.0368
3726.00,0.0368
3725.00,0.0367
3724.00,0.0367
3723.00,0.0365
3722.00,0.0365
3721.00,0.0364
3720.00,0.0364
3719.00,0.0364
3718.00,0.0364
3717.00,0.0364
3716.00,0.0365
3715.00,0.0366
3714.00,0.0366
3713.00,0.0368
3712.00,0.0369
3711.00,0.0368
3710.00,0.0368
3709.00,0.0368
3708.00,0.0369
3707.00,0.0369
3706.00,0.0369
3705.00,0.0368
3704.00,0.0367
3703.00,0.0365
3702.00,0.0364
3701.00,0.0364
3700.00,0.0365
3699.00,0.0367
3698.00,0.0367
3697.00,0.0367
3696.00,0.0367
3695.00,0.0368
3694.00,0.0368
3693.00,0.0368
3692.00,0.0367
3691.00,0.0368
3690.00,0.0368
3689.00,0.0367
3688.00,0.0367
3687.00,0.0368
3686.00,0.0369
3685.00,0.0369
3684.00,0.0369
3683.00,0.0369
3682.00,0.0369
3681.00,0.0368
3680.00,0.0367
3679.00,0.0367
3678.00,0.0367
3677.00,0.0368
3676.00,0.0369
3675.00,0.0369
3674.00,0.0371
3673.00,0.0374
3672.00,0.0375
3671.00,0.0373
3670.00,0.0370
3669.00,0.0367
3668.00,0.0367
3667.00,0.0368
3666.00,0.0369
3665.00,0.0369
3664.00,0.0369
3663.00,0.0369
3662.00,0.0369
3661.00,0.0369
3660.00,0.0369
3659.00,0.0369
3658.00,0.0370
3657.00,0.0371
3656.00,0.0371
3655.00,0.0371
3654.00,0.0371
3653.00,0.0370
3652.00,0.0369
3651.00,0.0371
3650.00,0.0374
3649.00,0.0373
3648.00,0.0370
3647.00,0.0369
3646.00,0.0370
3645.00,0.0371
3644.00,0.0372
3643.00,0.0372
3642.00,0.0371
3641.00,0.0371
3640.00,0.0371
3639.00,0.0370
3638.00,0.0370
3637.00,0.0370
3636.00,0.0370
3635.00,0.0370
3634.00,0.0371
3633.00,0.0371
3632.00,0.0371
3631.00,0.0373
3630.00,0.0374
3629.00,0.0376
3628.00,0.0376
3627.00,0.0377
3626.00,0.0377
3625.00,0.0377
3624.00,0.0376
3623.00,0.0375
3622.00,0.0374
3621.00,0.0374
3620.00,0.0375
3619.00,0.0375
3618.00,0.0375
3617.00,0.0376
3616.00,0.0376
3615.00,0.0375
3614.00,0.0374
3613.00,0.0374
3612.00,0.0376
3611.00,0.0377
3610.00,0.0378
3609.00,0.0378
3608.00,0.0377
3607.00,0.0376
3606.00,0.0376
3605.00,0.0376
3604.00,0.0376
3603.00,0.0376
3602.00,0.0376
3601.00,0.0376
3600.00,0.0375
3599.00,0.0375
3598.00,0.0375
3597.00,0.0375
3596.00,0.0374
3595.00,0.0375
3594.00,0.0375
3593.00,0.0376
3592.00,0.0377
3591.00,0.0378
3590.00,0.0378
3589.00,0.0377
3588.00,0.0376
3587.00,0.0375
3586.00,0.0374
3585.00,0.0375
3584.00,0.0376
3583.00,0.0376
3582.00,0.0376
3581.00,0.0376
3580.00,0.0376
3579.00,0.0376
3578.00,0.0376
3577.00,0.0376
3576.00,0.0376
3575.00,0.0376
3574.00,0.0376
3573.00,0.0376
3572.00,0.0376
3571.00,0.0376
3570.00,0.0376
3569.00,0.0377
3568.00,0.0378
3567.00,0.0379
3566.00,0.0379
3565.00,0.0379
3564.00,0.0379
3563.00,0.0379
3562.00,0.0378
3561.00,0.0378
3560.00,0.0378
3559.00,0.0379
3558.00,0.0379
3557.00,0.0380
3556.00,0.0380
3555.00,0.0381
3554.00,0.0380
3553.00,0.0380
3552.00,0.0380
3551.00,0.0381
3550.00,0.0381
3549.00,0.0382
3548.00,0.0382
3547.00,0.0382
3546.00,0.0383
3545.00,0.0382
3544.00,0.0382
3543.00,0.0382
3542.00,0.0382
3541.00,0.0382
3540.00,0.0382
3539.00,0.0382
3538.00,0.0382
3537.00,0.0382
3536.00,0.0382
3535.00,0.0383
3534.00,0.0383
3533.00,0.0383
3532.00,0.0383
3531.00,0.0383
3530.00,0.0383
3529.00,0.0384
3528.00,0.0384
3527.00,0.0385
3526.00,0.0386
3525.00,0.0386
3524.00,0.0386
3523.00,0.0385
3522.00,0.0384
3521.00,0.0384
3520.00,0.0384
3519.00,0.0384
3518.00,0.0385
3517.00,0.0385
3516.00,0.0385
3515.00,0.0386
3514.00,0.0385
3513.00,0.0385
3512.00,0.0385
3511.00,0.0385
3510.00,0.0385
3509.00,0.0386
3508.00,0.0386
3507.00,0.0387
3506.00,0.0387
3505.00,0.0387
3504.00,0.0387
3503.00,0.0387
3502.00,0.0387
3501.00,0.0388
3500.00,0.0388
3499.00,0.0388
3498.00,0.0388
3497.00,0.0388
3496.00,0.0388
3495.00,0.0388
3494.00,0.0388
3493.00,0.0388
3492.00,0.0389
3491.00,0.0389
3490.00,0.0389
3489.00,0.0390
3488.00,0.0389
3487.00,0.0389
3486.00,0.0390
3485.00,0.0390
3484.00,0.0390
3483.00,0.0390
3482.00,0.0390
3481.00,0.0390
3480.00,0.0390
3479.00,0.0390
3478.00,0.0390
3477.00,0.0390
3476.00,0.0390
3475.00,0.0390
3474.00,0.0391
3473.00,0.0392
3472.00,0.0392
3471.00,0.0392
3470.00,0.0392
3469.00,0.0392
3468.00,0.0392
3467.00,0.0392
3466.00,0.0392
3465.00,0.0392
3464.00,0.0392
3463.00,0.0392
3462.00,0.0392
3461.00,0.0392
3460.00,0.0393
3459.00,0.0393
3458.00,0.0393
3457.00,0.0393
3456.00,0.0393
3455.00,0.0393
3454.00,0.0393
3453.00,0.0393
3452.00,0.0393
3451.00,0.0394
3450.00,0.0394
3449.00,0.0395
3448.00,0.0395
3447.00,0.0395
3446.00,0.0395
3445.00,0.0395
3444.00,0.0395
3443.00,0.0396
3442.00,0.0396
3441.00,0.0396
3440.00,0.0396
3439.00,0.0395
3438.00,0.0395
3437.00,0.0395
3436.00,0.0395
3435.00,0.0396
3434.00,0.0396
3433.00,0.0396
3432.00,0.0396
3431.00,0.0396
3430.00,0.0396
3429.00,0.0397
3428.00,0.0397
3427.00,0.0397
3426.00,0.0397
3425.00,0.0397
3424.00,0.0397
3423.00,0.0397
3422.00,0.0397
3421.00,0.0398
3420.00,0.0398
3419.00,0.0398
3418.00,0.0398
3417.00,0.0398
3416.00,0.0398
3415.00,0.0397
3414.00,0.0397
3413.00,0.0397
3412.00,0.0397
3411.00,0.0397
3410.00,0.0397
3409.00,0.0397
3408.00,0.0397
3407.00,0.0397
3406.00,0.0397
3405.00,0.0398
3404.00,0.0398
3403.00,0.0398
3402.00,0.0399
3401.00,0.0399
3400.00,0.0399
3399.00,0.0399
3398.00,0.0399
3397.00,0.0399
3396.00,0.0399
3395.00,0.0400
3394.00,0.0400
3393.00,0.0400
3392.00,0.0400
3391.00,0.0400
3390.00,0.0400
3389.00,0.0400
3388.00,0.0400
3387.00,0.0400
3386.00,0.0400
3385.00,0.0400
3384.00,0.0400
3383.00,0.0400
3382.00,0.0400
3381.00,0.0400
3380.00,0.0401
3379.00,0.0401
3378.00,0.0401
3377.00,0.0401
3376.00,0.0401
3375.00,0.0401
3374.00,0.0401
3373.00,0.0401
3372.00,0.0402
3371.00,0.0402
3370.00,0.0401
3369.00,0.0401
3368.00,0.0401
3367.00,0.0401
3366.00,0.0402
3365.00,0.0402
3364.00,0.0402
3363.00,0.0402
3362.00,0.0402
3361.00,0.0402
3360.00,0.0402
3359.00,0.0402
3358.00,0.0402
3357.00,0.0402
3356.00,0.0402
3355.00,0.0402
3354.00,0.0403
3353.00,0.0403
3352.00,0.0403
3351.00,0.0403
3350.00,0.0403
3349.00,0.0403
3348.00,0.0402
3347.00,0.0402
3346.00,0.0402
3345.00,0.0402
3344.00,0.0403
3343.00,0.0403
3342.00,0.0403
3341.00,0.0403
3340.00,0.0403
3339.00,0.0403
3338.00,0.0403
3337.00,0.0403
3336.00,0.0403
3335.00,0.0403
3334.00,0.0403
3333.00,0.0403
3332.00,0.0403
3331.00,0.0403
3330.00,0.0404
3329.00,0.0404
3328.00,0.0404
3327.00,0.0405
3326.00,0.0405
3325.00,0.0405
3324.00,0.0404
3323.00,0.0404
3322.00,0.0404
3321.00,0.0404
3320.00,0.0404
3319.00,0.0404
3318.00,0.0405
3317.00,0.0405
3316.00,0.0406
3315.00,0.0405
3314.00,0.0405
3313.00,0.0405
3312.00,0.0405
3311.00,0.0405
3310.00,0.0405
3309.00,0.0405
3308.00,0.0405
3307.00,0.0405
3306.00,0.0405
3305.00,0.0405
3304.00,0.0405
3303.00,0.0405
3302.00,0.0405
3301.00,0.0406
3300.00,0.0406
3299.00,0.0406
3298.00,0.0406
3297.00,0.0406
3296.00,0.0406
3295.00,0.0406
3294.00,0.0406
3293.00,0.0406
3292.00,0.0407
3291.00,0.0407
3290.00,0.0407
3289.00,0.0406
3288.00,0.0406
3287.00,0.0407
3286.00,0.0407
3285.00,0.0407
3284.00,0.0407
3283.00,0.0406
3282.00,0.0406
3281.00,0.0406
3280.00,0.0406
3279.00,0.0406
3278.00,0.0406
3277.00,0.0407
3276.00,0.0407
3275.00,0.0407
3274.00,0.0408
3273.00,0.0408
3272.00,0.0409
3271.00,0.0408
3270.00,0.0408
3269.00,0.0408
3268.00,0.0407
3267.00,0.0407
3266.00,0.0407
3265.00,0.0407
3264.00,0.0407
3263.00,0.0407
3262.00,0.0407
3261.00,0.0407
3260.00,0.0407
3259.00,0.0407
3258.00,0.0406
3257.00,0.0407
3256.00,0.0407
3255.00,0.0407
3254.00,0.0408
3253.00,0.0408
3252.00,0.0408
3251.00,0.0409
3250.00,0.0409
3249.00,0.0409
3248.00,0.0409
3247.00,0.0409
3246.00,0.0409
3245.00,0.0408
3244.00,0.0408
3243.00,0.0408
3242.00,0.0409
3241.00,0.0409
3240.00,0.0409
3239.00,0.0410
3238.00,0.0410
3237.00,0.0410
3236.00,0.0409
3235.00,0.0409
3234.00,0.0409
3233.00,0.0409
3232.00,0.0409
3231.00,0.0409
3230.00,0.0409
3229.00,0.0409
3228.00,0.0410
3227.00,0.0410
3226.00,0.0409
3225.00,0.0409
3224.00,0.0409
3223.00,0.0409
3222.00,0.0409
3221.00,0.0410
3220.00,0.0410
3219.00,0.0410
3218.00,0.0410
3217.00,0.0410
3216.00,0.0410
3215.00,0.0409
3214.00,0.0409
3213.00,0.0409
3212.00,0.0409
3211.00,0.0410
3210.00,0.0410
3209.00,0.0410
3208.00,0.0410
3207.00,0.0410
3206.00,0.0410
3205.00,0.0410
3204.00,0.0410
3203.00,0.0410
3202.00,0.0410
3201.00,0.0410
3200.00,0.0410
3199.00,0.0411
3198.00,0.0411
3197.00,0.0411
3196.00,0.0410
3195.00,0.0410
3194.00,0.0409
3193.00,0.0409
3192.00,0.0409
3191.00,0.0409
3190.00,0.0410
3189.00,0.0410
3188.00,0.0410
3187.00,0.0410
3186.00,0.0411
3185.00,0.0411
3184.00,0.0410
3183.00,0.0410
3182.00,0.0410
3181.00,0.0410
3180.00,0.0409
3179.00,0.0409
3178.00,0.0409
3177.00,0.0409
3176.00,0.0409
3175.00,0.0410
3174.00,0.0410
3173.00,0.0410
3172.00,0.0410
3171.00,0.0410
3170.00,0.0410
3169.00,0.0411
3168.00,0.0411
3167.00,0.0411
3166.00,0.0411
3165.00,0.0410
3164.00,0.0410
3163.00,0.0410
3162.00,0.0410
3161.00,0.0410
3160.00,0.0410
3159.00,0.0410
3158.00,0.0410
3157.00,0.0410
3156.00,0.0409
3155.00,0.0409
3154.00,0.0409
3153.00,0.0409
3152.00,0.0409
3151.00,0.0410
3150.00,0.0410
3149.00,0.0410
3148.00,0.0410
3147.00,0.0410
3146.00,0.0410
3145.00,0.0410
3144.00,0.0409
3143.00,0.0409
3142.00,0.0409
3141.00,0.0410
3140.00,0.0410
3139.00,0.0410
3138.00,0.0410
3137.00,0.0410
3136.00,0.0410
3135.00,0.0409
3134.00,0.0409
3133.00,0.0409
3132.00,0.0409
3131.00,0.0409
3130.00,0.0409
3129.00,0.0409
3128.00,0.0409
3127.00,0.0409
3126.00,0.0410
3125.00,0.0410
3124.00,0.0410
3123.00,0.0409
3122.00,0.0409
3121.00,0.0409
3120.00,0.0410
3119.00,0.0410
3118.00,0.0410
3117.00,0.0409
3116.00,0.0409
3115.00,0.0409
3114.00,0.0409
3113.00,0.0409
3112.00,0.0408
3111.00,0.0408
3110.00,0.0408
3109.00,0.0409
3108.00,0.0409
3107.00,0.0409
3106.00,0.0409
3105.00,0.0409
3104.00,0.0409
3103.00,0.0409
3102.00,0.0410
3101.00,0.0410
3100.00,0.0410
3099.00,0.0410
3098.00,0.0409
3097.00,0.0409
3096.00,0.0408
3095.00,0.0408
3094.00,0.0408
3093.00,0.0409
3092.00,0.0409
3091.00,0.0410
3090.00,0.0410
3089.00,0.0410
3088.00,0.0410
3087.00,0.0409
3086.00,0.0409
3085.00,0.0409
3084.00,0.0409
3083.00,0.0409
3082.00,0.0410
3081.00,0.0410
3080.00,0.0410
3079.00,0.0409
3078.00,0.0409
3077.00,0.0409
3076.00,0.0409
3075.00,0.0409
3074.00,0.0409
3073.00,0.0409
3072.00,0.0409
3071.00,0.0409
3070.00,0.0409
3069.00,0.0409
3068.00,0.0409
3067.00,0.0409
3066.00,0.0410
3065.00,0.0410
3064.00,0.0410
3063.00,0.0410
3062.00,0.0410
3061.00,0.0410
3060.00,0.0409
3059.00,0.0409
3058.00,0.0409
3057.00,0.0409
3056.00,0.0409
3055.00,0.0409
3054.00,0.0409
3053.00,0.0409
3052.00,0.0409
3051.00,0.0409
3050.00,0.0409
3049.00,0.0409
3048.00,0.0409
3047.00,0.0409
3046.00,0.0409
3045.00,0.0409
3044.00,0.0409
3043.00,0.0409
3042.00,0.0409
3041.00,0.0410
3040.00,0.0410
3039.00,0.0409
3038.00,0.0409
3037.00,0.0409
3036.00,0.0409
3035.00,0.0409
3034.00,0.0409
3033.00,0.0409
3032.00,0.0408
3031.00,0.0408
3030.00,0.0408
3029.00,0.0408
3028.00,0.0408
3027.00,0.0408
3026.00,0.0409
3025.00,0.0409
3024.00,0.0409
3023.00,0.0408
3022.00,0.0408
3021.00,0.0408
3020.00,0.0407
3019.00,0.0407
3018.00,0.0407
3017.00,0.0408
3016.00,0.0408
3015.00,0.0408
3014.00,0.0409
3013.00,0.0408
3012.00,0.0408
3011.00,0.0408
3010.00,0.0408
3009.00,0.0407
3008.00,0.0407
3007.00,0.0407
3006.00,0.0407
3005.00,0.0407
3004.00,0.0408
3003.00,0.0408
3002.00,0.0407
3001.00,0.0407
3000.00,0.0407
2999.00,0.0407
2998.00,0.0407
2997.00,0.0407
2996.00,0.0407
2995.00,0.0407
2994.00,0.0407
2993.00,0.0407
2992.00,0.0407
2991.00,0.0406
2990.00,0.0406
2989.00,0.0406
2988.00,0.0406
2987.00,0.0406
2986.00,0.0406
2985.00,0.0406
2984.00,0.0406
2983.00,0.0405
2982.00,0.0405
2981.00,0.0404
2980.00,0.0404
2979.00,0.0404
2978.00,0.0404
2977.00,0.0404
2976.00,0.0404
2975.00,0.0404
2974.00,0.0404
2973.00,0.0404
2972.00,0.0403
2971.00,0.0403
2970.00,0.0402
2969.00,0.0402
2968.00,0.0402
2967.00,0.0401
2966.00,0.0401
2965.00,0.0401
2964.00,0.0400
2963.00,0.0400
2962.00,0.0400
2961.00,0.0399
2960.00,0.0399
2959.00,0.0398
2958.00,0.0398
2957.00,0.0398
2956.00,0.0398
2955.00,0.0398
2954.00,0.0399
2953.00,0.0399
2952.00,0.0399
2951.00,0.0400
2950.00,0.0399
2949.00,0.0399
2948.00,0.0399
2947.00,0.0398
2946.00,0.0398
2945.00,0.0398
2944.00,0.0398
2943.00,0.0398
2942.00,0.0397
2941.00,0.0396
2940.00,0.0395
2939.00,0.0394
2938.00,0.0394
2937.00,0.0393
2936.00,0.0392
2935.00,0.0391
2934.00,0.0391
2933.00,0.0390
2932.00,0.0389
2931.00,0.0387
2930.00,0.0386
2929.00,0.0385
2928.00,0.0384
2927.00,0.0384
2926.00,0.0384
2925.00,0.0384
2924.00,0.0384
2923.00,0.0384
2922.00,0.0383
2921.00,0.0383
2920.00,0.0383
2919.00,0.0383
2918.00,0.0383
2917.00,0.0384
2916.00,0.0385
2915.00,0.0387
2914.00,0.0389
2913.00,0.0390
2912.00,0.0392
2911.00,0.0393
2910.00,0.0394
2909.00,0.0394
2908.00,0.0395
2907.00,0.0396
2906.00,0.0397
2905.00,0.0397
2904.00,0.0398
2903.00,0.0398
2902.00,0.0399
2901.00,0.0399
2900.00,0.0399
2899.00,0.0399
2898.00,0.0399
2897.00,0.0399
2896.00,0.0399
2895.00,0.0399
2894.00,0.0399
2893.00,0.0400
2892.00,0.0400
2891.00,0.0401
2890.00,0.0401
2889.00,0.0401
2888.00,0.0402
2887.00,0.0402
2886.00,0.0402
2885.00,0.0401
2884.00,0.0401
2883.00,0.0401
2882.00,0.0401
2881.00,0.0401
2880.00,0.0401
2879.00,0.0401
2878.00,0.0401
2877.00,0.0401
2876.00,0.0401
2875.00,0.0401
2874.00,0.0400
2873.00,0.0400
2872.00,0.0400
2871.00,0.0399
2870.00,0.0399
2869.00,0.0399
2868.00,0.0398
2867.00,0.0398
2866.00,0.0398
2865.00,0.0397
2864.00,0.0397
2863.00,0.0397
2862.00,0.0396
2861.00,0.0396
2860.00,0.0395
2859.00,0.0395
2858.00,0.0394
2857.00,0.0394
2856.00,0.0393
2855.00,0.0393
2854.00,0.0392
2853.00,0.0392
2852.00,0.0392
2851.00,0.0393
2850.00,0.0393
2849.00,0.0394
2848.00,0.0395
2847.00,0.0396
2846.00,0.0397
2845.00,0.0398
2844.00,0.0399
2843.00,0.0400
2842.00,0.0401
2841.00,0.0401
2840.00,0.0402
2839.00,0.0402
2838.00,0.0403
2837.00,0.0403
2836.00,0.0403
2835.00,0.0403
2834.00,0.0403
2833.00,0.0403
2832.00,0.0403
2831.00,0.0403
2830.00,0.0404
2829.00,0.0404
2828.00,0.0404
2827.00,0.0404
2826.00,0.0404
2825.00,0.0403
2824.00,0.0403
2823.00,0.0403
2822.00,0.0403
2821.00,0.0404
2820.00,0.0404
2819.00,0.0404
2818.00,0.0404
2817.00,0.0404
2816.00,0.0405
2815.00,0.0405
2814.00,0.0405
2813.00,0.0404
2812.00,0.0404
2811.00,0.0404
2810.00,0.0404
2809.00,0.0404
2808.00,0.0404
2807.00,0.0404
2806.00,0.0403
2805.00,0.0403
2804.00,0.0403
2803.00,0.0403
2802.00,0.0404
2801.00,0.0404
2800.00,0.0404
2799.00,0.0403
2798.00,0.0403
2797.00,0.0403
2796.00,0.0403
2795.00,0.0403
2794.00,0.0403
2793.00,0.0403
2792.00,0.0403
2791.00,0.0403
2790.00,0.0403
2789.00,0.0404
2788.00,0.0404
2787.00,0.0404
2786.00,0.0404
2785.00,0.0403
2784.00,0.0403
2783.00,0.0403
2782.00,0.0403
2781.00,0.0403
2780.00,0.0402
2779.00,0.0402
2778.00,0.0402
2777.00,0.0402
2776.00,0.0402
2775.00,0.0402
2774.00,0.0402
2773.00,0.0402
2772.00,0.0402
2771.00,0.0403
2770.00,0.0403
2769.00,0.0403
2768.00,0.0403
2767.00,0.0403
2766.00,0.0403
2765.00,0.0402
2764.00,0.0402
2763.00,0.0402
2762.00,0.0402
2761.00,0.0402
2760.00,0.0402
2759.00,0.0402
2758.00,0.0402
2757.00,0.0402
2756.00,0.0403
2755.00,0.0403
2754.00,0.0403
2753.00,0.0402
2752.00,0.0402
2751.00,0.0402
2750.00,0.0402
2749.00,0.0402
2748.00,0.0402
2747.00,0.0402
2746.00,0.0402
2745.00,0.0402
2744.00,0.0402
2743.00,0.0402
2742.00,0.0402
2741.00,0.0402
2740.00,0.0402
2739.00,0.0402
2738.00,0.0402
2737.00,0.0402
2736.00,0.0402
2735.00,0.0402
2734.00,0.0402
2733.00,0.0401
2732.00,0.0401
2731.00,0.0402
2730.00,0.0402
2729.00,0.0402
2728.00,0.0402
2727.00,0.0402
2726.00,0.0402
2725.00,0.0402
2724.00,0.0402
2723.00,0.0402
2722.00,0.0402
2721.00,0.0402
2720.00,0.0402
2719.00,0.0402
2718.00,0.0402
2717.00,0.0402
2716.00,0.0402
2715.00,0.0402
2714.00,0.0401
2713.00,0.0401
2712.00,0.0401
2711.00,0.0402
2710.00,0.0402
2709.00,0.0402
2708.00,0.0402
2707.00,0.0401
2706.00,0.0401
2705.00,0.0401
2704.00,0.0401
2703.00,0.0401
2702.00,0.0401
2701.00,0.0401
2700.00,0.0401
2699.00,0.0401
2698.00,0.0401
2697.00,0.0402
2696.00,0.0402
2695.00,0.0402
2694.00,0.0402
2693.00,0.0402
2692.00,0.0402
2691.00,0.0402
2690.00,0.0402
2689.00,0.0402
2688.00,0.0401
2687.00,0.0401
2686.00,0.0401
2685.00,0.0401
2684.00,0.0402
2683.00,0.0402
2682.00,0.0402
2681.00,0.0402
2680.00,0.0401
2679.00,0.0401
2678.00,0.0401
2677.00,0.0401
2676.00,0.0401
2675.00,0.0401
2674.00,0.0401
2673.00,0.0402
2672.00,0.0401
2671.00,0.0401
2670.00,0.0401
2669.00,0.0401
2668.00,0.0401
2667.00,0.0402
2666.00,0.0402
2665.00,0.0402
2664.00,0.0403
2663.00,0.0403
2662.00,0.0403
2661.00,0.0402
2660.00,0.0402
2659.00,0.0402
2658.00,0.0402
2657.00,0.0402
2656.00,0.0403
2655.00,0.0403
2654.00,0.0404
2653.00,0.0404
2652.00,0.0404
2651.00,0.0404
2650.00,0.0404
2649.00,0.0404
2648.00,0.0403
2647.00,0.0403
2646.00,0.0403
2645.00,0.0403
2644.00,0.0403
2643.00,0.0403
2642.00,0.0404
2641.00,0.0404
2640.00,0.0404
2639.00,0.0404
2638.00,0.0404
2637.00,0.0404
2636.00,0.0405
2635.00,0.0405
2634.00,0.0404
2633.00,0.0404
2632.00,0.0405
2631.00,0.0405
2630.00,0.0405
2629.00,0.0405
2628.00,0.0405
2627.00,0.0405
2626.00,0.0405
2625.00,0.0405
2624.00,0.0405
2623.00,0.0406
2622.00,0.0406
2621.00,0.0406
2620.00,0.0406
2619.00,0.0406
2618.00,0.0406
2617.00,0.0406
2616.00,0.0406
2615.00,0.0405
2614.00,0.0405
2613.00,0.0405
2612.00,0.0405
2611.00,0.0405
2610.00,0.0406
2609.00,0.0406
2608.00,0.0406
2607.00,0.0407
2606.00,0.0407
2605.00,0.0408
2604.00,0.0408
2603.00,0.0407
2602.00,0.0407
2601.00,0.0407
2600.00,0.0407
2599.00,0.0407
2598.00,0.0407
2597.00,0.0407
2596.00,0.0407
2595.00,0.0407
2594.00,0.0408
2593.00,0.0408
2592.00,0.0408
2591.00,0.0408
2590.00,0.0408
2589.00,0.0408
2588.00,0.0408
2587.00,0.0408
2586.00,0.0408
2585.00,0.0408
2584.00,0.0408
2583.00,0.0408
2582.00,0.0409
2581.00,0.0409
2580.00,0.0409
2579.00,0.0409
2578.00,0.0409
2577.00,0.0409
2576.00,0.0409
2575.00,0.0408
2574.00,0.0408
2573.00,0.0408
2572.00,0.0408
2571.00,0.0408
2570.00,0.0408
2569.00,0.0409
2568.00,0.0409
2567.00,0.0409
2566.00,0.0409
2565.00,0.0409
2564.00,0.0410
2563.00,0.0410
2562.00,0.0409
2561.00,0.0409
2560.00,0.0409
2559.00,0.0409
2558.00,0.0409
2557.00,0.0409
2556.00,0.0408
2555.00,0.0409
2554.00,0.0409
2553.00,0.0410
2552.00,0.0410
2551.00,0.0411
2550.00,0.0411
2549.00,0.0411
2548.00,0.0410
2547.00,0.0410
2546.00,0.0410
2545.00,0.0411
2544.00,0.0411
2543.00,0.0411
2542.00,0.0410
2541.00,0.0410
2540.00,0.0411
2539.00,0.0411
2538.00,0.0412
2537.00,0.0412
2536.00,0.0411
2535.00,0.0411
2534.00,0.0411
2533.00,0.0411
2532.00,0.0411
2531.00,0.0411
2530.00,0.0411
2529.00,0.0411
2528.00,0.0412
2527.00,0.0412
2526.00,0.0412
2525.00,0.0412
2524.00,0.0412
2523.00,0.0412
2522.00,0.0412
2521.00,0.0412
2520.00,0.0412
2519.00,0.0413
2518.00,0.0413
2517.00,0.0413
2516.00,0.0413
2515.00,0.0413
2514.00,0.0413
2513.00,0.0413
2512.00,0.0413
2511.00,0.0413
2510.00,0.0412
2509.00,0.0411
2508.00,0.0411
2507.00,0.0411
2506.00,0.0412
2505.00,0.0412
2504.00,0.0413
2503.00,0.0413
2502.00,0.0413
2501.00,0.0413
2500.00,0.0413
2499.00,0.0413
2498.00,0.0413
2497.00,0.0413
2496.00,0.0413
2495.00,0.0414
2494.00,0.0414
2493.00,0.0414
2492.00,0.0414
2491.00,0.0414
2490.00,0.0414
2489.00,0.0415
2488.00,0.0415
2487.00,0.0415
2486.00,0.0415
2485.00,0.0415
2484.00,0.0414
2483.00,0.0414
2482.00,0.0414
2481.00,0.0414
2480.00,0.0414
2479.00,0.0414
2478.00,0.0415
2477.00,0.0415
2476.00,0.0415
2475.00,0.0415
2474.00,0.0415
2473.00,0.0415
2472.00,0.0415
2471.00,0.0415
2470.00,0.0415
2469.00,0.0415
2468.00,0.0416
2467.00,0.0416
2466.00,0.0416
2465.00,0.0415
2464.00,0.0415
2463.00,0.0416
2462.00,0.0416
2461.00,0.0416
2460.00,0.0416
2459.00,0.0416
2458.00,0.0416
2457.00,0.0416
2456.00,0.0416
2455.00,0.0416
2454.00,0.0416
2453.00,0.0417
2452.00,0.0417
2451.00,0.0417
2450.00,0.0416
2449.00,0.0416
2448.00,0.0416
2447.00,0.0416
2446.00,0.0417
2445.00,0.0417
2444.00,0.0417
2443.00,0.0417
2442.00,0.0417
2441.00,0.0417
2440.00,0.0417
2439.00,0.0417
2438.00,0.0416
2437.00,0.0416
2436.00,0.0416
2435.00,0.0416
2434.00,0.0417
2433.00,0.0417
2432.00,0.0416
2431.00,0.0416
2430.00,0.0416
2429.00,0.0416
2428.00,0.0416
2427.00,0.0417
2426.00,0.0417
2425.00,0.0418
2424.00,0.0418
2423.00,0.0418
2422.00,0.0417
2421.00,0.0417
2420.00,0.0417
2419.00,0.0417
2418.00,0.0417
2417.00,0.0417
2416.00,0.0417
2415.00,0.0417
2414.00,0.0417
2413.00,0.0417
2412.00,0.0418
2411.00,0.0418
2410.00,0.0418
2409.00,0.0417
2408.00,0.0417
2407.00,0.0417
2406.00,0.0417
2405.00,0.0417
2404.00,0.0417
2403.00,0.0417
2402.00,0.0418
2401.00,0.0418
2400.00,0.0417
2399.00,0.0417
2398.00,0.0417
2397.00,0.0418
2396.00,0.0418
2395.00,0.0418
2394.00,0.0418
2393.00,0.0417
2392.00,0.0417
2391.00,0.0418
2390.00,0.0418
2389.00,0.0417
2388.00,0.0417
2387.00,0.0418
2386.00,0.0418
2385.00,0.0418
2384.00,0.0417
2383.00,0.0417
2382.00,0.0416
2381.00,0.0415
2380.00,0.0413
2379.00,0.0412
2378.00,0.0410
2377.00,0.0409
2376.00,0.0408
2375.00,0.0407
2374.00,0.0407
2373.00,0.0406
2372.00,0.0407
2371.00,0.0408
2370.00,0.0410
2369.00,0.0411
2368.00,0.0410
2367.00,0.0409
2366.00,0.0408
2365.00,0.0408
2364.00,0.0408
2363.00,0.0409
2362.00,0.0409
2361.00,0.0409
2360.00,0.0409
2359.00,0.0409
2358.00,0.0409
2357.00,0.0408
2356.00,0.0409
2355.00,0.0410
2354.00,0.0411
2353.00,0.0413
2352.00,0.0413
2351.00,0.0411
2350.00,0.0407
2349.00,0.0402
2348.00,0.0399
2347.00,0.0400
2346.00,0.0405
2345.00,0.0410
2344.00,0.0411
2343.00,0.0410
2342.00,0.0408
2341.00,0.0409
2340.00,0.0409
2339.00,0.0409
2338.00,0.0409
2337.00,0.0408
2336.00,0.0408
2335.00,0.0408
2334.00,0.0409
2333.00,0.0410
2332.00,0.0411
2331.00,0.0413
2330.00,0.0414
2329.00,0.0415
2328.00,0.0414
2327.00,0.0414
2326.00,0.0414
2325.00,0.0414
2324.00,0.0415
2323.00,0.0416
2322.00,0.0417
2321.00,0.0417
2320.00,0.0417
2319.00,0.0417
2318.00,0.0417
2317.00,0.0417
2316.00,0.0418
2315.00,0.0418
2314.00,0.0419
2313.00,0.0419
2312.00,0.0419
2311.00,0.0419
2310.00,0.0420
2309.00,0.0420
2308.00,0.0419
2307.00,0.0419
2306.00,0.0419
2305.00,0.0419
2304.00,0.0419
2303.00,0.0418
2302.00,0.0418
2301.00,0.0418
2300.00,0.0418
2299.00,0.0418
2298.00,0.0418
2297.00,0.0419
2296.00,0.0420
2295.00,0.0421
2294.00,0.0422
2293.00,0.0423
2292.00,0.0423
2291.00,0.0423
2290.00,0.0423
2289.00,0.0423
2288.00,0.0423
2287.00,0.0423
2286.00,0.0423
2285.00,0.0422
2284.00,0.0422
2283.00,0.0422
2282.00,0.0422
2281.00,0.0423
2280.00,0.0423
2279.00,0.0423
2278.00,0.0423
2277.00,0.0423
2276.00,0.0422
2275.00,0.0422
2274.00,0.0422
2273.00,0.0422
2272.00,0.0422
2271.00,0.0422
2270.00,0.0423
2269.00,0.0423
2268.00,0.0422
2267.00,0.0422
2266.00,0.0423
2265.00,0.0423
2264.00,0.0424
2263.00,0.0424
2262.00,0.0425
2261.00,0.0425
2260.00,0.0426
2259.00,0.0426
2258.00,0.0425
2257.00,0.0424
2256.00,0.0423
2255.00,0.0423
2254.00,0.0423
2253.00,0.0423
2252.00,0.0424
2251.00,0.0424
2250.00,0.0423
2249.00,0.0423
2248.00,0.0424
2247.00,0.0424
2246.00,0.0423
2245.00,0.0423
2244.00,0.0423
2243.00,0.0423
2242.00,0.0423
2241.00,0.0423
2240.00,0.0423
2239.00,0.0423
2238.00,0.0424
2237.00,0.0425
2236.00,0.0425
2235.00,0.0426
2234.00,0.0426
2233.00,0.0427
2232.00,0.0428
2231.00,0.0428
2230.00,0.0428
2229.00,0.0428
2228.00,0.0427
2227.00,0.0425
2226.00,0.0424
2225.00,0.0424
2224.00,0.0424
2223.00,0.0424
2222.00,0.0425
2221.00,0.0426
2220.00,0.0426
2219.00,0.0426
2218.00,0.0426
2217.00,0.0427
2216.00,0.0427
2215.00,0.0427
2214.00,0.0428
2213.00,0.0427
2212.00,0.0427
2211.00,0.0428
2210.00,0.0428
2209.00,0.0428
2208.00,0.0426
2207.00,0.0425
2206.00,0.0424
2205.00,0.0424
2204.00,0.0425
2203.00,0.0426
2202.00,0.0427
2201.00,0.0428
2200.00,0.0429
2199.00,0.0430
2198.00,0.0430
2197.00,0.0430
2196.00,0.0429
2195.00,0.0428
2194.00,0.0427
2193.00,0.0426
2192.00,0.0426
2191.00,0.0425
2190.00,0.0426
2189.00,0.0427
2188.00,0.0428
2187.00,0.0430
2186.00,0.0431
2185.00,0.0431
2184.00,0.0430
2183.00,0.0429
2182.00,0.0428
2181.00,0.0428
2180.00,0.0428
2179.00,0.0428
2178.00,0.0426
2177.00,0.0425
2176.00,0.0425
2175.00,0.0426
2174.00,0.0428
2173.00,0.0429
2172.00,0.0429
2171.00,0.0429
2170.00,0.0430
2169.00,0.0431
2168.00,0.0431
2167.00,0.0431
2166.00,0.0431
2165.00,0.0431
2164.00,0.0432
2163.00,0.0432
2162.00,0.0432
2161.00,0.0430
2160.00,0.0429
2159.00,0.0427
2158.00,0.0427
2157.00,0.0427
2156.00,0.0426
2155.00,0.0424
2154.00,0.0423
2153.00,0.0422
2152.00,0.0422
2151.00,0.0423
2150.00,0.0424
2149.00,0.0424
2148.00,0.0424
2147.00,0.0424
2146.00,0.0424
2145.00,0.0424
2144.00,0.0424
2143.00,0.0424
2142.00,0.0425
2141.00,0.0425
2140.00,0.0426
2139.00,0.0426
2138.00,0.0426
2137.00,0.0425
2136.00,0.0424
2135.00,0.0423
2134.00,0.0423
2133.00,0.0423
2132.00,0.0422
2131.00,0.0422
2130.00,0.0423
2129.00,0.0423
2128.00,0.0423
2127.00,0.0423
2126.00,0.0423
2125.00,0.0423
2124.00,0.0424
2123.00,0.0424
2122.00,0.0425
2121.00,0.0425
2120.00,0.0425
2119.00,0.0425
2118.00,0.0426
2117.00,0.0426
2116.00,0.0426
2115.00,0.0426
2114.00,0.0426
2113.00,0.0426
2112.00,0.0427
2111.00,0.0427
2110.00,0.0428
2109.00,0.0428
2108.00,0.0428
2107.00,0.0427
2106.00,0.0426
2105.00,0.0426
2104.00,0.0425
2103.00,0.0425
2102.00,0.0425
2101.00,0.0425
2100.00,0.0425
2099.00,0.0425
2098.00,0.0425
2097.00,0.0425
2096.00,0.0425
2095.00,0.0424
2094.00,0.0424
2093.00,0.0425
2092.00,0.0426
2091.00,0.0426
2090.00,0.0426
2089.00,0.0426
2088.00,0.0425
2087.00,0.0424
2086.00,0.0423
2085.00,0.0422
2084.00,0.0422
2083.00,0.0422
2082.00,0.0422
2081.00,0.0423
2080.00,0.0423
2079.00,0.0424
2078.00,0.0425
2077.00,0.0427
2076.00,0.0427
2075.00,0.0427
2074.00,0.0426
2073.00,0.0425
2072.00,0.0424
2071.00,0.0424
2070.00,0.0425
2069.00,0.0425
2068.00,0.0425
2067.00,0.0425
2066.00,0.0425
2065.00,0.0425
2064.00,0.0425
2063.00,0.0425
2062.00,0.0425
2061.00,0.0425
2060.00,0.0425
2059.00,0.0425
2058.00,0.0425
2057.00,0.0425
2056.00,0.0425
2055.00,0.0425
2054.00,0.0426
2053.00,0.0426
2052.00,0.0426
2051.00,0.0426
2050.00,0.0426
2049.00,0.0426
2048.00,0.0426
2047.00,0.0425
2046.00,0.0424
2045.00,0.0424
2044.00,0.0425
2043.00,0.0426
2042.00,0.0427
2041.00,0.0428
2040.00,0.0428
2039.00,0.0429
2038.00,0.0430
2037.00,0.0432
2036.00,0.0433
2035.00,0.0434
2034.00,0.0432
2033.00,0.0430
2032.00,0.0428
2031.00,0.0427
2030.00,0.0428
2029.00,0.0430
2028.00,0.0430
2027.00,0.0430
2026.00,0.0429
2025.00,0.0429
2024.00,0.0429
2023.00,0.0428
2022.00,0.0428
2021.00,0.0429
2020.00,0.0430
2019.00,0.0430
2018.00,0.0430
2017.00,0.0429
2016.00,0.0428
2015.00,0.0427
2014.00,0.0427
2013.00,0.0427
2012.00,0.0427
2011.00,0.0427
2010.00,0.0428
2009.00,0.0429
2008.00,0.0429
2007.00,0.0429
2006.00,0.0429
2005.00,0.0429
2004.00,0.0429
2003.00,0.0429
2002.00,0.0429
2001.00,0.0429
2000.00,0.0428
1999.00,0.0428
1998.00,0.0428
1997.00,0.0429
1996.00,0.0430
1995.00,0.0431
1994.00,0.0431
1993.00,0.0430
1992.00,0.0430
1991.00,0.0429
1990.00,0.0429
1989.00,0.0429
1988.00,0.0427
1987.00,0.0425
1986.00,0.0425
1985.00,0.0426
1984.00,0.0428
1983.00,0.0430
1982.00,0.0432
1981.00,0.0433
1980.00,0.0434
1979.00,0.0433
1978.00,0.0432
1977.00,0.0431
1976.00,0.0430
1975.00,0.0430
1974.00,0.0430
1973.00,0.0431
1972.00,0.0431
1971.00,0.0431
1970.00,0.0432
1969.00,0.0431
1968.00,0.0431
1967.00,0.0430
1966.00,0.0431
1965.00,0.0432
1964.00,0.0433
1963.00,0.0433
1962.00,0.0432
1961.00,0.0431
1960.00,0.0429
1959.00,0.0429
1958.00,0.0429
1957.00,0.0430
1956.00,0.0430
1955.00,0.0430
1954.00,0.0430
1953.00,0.0430
1952.00,0.0430
1951.00,0.0429
1950.00,0.0429
1949.00,0.0429
1948.00,0.0429
1947.00,0.0429
1946.00,0.0429
1945.00,0.0429
1944.00,0.0428
1943.00,0.0426
1942.00,0.0425
1941.00,0.0425
1940.00,0.0425
1939.00,0.0425
1938.00,0.0425
1937.00,0.0426
1936.00,0.0427
1935.00,0.0428
1934.00,0.0428
1933.00,0.0428
1932.00,0.0427
1931.00,0.0427
1930.00,0.0427
1929.00,0.0427
1928.00,0.0427
1927.00,0.0426
1926.00,0.0427
1925.00,0.0427
1924.00,0.0427
1923.00,0.0426
1922.00,0.0426
1921.00,0.0427
1920.00,0.0427
1919.00,0.0428
1918.00,0.0428
1917.00,0.0427
1916.00,0.0427
1915.00,0.0426
1914.00,0.0427
1913.00,0.0426
1912.00,0.0425
1911.00,0.0425
1910.00,0.0424
1909.00,0.0425
1908.00,0.0425
1907.00,0.0425
1906.00,0.0425
1905.00,0.0426
1904.00,0.0426
1903.00,0.0426
1902.00,0.0426
1901.00,0.0426
1900.00,0.0426
1899.00,0.0425
1898.00,0.0425
1897.00,0.0425
1896.00,0.0425
1895.00,0.0424
1894.00,0.0424
1893.00,0.0425
1892.00,0.0425
1891.00,0.0425
1890.00,0.0425
1889.00,0.0425
1888.00,0.0424
1887.00,0.0424
1886.00,0.0424
1885.00,0.0424
1884.00,0.0424
1883.00,0.0423
1882.00,0.0424
1881.00,0.0424
1880.00,0.0424
1879.00,0.0424
1878.00,0.0424
1877.00,0.0424
1876.00,0.0424
1875.00,0.0424
1874.00,0.0424
1873.00,0.0424
1872.00,0.0424
1871.00,0.0425
1870.00,0.0425
1869.00,0.0426
1868.00,0.0425
1867.00,0.0424
1866.00,0.0424
1865.00,0.0424
1864.00,0.0424
1863.00,0.0423
1862.00,0.0423
1861.00,0.0422
1860.00,0.0422
1859.00,0.0422
1858.00,0.0422
1857.00,0.0422
1856.00,0.0422
1855.00,0.0422
1854.00,0.0421
1853.00,0.0421
1852.00,0.0421
1851.00,0.0421
1850.00,0.0421
1849.00,0.0421
1848.00,0.0421
1847.00,0.0421
1846.00,0.0421
1845.00,0.0422
1844.00,0.0422
1843.00,0.0421
1842.00,0.0421
1841.00,0.0421
1840.00,0.0421
1839.00,0.0421
1838.00,0.0420
1837.00,0.0420
1836.00,0.0419
1835.00,0.0419
1834.00,0.0419
1833.00,0.0419
1832.00,0.0419
1831.00,0.0418
1830.00,0.0417
1829.00,0.0415
1828.00,0.0415
1827.00,0.0414
1826.00,0.0414
1825.00,0.0414
1824.00,0.0415
1823.00,0.0415
1822.00,0.0416
1821.00,0.0416
1820.00,0.0417
1819.00,0.0417
1818.00,0.0417
1817.00,0.0417
1816.00,0.0416
1815.00,0.0415
1814.00,0.0414
1813.00,0.0414
1812.00,0.0413
1811.00,0.0413
1810.00,0.0413
1809.00,0.0413
1808.00,0.0413
1807.00,0.0413
1806.00,0.0412
1805.00,0.0413
1804.00,0.0413
1803.00,0.0412
1802.00,0.0412
1801.00,0.0412
1800.00,0.0412
1799.00,0.0412
1798.00,0.0412
1797.00,0.0413
1796.00,0.0413
1795.00,0.0413
1794.00,0.0413
1793.00,0.0413
1792.00,0.0412
1791.00,0.0410
1790.00,0.0409
1789.00,0.0410
1788.00,0.0410
1787.00,0.0410
1786.00,0.0410
1785.00,0.0411
1784.00,0.0410
1783.00,0.0409
1782.00,0.0408
1781.00,0.0407
1780.00,0.0407
1779.00,0.0407
1778.00,0.0408
1777.00,0.0409
1776.00,0.0409
1775.00,0.0410
1774.00,0.0411
1773.00,0.0411
1772.00,0.0410
1771.00,0.0409
1770.00,0.0408
1769.00,0.0409
1768.00,0.0409
1767.00,0.0409
1766.00,0.0409
1765.00,0.0408
1764.00,0.0408
1763.00,0.0408
1762.00,0.0407
1761.00,0.0407
1760.00,0.0408
1759.00,0.0408
1758.00,0.0407
1757.00,0.0407
1756.00,0.0408
1755.00,0.0408
1754.00,0.0409
1753.00,0.0409
1752.00,0.0410
1751.00,0.0412
1750.00,0.0412
1749.00,0.0410
1748.00,0.0409
1747.00,0.0409
1746.00,0.0408
1745.00,0.0408
1744.00,0.0408
1743.00,0.0409
1742.00,0.0410
1741.00,0.0412
1740.00,0.0413
1739.00,0.0414
1738.00,0.0415
1737.00,0.0416
1736.00,0.0418
1735.00,0.0421
1734.00,0.0423
1733.00,0.0421
1732.00,0.0418
1731.00,0.0417
1730.00,0.0416
1729.00,0.0416
1728.00,0.0418
1727.00,0.0419
1726.00,0.0420
1725.00,0.0421
1724.00,0.0422
1723.00,0.0422
1722.00,0.0422
1721.00,0.0422
1720.00,0.0421
1719.00,0.0421
1718.00,0.0423
1717.00,0.0425
1716.00,0.0425
1715.00,0.0423
1714.00,0.0423
1713.00,0.0424
1712.00,0.0424
1711.00,0.0424
1710.00,0.0424
1709.00,0.0425
1708.00,0.0425
1707.00,0.0425
1706.00,0.0424
1705.00,0.0425
1704.00,0.0425
1703.00,0.0425
1702.00,0.0426
1701.00,0.0429
1700.00,0.0431
1699.00,0.0432
1698.00,0.0431
1697.00,0.0430
1696.00,0.0428
1695.00,0.0427
1694.00,0.0427
1693.00,0.0428
1692.00,0.0428
1691.00,0.0428
1690.00,0.0429
1689.00,0.0429
1688.00,0.0429
1687.00,0.0428
1686.00,0.0426
1685.00,0.0424
1684.00,0.0422
1683.00,0.0422
1682.00,0.0424
1681.00,0.0426
1680.00,0.0427
1679.00,0.0428
1678.00,0.0429
1677.00,0.0430
1676.00,0.0431
1675.00,0.0432
1674.00,0.0432
1673.00,0.0431
1672.00,0.0431
1671.00,0.0431
1670.00,0.0432
1669.00,0.0432
1668.00,0.0431
1667.00,0.0431
1666.00,0.0432
1665.00,0.0432
1664.00,0.0433
1663.00,0.0433
1662.00,0.0434
1661.00,0.0434
1660.00,0.0435
1659.00,0.0436
1658.00,0.0437
1657.00,0.0436
1656.00,0.0435
1655.00,0.0433
1654.00,0.0433
1653.00,0.0432
1652.00,0.0433
1651.00,0.0435
1650.00,0.0437
1649.00,0.0439
1648.00,0.0442
1647.00,0.0444
1646.00,0.0444
1645.00,0.0444
1644.00,0.0444
1643.00,0.0444
1642.00,0.0445
1641.00,0.0445
1640.00,0.0445
1639.00,0.0446
1638.00,0.0446
1637.00,0.0446
1636.00,0.0446
1635.00,0.0446
1634.00,0.0447
1633.00,0.0448
1632.00,0.0449
1631.00,0.0450
1630.00,0.0450
1629.00,0.0450
1628.00,0.0451
1627.00,0.0452
1626.00,0.0453
1625.00,0.0455
1624.00,0.0456
1623.00,0.0457
1622.00,0.0458
1621.00,0.0458
1620.00,0.0458
1619.00,0.0458
1618.00,0.0460
1617.00,0.0461
1616.00,0.0462
1615.00,0.0462
1614.00,0.0463
1613.00,0.0464
1612.00,0.0465
1611.00,0.0467
1610.00,0.0468
1609.00,0.0469
1608.00,0.0470
1607.00,0.0472
1606.00,0.0473
1605.00,0.0473
1604.00,0.0474
1603.00,0.0476
1602.00,0.0477
1601.00,0.0478
1600.00,0.0478
1599.00,0.0479
1598.00,0.0481
1597.00,0.0482
1596.00,0.0483
1595.00,0.0484
1594.00,0.0485
1593.00,0.0486
1592.00,0.0487
1591.00,0.0487
1590.00,0.0488
1589.00,0.0489
1588.00,0.0490
1587.00,0.0491
1586.00,0.0492
1585.00,0.0493
1584.00,0.0493
1583.00,0.0494
1582.00,0.0496
1581.00,0.0496
1580.00,0.0496
1579.00,0.0496
1578.00,0.0496
1577.00,0.0497
1576.00,0.0498
1575.00,0.0499
1574.00,0.0500
1573.00,0.0500
1572.00,0.0499
1571.00,0.0500
1570.00,0.0501
1569.00,0.0502
1568.00,0.0502
1567.00,0.0503
1566.00,0.0504
1565.00,0.0504
1564.00,0.0504
1563.00,0.0503
1562.00,0.0501
1561.00,0.0496
1560.00,0.0497
1559.00,0.0504
1558.00,0.0506
1557.00,0.0507
1556.00,0.0508
1555.00,0.0507
1554.00,0.0507
1553.00,0.0506
1552.00,0.0505
1551.00,0.0503
1550.00,0.0503
1549.00,0.0503
1548.00,0.0504
1547.00,0.0504
1546.00,0.0504
1545.00,0.0504
1544.00,0.0505
1543.00,0.0505
1542.00,0.0505
1541.00,0.0505
1540.00,0.0500
1539.00,0.0495
1538.00,0.0496
1537.00,0.0497
1536.00,0.0498
1535.00,0.0497
1534.00,0.0497
1533.00,0.0496
1532.00,0.0496
1531.00,0.0496
1530.00,0.0497
1529.00,0.0497
1528.00,0.0498
1527.00,0.0498
1526.00,0.0499
1525.00,0.0500
1524.00,0.0500
1523.00,0.0499
1522.00,0.0499
1521.00,0.0498
1520.00,0.0495
1519.00,0.0493
1518.00,0.0491
1517.00,0.0491
1516.00,0.0491
1515.00,0.0492
1514.00,0.0493
1513.00,0.0494
1512.00,0.0494
1511.00,0.0493
1510.00,0.0491
1509.00,0.0489
1508.00,0.0490
1507.00,0.0489
1506.00,0.0486
1505.00,0.0488
1504.00,0.0489
1503.00,0.0489
1502.00,0.0488
1501.00,0.0487
1500.00,0.0486
1499.00,0.0485
1498.00,0.0485
1497.00,0.0486
1496.00,0.0487
1495.00,0.0487
1494.00,0.0487
1493.00,0.0488
1492.00,0.0489
1491.00,0.0490
1490.00,0.0489
1489.00,0.0487
1488.00,0.0485
1487.00,0.0483
1486.00,0.0483
1485.00,0.0484
1484.00,0.0484
1483.00,0.0484
1482.00,0.0484
1481.00,0.0485
1480.00,0.0484
1479.00,0.0483
1478.00,0.0482
1477.00,0.0482
1476.00,0.0482
1475.00,0.0484
1474.00,0.0486
1473.00,0.0488
1472.00,0.0487
1471.00,0.0484
1470.00,0.0483
1469.00,0.0483
1468.00,0.0482
1467.00,0.0481
1466.00,0.0482
1465.00,0.0483
1464.00,0.0483
1463.00,0.0483
1462.00,0.0483
1461.00,0.0482
1460.00,0.0481
1459.00,0.0481
1458.00,0.0484
1457.00,0.0485
1456.00,0.0485
1455.00,0.0484
1454.00,0.0484
1453.00,0.0484
1452.00,0.0485
1451.00,0.0486
1450.00,0.0486
1449.00,0.0486
1448.00,0.0487
1447.00,0.0487
1446.00,0.0487
1445.00,0.0486
1444.00,0.0487
1443.00,0.0487
1442.00,0.0487
1441.00,0.0488
1440.00,0.0488
1439.00,0.0489
1438.00,0.0489
1437.00,0.0490
1436.00,0.0491
1435.00,0.0491
1434.00,0.0490
1433.00,0.0489
1432.00,0.0489
1431.00,0.0488
1430.00,0.0488
1429.00,0.0488
1428.00,0.0489
1427.00,0.0489
1426.00,0.0489
1425.00,0.0489
1424.00,0.0489
1423.00,0.0489
1422.00,0.0489
1421.00,0.0489
1420.00,0.0489
1419.00,0.0490
1418.00,0.0490
1417.00,0.0490
1416.00,0.0491
1415.00,0.0492
1414.00,0.0491
1413.00,0.0491
1412.00,0.0491
1411.00,0.0491
1410.00,0.0491
1409.00,0.0491
1408.00,0.0490
1407.00,0.0490
1406.00,0.0489
1405.00,0.0490
1404.00,0.0491
1403.00,0.0493
1402.00,0.0493
1401.00,0.0494
1400.00,0.0495
1399.00,0.0496
1398.00,0.0496
1397.00,0.0496
1396.00,0.0496
1395.00,0.0496
1394.00,0.0496
1393.00,0.0497
1392.00,0.0497
1391.00,0.0498
1390.00,0.0498
1389.00,0.0498
1388.00,0.0499
1387.00,0.0499
1386.00,0.0499
1385.00,0.0499
1384.00,0.0499
1383.00,0.0500
1382.00,0.0500
1381.00,0.0501
1380.00,0.0501
1379.00,0.0502
1378.00,0.0502
1377.00,0.0501
1376.00,0.0501
1375.00,0.0501
1374.00,0.0501
1373.00,0.0502
1372.00,0.0502
1371.00,0.0503
1370.00,0.0503
1369.00,0.0503
1368.00,0.0503
1367.00,0.0504
1366.00,0.0504
1365.00,0.0503
1364.00,0.0503
1363.00,0.0503
1362.00,0.0503
1361.00,0.0504
1360.00,0.0504
1359.00,0.0505
1358.00,0.0505
1357.00,0.0505
1356.00,0.0505
1355.00,0.0505
1354.00,0.0505
1353.00,0.0504
1352.00,0.0505
1351.00,0.0505
1350.00,0.0505
1349.00,0.0506
1348.00,0.0506
1347.00,0.0506
1346.00,0.0506
1345.00,0.0506
1344.00,0.0506
1343.00,0.0506
1342.00,0.0506
1341.00,0.0506
1340.00,0.0506
1339.00,0.0506
1338.00,0.0506
1337.00,0.0507
1336.00,0.0507
1335.00,0.0507
1334.00,0.0507
1333.00,0.0508
1332.00,0.0508
1331.00,0.0508
1330.00,0.0508
1329.00,0.0508
1328.00,0.0509
1327.00,0.0509
1326.00,0.0509
1325.00,0.0509
1324.00,0.0510
1323.00,0.0510
1322.00,0.0511
1321.00,0.0511
1320.00,0.0512
1319.00,0.0513
1318.00,0.0513
1317.00,0.0514
1316.00,0.0515
1315.00,0.0515
1314.00,0.0515
1313.00,0.0515
1312.00,0.0515
1311.00,0.0515
1310.00,0.0516
1309.00,0.0516
1308.00,0.0517
1307.00,0.0517
1306.00,0.0517
1305.00,0.0518
1304.00,0.0518
1303.00,0.0519
1302.00,0.0520
1301.00,0.0520
1300.00,0.0521
1299.00,0.0521
1298.00,0.0522
1297.00,0.0523
1296.00,0.0523
1295.00,0.0524
1294.00,0.0524
1293.00,0.0525
1292.00,0.0526
1291.00,0.0527
1290.00,0.0527
1289.00,0.0528
1288.00,0.0529
1287.00,0.0530
1286.00,0.0530
1285.00,0.0531
1284.00,0.0532
1283.00,0.0533
1282.00,0.0534
1281.00,0.0535
1280.00,0.0536
1279.00,0.0537
1278.00,0.0538
1277.00,0.0540
1276.00,0.0541
1275.00,0.0542
1274.00,0.0544
1273.00,0.0545
1272.00,0.0546
1271.00,0.0548
1270.00,0.0549
1269.00,0.0551
1268.00,0.0553
1267.00,0.0555
1266.00,0.0557
1265.00,0.0558
1264.00,0.0561
1263.00,0.0563
1262.00,0.0565
1261.00,0.0568
1260.00,0.0570
1259.00,0.0573
1258.00,0.0575
1257.00,0.0577
1256.00,0.0580
1255.00,0.0582
1254.00,0.0585
1253.00,0.0587
1252.00,0.0589
1251.00,0.0592
1250.00,0.0595
1249.00,0.0597
1248.00,0.0600
1247.00,0.0603
1246.00,0.0606
1245.00,0.0608
1244.00,0.0611
1243.00,0.0614
1242.00,0.0617
1241.00,0.0620
1240.00,0.0622
1239.00,0.0625
1238.00,0.0627
1237.00,0.0629
1236.00,0.0632
1235.00,0.0635
1234.00,0.0637
1233.00,0.0640
1232.00,0.0642
1231.00,0.0645
1230.00,0.0647
1229.00,0.0649
1228.00,0.0652
1227.00,0.0654
1226.00,0.0657
1225.00,0.0659
1224.00,0.0661
1223.00,0.0663
1222.00,0.0665
1221.00,0.0667
1220.00,0.0669
1219.00,0.0671
1218.00,0.0673
1217.00,0.0674
1216.00,0.0676
1215.00,0.0678
1214.00,0.0680
1213.00,0.0681
1212.00,0.0683
1211.00,0.0685
1210.00,0.0686
1209.00,0.0688
1208.00,0.0690
1207.00,0.0692
1206.00,0.0693
1205.00,0.0695
1204.00,0.0697
1203.00,0.0699
1202.00,0.0700
1201.00,0.0701
1200.00,0.0703
1199.00,0.0704
1198.00,0.0705
1197.00,0.0707
1196.00,0.0708
1195.00,0.0709
1194.00,0.0710
1193.00,0.0712
1192.00,0.0713
1191.00,0.0715
1190.00,0.0716
1189.00,0.0717
1188.00,0.0718
1187.00,0.0719
1186.00,0.0721
1185.00,0.0723
1184.00,0.0725
1183.00,0.0727
1182.00,0.0728
1181.00,0.0730
1180.00,0.0732
1179.00,0.0734
1178.00,0.0737
1177.00,0.0738
1176.00,0.0740
1175.00,0.0741
1174.00,0.0742
1173.00,0.0743
1172.00,0.0744
1171.00,0.0745
1170.00,0.0747
1169.00,0.0749
1168.00,0.0751
1167.00,0.0753
1166.00,0.0755
1165.00,0.0757
1164.00,0.0759
1163.00,0.0761
1162.00,0.0763
1161.00,0.0764
1160.00,0.0766
1159.00,0.0768
1158.00,0.0771
1157.00,0.0773
1156.00,0.0775
1155.00,0.0777
1154.00,0.0779
1153.00,0.0781
1152.00,0.0784
1151.00,0.0787
1150.00,0.0789
1149.00,0.0792
1148.00,0.0794
1147.00,0.0797
1146.00,0.0800
1145.00,0.0803
1144.00,0.0806
1143.00,0.0809
1142.00,0.0812
1141.00,0.0816
1140.00,0.0820
1139.00,0.0824
1138.00,0.0827
1137.00,0.0830
1136.00,0.0833
1135.00,0.0837
1134.00,0.0842
1133.00,0.0846
1132.00,0.0851
1131.00,0.0856
1130.00,0.0861
1129.00,0.0866
1128.00,0.0872
1127.00,0.0877
1126.00,0.0882
1125.00,0.0887
1124.00,0.0892
1123.00,0.0898
1122.00,0.0904
1121.00,0.0910
1120.00,0.0916
1119.00,0.0922
1118.00,0.0927
1117.00,0.0932
1116.00,0.0937
1115.00,0.0943
1114.00,0.0947
1113.00,0.0951
1112.00,0.0955
1111.00,0.0960
1110.00,0.0963
1109.00,0.0967
1108.00,0.0970
1107.00,0.0973
1106.00,0.0975
1105.00,0.0977
1104.00,0.0979
1103.00,0.0981
1102.00,0.0982
1101.00,0.0984
1100.00,0.0986
1099.00,0.0988
1098.00,0.0990
1097.00,0.0992
1096.00,0.0994
1095.00,0.0995
1094.00,0.0997
1093.00,0.0999
1092.00,0.1002
1091.00,0.1004
1090.00,0.1006
1089.00,0.1007
1088.00,0.1008
1087.00,0.1009
1086.00,0.1009
1085.00,0.1009
1084.00,0.1010
1083.00,0.1011
1082.00,0.1013
1081.00,0.1015
1080.00,0.1017
1079.00,0.1019
1078.00,0.1019
1077.00,0.1019
1076.00,0.1019
1075.00,0.1020
1074.00,0.1021
1073.00,0.1022
1072.00,0.1023
1071.00,0.1024
1070.00,0.1024
1069.00,0.1026
1068.00,0.1028
1067.00,0.1030
1066.00,0.1030
1065.00,0.1030
1064.00,0.1029
1063.00,0.1029
1062.00,0.1030
1061.00,0.1030
1060.00,0.1031
1059.00,0.1032
1058.00,0.1033
1057.00,0.1033
1056.00,0.1034
1055.00,0.1034
1054.00,0.1034
1053.00,0.1033
1052.00,0.1034
1051.00,0.1036
1050.00,0.1037
1049.00,0.1038
1048.00,0.1039
1047.00,0.1038
1046.00,0.1037
1045.00,0.1035
1044.00,0.1035
1043.00,0.1035
1042.00,0.1034
1041.00,0.1033
1040.00,0.1033
1039.00,0.1032
1038.00,0.1030
1037.00,0.1029
1036.00,0.1028
1035.00,0.1028
1034.00,0.1027
1033.00,0.1025
1032.00,0.1023
1031.00,0.1020
1030.00,0.1017
1029.00,0.1014
1028.00,0.1011
1027.00,0.1008
1026.00,0.1004
1025.00,0.1000
1024.00,0.0996
1023.00,0.0992
1022.00,0.0988
1021.00,0.0984
1020.00,0.0980
1019.00,0.0976
1018.00,0.0971
1017.00,0.0965
1016.00,0.0960
1015.00,0.0955
1014.00,0.0951
1013.00,0.0946
1012.00,0.0941
1011.00,0.0936
1010.00,0.0931
1009.00,0.0926
1008.00,0.0920
1007.00,0.0915
1006.00,0.0909
1005.00,0.0903
1004.00,0.0898
1003.00,0.0893
1002.00,0.0888
1001.00,0.0883
1000.00,0.0878
999.00,0.0873
998.00,0.0869
997.00,0.0864
996.00,0.0860
995.00,0.0855
994.00,0.0851
993.00,0.0847
992.00,0.0843
991.00,0.0839
990.00,0.0834
989.00,0.0829
988.00,0.0824
987.00,0.0820
986.00,0.0817
985.00,0.0815
984.00,0.0813
983.00,0.0810
982.00,0.0806
981.00,0.0803
980.00,0.0801
979.00,0.0799
978.00,0.0796
977.00,0.0793
976.00,0.0790
975.00,0.0786
974.00,0.0783
973.00,0.0780
972.00,0.0778
971.00,0.0776
970.00,0.0774
969.00,0.0772
968.00,0.0770
967.00,0.0767
966.00,0.0765
965.00,0.0762
964.00,0.0760
963.00,0.0758
962.00,0.0757
961.00,0.0756
960.00,0.0755
959.00,0.0754
958.00,0.0752
957.00,0.0751
956.00,0.0749
955.00,0.0748
954.00,0.0746
953.00,0.0744
952.00,0.0742
951.00,0.0741
950.00,0.0740
949.00,0.0739
948.00,0.0739
947.00,0.0737
946.00,0.0736
945.00,0.0734
944.00,0.0732
943.00,0.0731
942.00,0.0729
941.00,0.0728
940.00,0.0728
939.00,0.0729
938.00,0.0729
937.00,0.0728
936.00,0.0728
935.00,0.0728
934.00,0.0727
933.00,0.0725
932.00,0.0725
931.00,0.0723
930.00,0.0722
929.00,0.0721
928.00,0.0719
927.00,0.0719
926.00,0.0718
925.00,0.0717
924.00,0.0717
923.00,0.0717
922.00,0.0716
921.00,0.0716
920.00,0.0716
919.00,0.0716
918.00,0.0717
917.00,0.0718
916.00,0.0719
915.00,0.0718
914.00,0.0717
913.00,0.0715
912.00,0.0714
911.00,0.0714
910.00,0.0713
909.00,0.0712
908.00,0.0711
907.00,0.0711
906.00,0.0710
905.00,0.0710
904.00,0.0709
903.00,0.0708
902.00,0.0708
901.00,0.0707
900.00,0.0707
899.00,0.0707
898.00,0.0707
897.00,0.0707
896.00,0.0706
895.00,0.0705
894.00,0.0705
893.00,0.0705
892.00,0.0704
891.00,0.0703
890.00,0.0701
889.00,0.0700
888.00,0.0699
887.00,0.0699
886.00,0.0700
885.00,0.0699
884.00,0.0699
883.00,0.0698
882.00,0.0697
881.00,0.0696
880.00,0.0697
879.00,0.0697
878.00,0.0697
877.00,0.0696
876.00,0.0696
875.00,0.0696
874.00,0.0696
873.00,0.0697
872.00,0.0697
871.00,0.0698
870.00,0.0697
869.00,0.0697
868.00,0.0696
867.00,0.0695
866.00,0.0695
865.00,0.0696
864.00,0.0698
863.00,0.0700
862.00,0.0701
861.00,0.0701
860.00,0.0702
859.00,0.0702
858.00,0.0703
857.00,0.0704
856.00,0.0706
855.00,0.0708
854.00,0.0710
853.00,0.0711
852.00,0.0713
851.00,0.0715
850.00,0.0717
849.00,0.0719
848.00,0.0721
847.00,0.0723
846.00,0.0725
845.00,0.0728
844.00,0.0732
843.00,0.0735
842.00,0.0738
841.00,0.0739
840.00,0.0742
839.00,0.0744
838.00,0.0747
837.00,0.0749
836.00,0.0750
835.00,0.0751
834.00,0.0751
833.00,0.0753
832.00,0.0756
831.00,0.0759
830.00,0.0763
829.00,0.0765
828.00,0.0767
827.00,0.0770
826.00,0.0772
825.00,0.0775
824.00,0.0779
823.00,0.0782
822.00,0.0785
821.00,0.0787
820.00,0.0789
819.00,0.0790
818.00,0.0792
817.00,0.0795
816.00,0.0798
815.00,0.0802
814.00,0.0804
813.00,0.0806
812.00,0.0808
811.00,0.0807
810.00,0.0806
809.00,0.0806
808.00,0.0807
807.00,0.0810
806.00,0.0812
805.00,0.0813
804.00,0.0815
803.00,0.0817
802.00,0.0818
801.00,0.0819
800.00,0.0820
799.00,0.0822
798.00,0.0823
797.00,0.0824
796.00,0.0825
795.00,0.0825
794.00,0.0825
793.00,0.0825
792.00,0.0824
791.00,0.0823
790.00,0.0824
789.00,0.0824
788.00,0.0825
787.00,0.0824
786.00,0.0823
785.00,0.0820
784.00,0.0816
783.00,0.0813
782.00,0.0811
781.00,0.0810
780.00,0.0811
779.00,0.0811
778.00,0.0810
777.00,0.0808
776.00,0.0805
775.00,0.0802
774.00,0.0799
773.00,0.0797
772.00,0.0795
771.00,0.0793
770.00,0.0791
769.00,0.0789
768.00,0.0787
767.00,0.0786
766.00,0.0786
765.00,0.0785
764.00,0.0785
763.00,0.0784
762.00,0.0782
761.00,0.0780
760.00,0.0780
759.00,0.0780
758.00,0.0781
757.00,0.0783
756.00,0.0784
755.00,0.0784
754.00,0.0783
753.00,0.0782
752.00,0.0782
751.00,0.0783
750.00,0.0784
749.00,0.0785
748.00,0.0785
747.00,0.0785
746.00,0.0785
745.00,0.0786
744.00,0.0786
743.00,0.0787
742.00,0.0788
741.00,0.0788
740.00,0.0788
739.00,0.0788
738.00,0.0788
737.00,0.0789
736.00,0.0789
735.00,0.0788
734.00,0.0786
733.00,0.0785
732.00,0.0786
731.00,0.0788
730.00,0.0791
729.00,0.0793
728.00,0.0794
727.00,0.0793
726.00,0.0790
725.00,0.0788
724.00,0.0788
723.00,0.0789
722.00,0.0791
721.00,0.0792
720.00,0.0792
719.00,0.0792
718.00,0.0792
717.00,0.0793
716.00,0.0795
715.00,0.0796
714.00,0.0797
713.00,0.0798
712.00,0.0799
711.00,0.0801
710.00,0.0802
709.00,0.0802
708.00,0.0802
707.00,0.0802
706.00,0.0802
705.00,0.0803
704.00,0.0805
703.00,0.0807
702.00,0.0809
701.00,0.0811
700.00,0.0811
699.00,0.0811
698.00,0.0810
697.00,0.0809
696.00,0.0810
695.00,0.0811
694.00,0.0812
693.00,0.0813
692.00,0.0813
691.00,0.0812
690.00,0.0814
689.00,0.0817
688.00,0.0820
687.00,0.0822
686.00,0.0822
685.00,0.0823
684.00,0.0823
683.00,0.0822
682.00,0.0820
681.00,0.0818
680.00,0.0817
679.00,0.0816
678.00,0.0816
677.00,0.0817
676.00,0.0819
675.00,0.0822
674.00,0.0824
673.00,0.0825
672.00,0.0826
671.00,0.0824
670.00,0.0820
669.00,0.0818
668.00,0.0822
667.00,0.0829
666.00,0.0835
665.00,0.0837
664.00,0.0836
663.00,0.0834
662.00,0.0834
661.00,0.0834
660.00,0.0836
659.00,0.0840
658.00,0.0845
657.00,0.0849
656.00,0.0852
655.00,0.0850
654.00,0.0853
653.00,0.0851
652.00,0.0849
651.00,0.0851
650.00,0.0851
