Created as New Dataset,Monday, April 03 2023
cm-1,A
4000.00,0.0149
3999.00,0.0149
3998.00,0.0149
3997.00,0.0148
3996.00,0.0148
3995.00,0.0148
3994.00,0.0149
3993.00,0.0149
3992.00,0.0149
3991.00,0.0149
3990.00,0.0149
3989.00,0.0149
3988.00,0.0149
3987.00,0.0149
3986.00,0.0149
3985.00,0.0149
3984.00,0.0149
3983.00,0.0149
3982.00,0.0149
3981.00,0.0149
3980.00,0.0149
3979.00,0.0149
3978.00,0.0149
3977.00,0.0149
3976.00,0.0148
3975.00,0.0148
3974.00,0.0148
3973.00,0.0147
3972.00,0.0147
3971.00,0.0147
3970.00,0.0147
3969.00,0.0146
3968.00,0.0146
3967.00,0.0147
3966.00,0.0147
3965.00,0.0147
3964.00,0.0148
3963.00,0.0149
3962.00,0.0149
3961.00,0.0149
3960.00,0.0148
3959.00,0.0148
3958.00,0.0148
3957.00,0.0147
3956.00,0.0147
3955.00,0.0147
3954.00,0.0147
3953.00,0.0147
3952.00,0.0147
3951.00,0.0147
3950.00,0.0148
3949.00,0.0148
3948.00,0.0148
3947.00,0.0148
3946.00,0.0148
3945.00,0.0148
3944.00,0.0147
3943.00,0.0146
3942.00,0.0146
3941.00,0.0146
3940.00,0.0146
3939.00,0.0146
3938.00,0.0146
3937.00,0.0146
3936.00,0.0147
3935.00,0.0147
3934.00,0.0148
3933.00,0.0148
3932.00,0.0148
3931.00,0.0147
3930.00,0.0146
3929.00,0.0146
3928.00,0.0145
3927.00,0.0145
3926.00,0.0144
3925.00,0.0144
3924.00,0.0145
3923.00,0.0145
3922.00,0.0146
3921.00,0.0147
3920.00,0.0147
3919.00,0.0148
3918.00,0.0148
3917.00,0.0148
3916.00,0.0147
3915.00,0.0146
3914.00,0.0146
3913.00,0.0146
3912.00,0.0145
3911.00,0.0145
3910.00,0.0145
3909.00,0.0145
3908.00,0.0145
3907.00,0.0145
3906.00,0.0146
3905.00,0.0147
3904.00,0.0148
3903.00,0.0148
3902.00,0.0148
3901.00,0.0148
3900.00,0.0148
3899.00,0.0147
3898.00,0.0146
3897.00,0.0146
3896.00,0.0146
3895.00,0.0146
3894.00,0.0146
3893.00,0.0146
3892.00,0.0146
3891.00,0.0146
3890.00,0.0147
3889.00,0.0147
3888.00,0.0147
3887.00,0.0148
3886.00,0.0148
3885.00,0.0147
3884.00,0.0146
3883.00,0.0146
3882.00,0.0145
3881.00,0.0144
3880.00,0.0144
3879.00,0.0144
3878.00,0.0144
3877.00,0.0144
3876.00,0.0144
3875.00,0.0144
3874.00,0.0143
3873.00,0.0144
3872.00,0.0144
3871.00,0.0144
3870.00,0.0143
3869.00,0.0143
3868.00,0.0144
3867.00,0.0145
3866.00,0.0146
3865.00,0.0145
3864.00,0.0145
3863.00,0.0145
3862.00,0.0145
3861.00,0.0146
3860.00,0.0146
3859.00,0.0145
3858.00,0.0145
3857.00,0.0144
3856.00,0.0144
3855.00,0.0145
3854.00,0.0145
3853.00,0.0143
3852.00,0.0142
3851.00,0.0142
3850.00,0.0143
3849.00,0.0144
3848.00,0.0144
3847.00,0.0144
3846.00,0.0144
3845.00,0.0143
3844.00,0.0143
3843.00,0.0143
3842.00,0.0143
3841.00,0.0142
3840.00,0.0142
3839.00,0.0141
3838.00,0.0141
3837.00,0.0142
3836.00,0.0142
3835.00,0.0142
3834.00,0.0142
3833.00,0.0143
3832.00,0.0143
3831.00,0.0144
3830.00,0.0145
3829.00,0.0145
3828.00,0.0145
3827.00,0.0145
3826.00,0.0144
3825.00,0.0144
3824.00,0.0145
3823.00,0.0145
3822.00,0.0145
3821.00,0.0144
3820.00,0.0144
3819.00,0.0143
3818.00,0.0143
3817.00,0.0142
3816.00,0.0141
3815.00,0.0140
3814.00,0.0141
3813.00,0.0142
3812.00,0.0142
3811.00,0.0142
3810.00,0.0141
3809.00,0.0141
3808.00,0.0142
3807.00,0.0142
3806.00,0.0142
3805.00,0.0141
3804.00,0.0141
3803.00,0.0141
3802.00,0.0140
3801.00,0.0140
3800.00,0.0140
3799.00,0.0140
3798.00,0.0141
3797.00,0.0142
3796.00,0.0142
3795.00,0.0142
3794.00,0.0142
3793.00,0.0142
3792.00,0.0142
3791.00,0.0142
3790.00,0.0142
3789.00,0.0142
3788.00,0.0142
3787.00,0.0141
3786.00,0.0141
3785.00,0.0140
3784.00,0.0140
3783.00,0.0140
3782.00,0.0140
3781.00,0.0140
3780.00,0.0140
3779.00,0.0140
3778.00,0.0140
3777.00,0.0141
3776.00,0.0141
3775.00,0.0141
3774.00,0.0141
3773.00,0.0141
3772.00,0.0142
3771.00,0.0142
3770.00,0.0142
3769.00,0.0142
3768.00,0.0142
3767.00,0.0142
3766.00,0.0142
3765.00,0.0142
3764.00,0.0142
3763.00,0.0143
3762.00,0.0143
3761.00,0.0143
3760.00,0.0143
3759.00,0.0142
3758.00,0.0142
3757.00,0.0142
3756.00,0.0142
3755.00,0.0143
3754.00,0.0143
3753.00,0.0144
3752.00,0.0144
3751.00,0.0145
3750.00,0.0146
3749.00,0.0145
3748.00,0.0144
3747.00,0.0143
3746.00,0.0142
3745.00,0.0142
3744.00,0.0142
3743.00,0.0142
3742.00,0.0144
3741.00,0.0145
3740.00,0.0146
3739.00,0.0146
3738.00,0.0147
3737.00,0.0147
3736.00,0.0147
3735.00,0.0147
3734.00,0.0146
3733.00,0.0146
3732.00,0.0146
3731.00,0.0145
3730.00,0.0145
3729.00,0.0145
3728.00,0.0145
3727.00,0.0145
3726.00,0.0144
3725.00,0.0143
3724.00,0.0142
3723.00,0.0141
3722.00,0.0140
3721.00,0.0140
3720.00,0.0140
3719.00,0.0140
3718.00,0.0141
3717.00,0.0141
3716.00,0.0142
3715.00,0.0142
3714.00,0.0142
3713.00,0.0142
3712.00,0.0142
3711.00,0.0141
3710.00,0.0141
3709.00,0.0141
3708.00,0.0142
3707.00,0.0142
3706.00,0.0142
3705.00,0.0141
3704.00,0.0141
3703.00,0.0141
3702.00,0.0141
3701.00,0.0141
3700.00,0.0142
3699.00,0.0142
3698.00,0.0142
3697.00,0.0142
3696.00,0.0142
3695.00,0.0141
3694.00,0.0141
3693.00,0.0141
3692.00,0.0140
3691.00,0.0139
3690.00,0.0139
3689.00,0.0140
3688.00,0.0140
3687.00,0.0141
3686.00,0.0142
3685.00,0.0144
3684.00,0.0145
3683.00,0.0145
3682.00,0.0145
3681.00,0.0145
3680.00,0.0144
3679.00,0.0144
3678.00,0.0144
3677.00,0.0145
3676.00,0.0146
3675.00,0.0147
3674.00,0.0148
3673.00,0.0150
3672.00,0.0151
3671.00,0.0151
3670.00,0.0149
3669.00,0.0148
3668.00,0.0148
3667.00,0.0149
3666.00,0.0149
3665.00,0.0150
3664.00,0.0151
3663.00,0.0151
3662.00,0.0151
3661.00,0.0151
3660.00,0.0151
3659.00,0.0152
3658.00,0.0153
3657.00,0.0153
3656.00,0.0153
3655.00,0.0153
3654.00,0.0153
3653.00,0.0152
3652.00,0.0152
3651.00,0.0152
3650.00,0.0153
3649.00,0.0153
3648.00,0.0152
3647.00,0.0153
3646.00,0.0153
3645.00,0.0154
3644.00,0.0154
3643.00,0.0154
3642.00,0.0154
3641.00,0.0154
3640.00,0.0154
3639.00,0.0154
3638.00,0.0154
3637.00,0.0154
3636.00,0.0154
3635.00,0.0154
3634.00,0.0154
3633.00,0.0154
3632.00,0.0154
3631.00,0.0155
3630.00,0.0157
3629.00,0.0157
3628.00,0.0157
3627.00,0.0156
3626.00,0.0156
3625.00,0.0155
3624.00,0.0155
3623.00,0.0154
3622.00,0.0154
3621.00,0.0153
3620.00,0.0154
3619.00,0.0154
3618.00,0.0154
3617.00,0.0154
3616.00,0.0154
3615.00,0.0155
3614.00,0.0156
3613.00,0.0157
3612.00,0.0159
3611.00,0.0160
3610.00,0.0161
3609.00,0.0160
3608.00,0.0159
3607.00,0.0158
3606.00,0.0157
3605.00,0.0157
3604.00,0.0157
3603.00,0.0157
3602.00,0.0156
3601.00,0.0156
3600.00,0.0155
3599.00,0.0155
3598.00,0.0155
3597.00,0.0155
3596.00,0.0155
3595.00,0.0156
3594.00,0.0157
3593.00,0.0157
3592.00,0.0158
3591.00,0.0158
3590.00,0.0158
3589.00,0.0157
3588.00,0.0156
3587.00,0.0156
3586.00,0.0156
3585.00,0.0157
3584.00,0.0157
3583.00,0.0157
3582.00,0.0158
3581.00,0.0158
3580.00,0.0158
3579.00,0.0157
3578.00,0.0157
3577.00,0.0157
3576.00,0.0158
3575.00,0.0158
3574.00,0.0159
3573.00,0.0159
3572.00,0.0160
3571.00,0.0160
3570.00,0.0159
3569.00,0.0159
3568.00,0.0160
3567.00,0.0160
3566.00,0.0160
3565.00,0.0160
3564.00,0.0160
3563.00,0.0160
3562.00,0.0160
3561.00,0.0160
3560.00,0.0160
3559.00,0.0160
3558.00,0.0160
3557.00,0.0160
3556.00,0.0160
3555.00,0.0160
3554.00,0.0160
3553.00,0.0161
3552.00,0.0162
3551.00,0.0163
3550.00,0.0163
3549.00,0.0163
3548.00,0.0163
3547.00,0.0163
3546.00,0.0163
3545.00,0.0163
3544.00,0.0163
3543.00,0.0163
3542.00,0.0163
3541.00,0.0162
3540.00,0.0162
3539.00,0.0162
3538.00,0.0163
3537.00,0.0163
3536.00,0.0163
3535.00,0.0164
3534.00,0.0163
3533.00,0.0163
3532.00,0.0162
3531.00,0.0162
3530.00,0.0162
3529.00,0.0162
3528.00,0.0163
3527.00,0.0164
3526.00,0.0165
3525.00,0.0165
3524.00,0.0165
3523.00,0.0165
3522.00,0.0165
3521.00,0.0165
3520.00,0.0165
3519.00,0.0165
3518.00,0.0166
3517.00,0.0166
3516.00,0.0166
3515.00,0.0166
3514.00,0.0166
3513.00,0.0166
3512.00,0.0166
3511.00,0.0166
3510.00,0.0166
3509.00,0.0167
3508.00,0.0168
3507.00,0.0168
3506.00,0.0168
3505.00,0.0167
3504.00,0.0167
3503.00,0.0167
3502.00,0.0168
3501.00,0.0168
3500.00,0.0168
3499.00,0.0168
3498.00,0.0168
3497.00,0.0168
3496.00,0.0168
3495.00,0.0168
3494.00,0.0168
3493.00,0.0169
3492.00,0.0169
3491.00,0.0169
3490.00,0.0169
3489.00,0.0169
3488.00,0.0169
3487.00,0.0169
3486.00,0.0169
3485.00,0.0169
3484.00,0.0169
3483.00,0.0168
3482.00,0.0168
3481.00,0.0168
3480.00,0.0168
3479.00,0.0169
3478.00,0.0169
3477.00,0.0169
3476.00,0.0170
3475.00,0.0170
3474.00,0.0170
3473.00,0.0170
3472.00,0.0170
3471.00,0.0170
3470.00,0.0170
3469.00,0.0170
3468.00,0.0170
3467.00,0.0170
3466.00,0.0170
3465.00,0.0171
3464.00,0.0171
3463.00,0.0171
3462.00,0.0171
3461.00,0.0171
3460.00,0.0171
3459.00,0.0171
3458.00,0.0171
3457.00,0.0171
3456.00,0.0172
3455.00,0.0172
3454.00,0.0172
3453.00,0.0172
3452.00,0.0172
3451.00,0.0173
3450.00,0.0173
3449.00,0.0173
3448.00,0.0173
3447.00,0.0173
3446.00,0.0173
3445.00,0.0174
3444.00,0.0174
3443.00,0.0174
3442.00,0.0174
3441.00,0.0174
3440.00,0.0173
3439.00,0.0173
3438.00,0.0173
3437.00,0.0173
3436.00,0.0173
3435.00,0.0173
3434.00,0.0173
3433.00,0.0173
3432.00,0.0173
3431.00,0.0173
3430.00,0.0174
3429.00,0.0174
3428.00,0.0174
3427.00,0.0174
3426.00,0.0175
3425.00,0.0175
3424.00,0.0176
3423.00,0.0176
3422.00,0.0176
3421.00,0.0176
3420.00,0.0175
3419.00,0.0175
3418.00,0.0175
3417.00,0.0175
3416.00,0.0175
3415.00,0.0175
3414.00,0.0176
3413.00,0.0176
3412.00,0.0176
3411.00,0.0175
3410.00,0.0175
3409.00,0.0174
3408.00,0.0174
3407.00,0.0174
3406.00,0.0173
3405.00,0.0173
3404.00,0.0174
3403.00,0.0175
3402.00,0.0175
3401.00,0.0176
3400.00,0.0176
3399.00,0.0175
3398.00,0.0175
3397.00,0.0175
3396.00,0.0175
3395.00,0.0176
3394.00,0.0177
3393.00,0.0177
3392.00,0.0177
3391.00,0.0177
3390.00,0.0176
3389.00,0.0176
3388.00,0.0176
3387.00,0.0176
3386.00,0.0176
3385.00,0.0176
3384.00,0.0176
3383.00,0.0176
3382.00,0.0176
3381.00,0.0176
3380.00,0.0176
3379.00,0.0176
3378.00,0.0176
3377.00,0.0176
3376.00,0.0176
3375.00,0.0176
3374.00,0.0176
3373.00,0.0176
3372.00,0.0176
3371.00,0.0175
3370.00,0.0175
3369.00,0.0175
3368.00,0.0175
3367.00,0.0176
3366.00,0.0176
3365.00,0.0176
3364.00,0.0176
3363.00,0.0176
3362.00,0.0176
3361.00,0.0176
3360.00,0.0176
3359.00,0.0176
3358.00,0.0177
3357.00,0.0177
3356.00,0.0177
3355.00,0.0177
3354.00,0.0176
3353.00,0.0176
3352.00,0.0176
3351.00,0.0177
3350.00,0.0177
3349.00,0.0177
3348.00,0.0176
3347.00,0.0175
3346.00,0.0174
3345.00,0.0174
3344.00,0.0174
3343.00,0.0175
3342.00,0.0175
3341.00,0.0175
3340.00,0.0175
3339.00,0.0175
3338.00,0.0175
3337.00,0.0175
3336.00,0.0175
3335.00,0.0175
3334.00,0.0175
3333.00,0.0175
3332.00,0.0175
3331.00,0.0175
3330.00,0.0175
3329.00,0.0175
3328.00,0.0175
3327.00,0.0175
3326.00,0.0175
3325.00,0.0175
3324.00,0.0175
3323.00,0.0175
3322.00,0.0174
3321.00,0.0174
3320.00,0.0174
3319.00,0.0175
3318.00,0.0175
3317.00,0.0175
3316.00,0.0175
3315.00,0.0174
3314.00,0.0174
3313.00,0.0173
3312.00,0.0173
3311.00,0.0173
3310.00,0.0173
3309.00,0.0173
3308.00,0.0174
3307.00,0.0174
3306.00,0.0175
3305.00,0.0175
3304.00,0.0175
3303.00,0.0175
3302.00,0.0175
3301.00,0.0175
3300.00,0.0175
3299.00,0.0175
3298.00,0.0175
3297.00,0.0175
3296.00,0.0174
3295.00,0.0174
3294.00,0.0175
3293.00,0.0175
3292.00,0.0176
3291.00,0.0175
3290.00,0.0175
3289.00,0.0174
3288.00,0.0174
3287.00,0.0174
3286.00,0.0174
3285.00,0.0174
3284.00,0.0173
3283.00,0.0173
3282.00,0.0174
3281.00,0.0174
3280.00,0.0174
3279.00,0.0174
3278.00,0.0174
3277.00,0.0174
3276.00,0.0174
3275.00,0.0174
3274.00,0.0174
3273.00,0.0175
3272.00,0.0175
3271.00,0.0174
3270.00,0.0174
3269.00,0.0174
3268.00,0.0174
3267.00,0.0174
3266.00,0.0174
3265.00,0.0174
3264.00,0.0174
3263.00,0.0174
3262.00,0.0174
3261.00,0.0174
3260.00,0.0174
3259.00,0.0174
3258.00,0.0174
3257.00,0.0173
3256.00,0.0173
3255.00,0.0173
3254.00,0.0174
3253.00,0.0174
3252.00,0.0174
3251.00,0.0174
3250.00,0.0174
3249.00,0.0174
3248.00,0.0174
3247.00,0.0174
3246.00,0.0174
3245.00,0.0174
3244.00,0.0174
3243.00,0.0174
3242.00,0.0174
3241.00,0.0174
3240.00,0.0175
3239.00,0.0175
3238.00,0.0175
3237.00,0.0175
3236.00,0.0175
3235.00,0.0174
3234.00,0.0174
3233.00,0.0174
3232.00,0.0174
3231.00,0.0174
3230.00,0.0175
3229.00,0.0175
3228.00,0.0175
3227.00,0.0175
3226.00,0.0175
3225.00,0.0175
3224.00,0.0174
3223.00,0.0174
3222.00,0.0174
3221.00,0.0174
3220.00,0.0174
3219.00,0.0173
3218.00,0.0173
3217.00,0.0173
3216.00,0.0173
3215.00,0.0173
3214.00,0.0173
3213.00,0.0173
3212.00,0.0173
3211.00,0.0173
3210.00,0.0173
3209.00,0.0173
3208.00,0.0173
3207.00,0.0173
3206.00,0.0173
3205.00,0.0173
3204.00,0.0174
3203.00,0.0174
3202.00,0.0174
3201.00,0.0174
3200.00,0.0175
3199.00,0.0175
3198.00,0.0175
3197.00,0.0174
3196.00,0.0174
3195.00,0.0174
3194.00,0.0174
3193.00,0.0174
3192.00,0.0174
3191.00,0.0174
3190.00,0.0173
3189.00,0.0173
3188.00,0.0173
3187.00,0.0173
3186.00,0.0173
3185.00,0.0173
3184.00,0.0172
3183.00,0.0172
3182.00,0.0172
3181.00,0.0172
3180.00,0.0172
3179.00,0.0172
3178.00,0.0172
3177.00,0.0171
3176.00,0.0171
3175.00,0.0172
3174.00,0.0172
3173.00,0.0172
3172.00,0.0172
3171.00,0.0172
3170.00,0.0172
3169.00,0.0172
3168.00,0.0172
3167.00,0.0172
3166.00,0.0171
3165.00,0.0171
3164.00,0.0171
3163.00,0.0171
3162.00,0.0171
3161.00,0.0171
3160.00,0.0171
3159.00,0.0170
3158.00,0.0170
3157.00,0.0170
3156.00,0.0170
3155.00,0.0170
3154.00,0.0170
3153.00,0.0170
3152.00,0.0169
3151.00,0.0170
3150.00,0.0170
3149.00,0.0170
3148.00,0.0170
3147.00,0.0170
3146.00,0.0171
3145.00,0.0171
3144.00,0.0171
3143.00,0.0170
3142.00,0.0170
3141.00,0.0170
3140.00,0.0170
3139.00,0.0170
3138.00,0.0170
3137.00,0.0170
3136.00,0.0170
3135.00,0.0170
3134.00,0.0170
3133.00,0.0170
3132.00,0.0170
3131.00,0.0170
3130.00,0.0170
3129.00,0.0170
3128.00,0.0169
3127.00,0.0169
3126.00,0.0169
3125.00,0.0169
3124.00,0.0169
3123.00,0.0169
3122.00,0.0169
3121.00,0.0169
3120.00,0.0168
3119.00,0.0168
3118.00,0.0169
3117.00,0.0169
3116.00,0.0169
3115.00,0.0169
3114.00,0.0169
3113.00,0.0169
3112.00,0.0169
3111.00,0.0169
3110.00,0.0169
3109.00,0.0169
3108.00,0.0169
3107.00,0.0169
3106.00,0.0169
3105.00,0.0169
3104.00,0.0169
3103.00,0.0169
3102.00,0.0169
3101.00,0.0169
3100.00,0.0169
3099.00,0.0168
3098.00,0.0168
3097.00,0.0167
3096.00,0.0167
3095.00,0.0167
3094.00,0.0167
3093.00,0.0168
3092.00,0.0168
3091.00,0.0168
3090.00,0.0168
3089.00,0.0169
3088.00,0.0169
3087.00,0.0168
3086.00,0.0168
3085.00,0.0168
3084.00,0.0168
3083.00,0.0168
3082.00,0.0168
3081.00,0.0169
3080.00,0.0169
3079.00,0.0169
3078.00,0.0169
3077.00,0.0169
3076.00,0.0169
3075.00,0.0168
3074.00,0.0168
3073.00,0.0168
3072.00,0.0168
3071.00,0.0168
3070.00,0.0168
3069.00,0.0168
3068.00,0.0168
3067.00,0.0168
3066.00,0.0168
3065.00,0.0168
3064.00,0.0168
3063.00,0.0167
3062.00,0.0167
3061.00,0.0167
3060.00,0.0167
3059.00,0.0167
3058.00,0.0167
3057.00,0.0167
3056.00,0.0167
3055.00,0.0167
3054.00,0.0167
3053.00,0.0167
3052.00,0.0166
3051.00,0.0166
3050.00,0.0166
3049.00,0.0167
3048.00,0.0167
3047.00,0.0167
3046.00,0.0168
3045.00,0.0168
3044.00,0.0168
3043.00,0.0167
3042.00,0.0167
3041.00,0.0167
3040.00,0.0166
3039.00,0.0166
3038.00,0.0166
3037.00,0.0166
3036.00,0.0166
3035.00,0.0166
3034.00,0.0166
3033.00,0.0165
3032.00,0.0165
3031.00,0.0165
3030.00,0.0165
3029.00,0.0165
3028.00,0.0165
3027.00,0.0165
3026.00,0.0165
3025.00,0.0165
3024.00,0.0165
3023.00,0.0165
3022.00,0.0165
3021.00,0.0166
3020.00,0.0166
3019.00,0.0166
3018.00,0.0167
3017.00,0.0168
3016.00,0.0169
3015.00,0.0170
3014.00,0.0171
3013.00,0.0172
3012.00,0.0173
3011.00,0.0174
3010.00,0.0174
3009.00,0.0175
3008.00,0.0176
3007.00,0.0178
3006.00,0.0180
3005.00,0.0181
3004.00,0.0184
3003.00,0.0185
3002.00,0.0187
3001.00,0.0188
3000.00,0.0190
2999.00,0.0191
2998.00,0.0192
2997.00,0.0193
2996.00,0.0194
2995.00,0.0195
2994.00,0.0196
2993.00,0.0197
2992.00,0.0197
2991.00,0.0198
2990.00,0.0199
2989.00,0.0200
2988.00,0.0201
2987.00,0.0203
2986.00,0.0206
2985.00,0.0211
2984.00,0.0217
2983.00,0.0222
2982.00,0.0225
2981.00,0.0225
2980.00,0.0223
2979.00,0.0219
2978.00,0.0216
2977.00,0.0213
2976.00,0.0212
2975.00,0.0212
2974.00,0.0212
2973.00,0.0213
2972.00,0.0213
2971.00,0.0212
2970.00,0.0210
2969.00,0.0207
2968.00,0.0205
2967.00,0.0203
2966.00,0.0202
2965.00,0.0200
2964.00,0.0198
2963.00,0.0197
2962.00,0.0196
2961.00,0.0195
2960.00,0.0194
2959.00,0.0193
2958.00,0.0192
2957.00,0.0191
2956.00,0.0190
2955.00,0.0190
2954.00,0.0189
2953.00,0.0188
2952.00,0.0187
2951.00,0.0186
2950.00,0.0185
2949.00,0.0184
2948.00,0.0184
2947.00,0.0183
2946.00,0.0182
2945.00,0.0181
2944.00,0.0180
2943.00,0.0180
2942.00,0.0180
2941.00,0.0180
2940.00,0.0180
2939.00,0.0180
2938.00,0.0180
2937.00,0.0181
2936.00,0.0181
2935.00,0.0181
2934.00,0.0181
2933.00,0.0182
2932.00,0.0182
2931.00,0.0183
2930.00,0.0182
2929.00,0.0182
2928.00,0.0182
2927.00,0.0182
2926.00,0.0182
2925.00,0.0182
2924.00,0.0182
2923.00,0.0181
2922.00,0.0181
2921.00,0.0181
2920.00,0.0180
2919.00,0.0179
2918.00,0.0178
2917.00,0.0178
2916.00,0.0177
2915.00,0.0177
2914.00,0.0177
2913.00,0.0177
2912.00,0.0178
2911.00,0.0178
2910.00,0.0178
2909.00,0.0178
2908.00,0.0178
2907.00,0.0177
2906.00,0.0177
2905.00,0.0177
2904.00,0.0177
2903.00,0.0177
2902.00,0.0177
2901.00,0.0177
2900.00,0.0177
2899.00,0.0177
2898.00,0.0177
2897.00,0.0177
2896.00,0.0177
2895.00,0.0178
2894.00,0.0178
2893.00,0.0178
2892.00,0.0179
2891.00,0.0179
2890.00,0.0180
2889.00,0.0180
2888.00,0.0179
2887.00,0.0179
2886.00,0.0178
2885.00,0.0178
2884.00,0.0177
2883.00,0.0177
2882.00,0.0176
2881.00,0.0175
2880.00,0.0174
2879.00,0.0173
2878.00,0.0172
2877.00,0.0171
2876.00,0.0171
2875.00,0.0171
2874.00,0.0170
2873.00,0.0170
2872.00,0.0169
2871.00,0.0168
2870.00,0.0168
2869.00,0.0167
2868.00,0.0167
2867.00,0.0167
2866.00,0.0166
2865.00,0.0166
2864.00,0.0166
2863.00,0.0166
2862.00,0.0167
2861.00,0.0167
2860.00,0.0167
2859.00,0.0167
2858.00,0.0166
2857.00,0.0166
2856.00,0.0166
2855.00,0.0166
2854.00,0.0165
2853.00,0.0165
2852.00,0.0164
2851.00,0.0164
2850.00,0.0163
2849.00,0.0162
2848.00,0.0162
2847.00,0.0161
2846.00,0.0160
2845.00,0.0160
2844.00,0.0159
2843.00,0.0159
2842.00,0.0158
2841.00,0.0158
2840.00,0.0157
2839.00,0.0157
2838.00,0.0157
2837.00,0.0157
2836.00,0.0157
2835.00,0.0156
2834.00,0.0156
2833.00,0.0156
2832.00,0.0156
2831.00,0.0156
2830.00,0.0156
2829.00,0.0156
2828.00,0.0156
2827.00,0.0156
2826.00,0.0155
2825.00,0.0155
2824.00,0.0155
2823.00,0.0155
2822.00,0.0155
2821.00,0.0155
2820.00,0.0155
2819.00,0.0155
2818.00,0.0155
2817.00,0.0154
2816.00,0.0154
2815.00,0.0154
2814.00,0.0154
2813.00,0.0154
2812.00,0.0154
2811.00,0.0153
2810.00,0.0153
2809.00,0.0153
2808.00,0.0152
2807.00,0.0152
2806.00,0.0152
2805.00,0.0152
2804.00,0.0152
2803.00,0.0152
2802.00,0.0152
2801.00,0.0152
2800.00,0.0152
2799.00,0.0152
2798.00,0.0152
2797.00,0.0152
2796.00,0.0152
2795.00,0.0152
2794.00,0.0152
2793.00,0.0151
2792.00,0.0151
2791.00,0.0151
2790.00,0.0151
2789.00,0.0151
2788.00,0.0151
2787.00,0.0151
2786.00,0.0151
2785.00,0.0151
2784.00,0.0151
2783.00,0.0151
2782.00,0.0150
2781.00,0.0150
2780.00,0.0150
2779.00,0.0149
2778.00,0.0149
2777.00,0.0149
2776.00,0.0149
2775.00,0.0149
2774.00,0.0149
2773.00,0.0150
2772.00,0.0150
2771.00,0.0150
2770.00,0.0150
2769.00,0.0150
2768.00,0.0150
2767.00,0.0150
2766.00,0.0149
2765.00,0.0149
2764.00,0.0149
2763.00,0.0149
2762.00,0.0149
2761.00,0.0149
2760.00,0.0148
2759.00,0.0148
2758.00,0.0148
2757.00,0.0148
2756.00,0.0148
2755.00,0.0149
2754.00,0.0148
2753.00,0.0148
2752.00,0.0147
2751.00,0.0147
2750.00,0.0147
2749.00,0.0147
2748.00,0.0147
2747.00,0.0147
2746.00,0.0147
2745.00,0.0147
2744.00,0.0146
2743.00,0.0146
2742.00,0.0146
2741.00,0.0146
2740.00,0.0147
2739.00,0.0147
2738.00,0.0147
2737.00,0.0147
2736.00,0.0147
2735.00,0.0147
2734.00,0.0146
2733.00,0.0146
2732.00,0.0146
2731.00,0.0146
2730.00,0.0146
2729.00,0.0146
2728.00,0.0146
2727.00,0.0146
2726.00,0.0146
2725.00,0.0146
2724.00,0.0146
2723.00,0.0146
2722.00,0.0146
2721.00,0.0146
2720.00,0.0145
2719.00,0.0145
2718.00,0.0144
2717.00,0.0144
2716.00,0.0144
2715.00,0.0144
2714.00,0.0144
2713.00,0.0144
2712.00,0.0144
2711.00,0.0144
2710.00,0.0144
2709.00,0.0144
2708.00,0.0144
2707.00,0.0144
2706.00,0.0144
2705.00,0.0144
2704.00,0.0144
2703.00,0.0144
2702.00,0.0143
2701.00,0.0143
2700.00,0.0143
2699.00,0.0143
2698.00,0.0143
2697.00,0.0143
2696.00,0.0143
2695.00,0.0143
2694.00,0.0143
2693.00,0.0143
2692.00,0.0143
2691.00,0.0143
2690.00,0.0143
2689.00,0.0143
2688.00,0.0143
2687.00,0.0143
2686.00,0.0142
2685.00,0.0142
2684.00,0.0142
2683.00,0.0142
2682.00,0.0142
2681.00,0.0142
2680.00,0.0142
2679.00,0.0142
2678.00,0.0142
2677.00,0.0142
2676.00,0.0142
2675.00,0.0142
2674.00,0.0142
2673.00,0.0142
2672.00,0.0142
2671.00,0.0142
2670.00,0.0142
2669.00,0.0142
2668.00,0.0143
2667.00,0.0143
2666.00,0.0143
2665.00,0.0143
2664.00,0.0143
2663.00,0.0143
2662.00,0.0143
2661.00,0.0142
2660.00,0.0142
2659.00,0.0142
2658.00,0.0142
2657.00,0.0142
2656.00,0.0142
2655.00,0.0142
2654.00,0.0142
2653.00,0.0142
2652.00,0.0142
2651.00,0.0142
2650.00,0.0142
2649.00,0.0142
2648.00,0.0142
2647.00,0.0142
2646.00,0.0142
2645.00,0.0142
2644.00,0.0142
2643.00,0.0142
2642.00,0.0142
2641.00,0.0142
2640.00,0.0142
2639.00,0.0142
2638.00,0.0142
2637.00,0.0142
2636.00,0.0142
2635.00,0.0142
2634.00,0.0142
2633.00,0.0143
2632.00,0.0142
2631.00,0.0142
2630.00,0.0142
2629.00,0.0142
2628.00,0.0142
2627.00,0.0142
2626.00,0.0142
2625.00,0.0141
2624.00,0.0141
2623.00,0.0141
2622.00,0.0141
2621.00,0.0141
2620.00,0.0141
2619.00,0.0141
2618.00,0.0141
2617.00,0.0141
2616.00,0.0141
2615.00,0.0141
2614.00,0.0142
2613.00,0.0142
2612.00,0.0142
2611.00,0.0141
2610.00,0.0141
2609.00,0.0141
2608.00,0.0141
2607.00,0.0142
2606.00,0.0143
2605.00,0.0143
2604.00,0.0143
2603.00,0.0143
2602.00,0.0142
2601.00,0.0142
2600.00,0.0142
2599.00,0.0142
2598.00,0.0142
2597.00,0.0142
2596.00,0.0141
2595.00,0.0140
2594.00,0.0140
2593.00,0.0140
2592.00,0.0140
2591.00,0.0140
2590.00,0.0141
2589.00,0.0141
2588.00,0.0141
2587.00,0.0141
2586.00,0.0141
2585.00,0.0141
2584.00,0.0141
2583.00,0.0142
2582.00,0.0142
2581.00,0.0142
2580.00,0.0142
2579.00,0.0142
2578.00,0.0141
2577.00,0.0141
2576.00,0.0141
2575.00,0.0141
2574.00,0.0142
2573.00,0.0142
2572.00,0.0142
2571.00,0.0142
2570.00,0.0142
2569.00,0.0142
2568.00,0.0141
2567.00,0.0141
2566.00,0.0141
2565.00,0.0141
2564.00,0.0140
2563.00,0.0140
2562.00,0.0140
2561.00,0.0140
2560.00,0.0140
2559.00,0.0139
2558.00,0.0139
2557.00,0.0139
2556.00,0.0139
2555.00,0.0139
2554.00,0.0140
2553.00,0.0140
2552.00,0.0141
2551.00,0.0141
2550.00,0.0140
2549.00,0.0140
2548.00,0.0140
2547.00,0.0140
2546.00,0.0140
2545.00,0.0140
2544.00,0.0140
2543.00,0.0140
2542.00,0.0140
2541.00,0.0140
2540.00,0.0140
2539.00,0.0140
2538.00,0.0140
2537.00,0.0140
2536.00,0.0139
2535.00,0.0139
2534.00,0.0138
2533.00,0.0138
2532.00,0.0138
2531.00,0.0138
2530.00,0.0138
2529.00,0.0138
2528.00,0.0139
2527.00,0.0139
2526.00,0.0139
2525.00,0.0139
2524.00,0.0139
2523.00,0.0139
2522.00,0.0139
2521.00,0.0138
2520.00,0.0138
2519.00,0.0138
2518.00,0.0138
2517.00,0.0139
2516.00,0.0139
2515.00,0.0140
2514.00,0.0140
2513.00,0.0140
2512.00,0.0140
2511.00,0.0140
2510.00,0.0139
2509.00,0.0139
2508.00,0.0138
2507.00,0.0138
2506.00,0.0138
2505.00,0.0138
2504.00,0.0138
2503.00,0.0138
2502.00,0.0138
2501.00,0.0138
2500.00,0.0138
2499.00,0.0138
2498.00,0.0139
2497.00,0.0139
2496.00,0.0139
2495.00,0.0139
2494.00,0.0139
2493.00,0.0139
2492.00,0.0139
2491.00,0.0138
2490.00,0.0138
2489.00,0.0138
2488.00,0.0137
2487.00,0.0137
2486.00,0.0137
2485.00,0.0137
2484.00,0.0137
2483.00,0.0138
2482.00,0.0138
2481.00,0.0138
2480.00,0.0138
2479.00,0.0139
2478.00,0.0139
2477.00,0.0139
2476.00,0.0138
2475.00,0.0138
2474.00,0.0137
2473.00,0.0137
2472.00,0.0137
2471.00,0.0137
2470.00,0.0137
2469.00,0.0137
2468.00,0.0137
2467.00,0.0137
2466.00,0.0137
2465.00,0.0137
2464.00,0.0137
2463.00,0.0138
2462.00,0.0138
2461.00,0.0138
2460.00,0.0138
2459.00,0.0138
2458.00,0.0138
2457.00,0.0138
2456.00,0.0137
2455.00,0.0137
2454.00,0.0137
2453.00,0.0137
2452.00,0.0138
2451.00,0.0138
2450.00,0.0138
2449.00,0.0138
2448.00,0.0138
2447.00,0.0138
2446.00,0.0138
2445.00,0.0138
2444.00,0.0137
2443.00,0.0137
2442.00,0.0137
2441.00,0.0137
2440.00,0.0137
2439.00,0.0136
2438.00,0.0136
2437.00,0.0135
2436.00,0.0135
2435.00,0.0136
2434.00,0.0136
2433.00,0.0137
2432.00,0.0137
2431.00,0.0137
2430.00,0.0136
2429.00,0.0136
2428.00,0.0135
2427.00,0.0136
2426.00,0.0136
2425.00,0.0137
2424.00,0.0137
2423.00,0.0137
2422.00,0.0136
2421.00,0.0137
2420.00,0.0137
2419.00,0.0137
2418.00,0.0138
2417.00,0.0137
2416.00,0.0137
2415.00,0.0136
2414.00,0.0136
2413.00,0.0135
2412.00,0.0135
2411.00,0.0135
2410.00,0.0134
2409.00,0.0134
2408.00,0.0134
2407.00,0.0134
2406.00,0.0135
2405.00,0.0135
2404.00,0.0136
2403.00,0.0136
2402.00,0.0136
2401.00,0.0135
2400.00,0.0135
2399.00,0.0134
2398.00,0.0134
2397.00,0.0134
2396.00,0.0134
2395.00,0.0134
2394.00,0.0134
2393.00,0.0134
2392.00,0.0134
2391.00,0.0134
2390.00,0.0134
2389.00,0.0134
2388.00,0.0135
2387.00,0.0135
2386.00,0.0135
2385.00,0.0136
2384.00,0.0136
2383.00,0.0136
2382.00,0.0135
2381.00,0.0135
2380.00,0.0133
2379.00,0.0132
2378.00,0.0132
2377.00,0.0131
2376.00,0.0130
2375.00,0.0130
2374.00,0.0131
2373.00,0.0132
2372.00,0.0133
2371.00,0.0133
2370.00,0.0134
2369.00,0.0134
2368.00,0.0133
2367.00,0.0132
2366.00,0.0131
2365.00,0.0131
2364.00,0.0132
2363.00,0.0133
2362.00,0.0135
2361.00,0.0136
2360.00,0.0136
2359.00,0.0136
2358.00,0.0134
2357.00,0.0133
2356.00,0.0132
2355.00,0.0130
2354.00,0.0129
2353.00,0.0127
2352.00,0.0127
2351.00,0.0127
2350.00,0.0129
2349.00,0.0130
2348.00,0.0130
2347.00,0.0130
2346.00,0.0129
2345.00,0.0129
2344.00,0.0130
2343.00,0.0131
2342.00,0.0131
2341.00,0.0130
2340.00,0.0129
2339.00,0.0128
2338.00,0.0129
2337.00,0.0129
2336.00,0.0130
2335.00,0.0129
2334.00,0.0128
2333.00,0.0128
2332.00,0.0128
2331.00,0.0127
2330.00,0.0128
2329.00,0.0130
2328.00,0.0133
2327.00,0.0134
2326.00,0.0135
2325.00,0.0134
2324.00,0.0133
2323.00,0.0131
2322.00,0.0130
2321.00,0.0129
2320.00,0.0129
2319.00,0.0130
2318.00,0.0130
2317.00,0.0131
2316.00,0.0131
2315.00,0.0130
2314.00,0.0130
2313.00,0.0130
2312.00,0.0130
2311.00,0.0131
2310.00,0.0132
2309.00,0.0132
2308.00,0.0132
2307.00,0.0131
2306.00,0.0131
2305.00,0.0130
2304.00,0.0130
2303.00,0.0130
2302.00,0.0130
2301.00,0.0131
2300.00,0.0131
2299.00,0.0131
2298.00,0.0132
2297.00,0.0132
2296.00,0.0133
2295.00,0.0133
2294.00,0.0133
2293.00,0.0133
2292.00,0.0133
2291.00,0.0133
2290.00,0.0133
2289.00,0.0133
2288.00,0.0133
2287.00,0.0132
2286.00,0.0132
2285.00,0.0132
2284.00,0.0132
2283.00,0.0131
2282.00,0.0131
2281.00,0.0131
2280.00,0.0131
2279.00,0.0132
2278.00,0.0132
2277.00,0.0131
2276.00,0.0131
2275.00,0.0130
2274.00,0.0129
2273.00,0.0129
2272.00,0.0129
2271.00,0.0130
2270.00,0.0131
2269.00,0.0131
2268.00,0.0131
2267.00,0.0132
2266.00,0.0133
2265.00,0.0134
2264.00,0.0135
2263.00,0.0134
2262.00,0.0133
2261.00,0.0133
2260.00,0.0133
2259.00,0.0133
2258.00,0.0133
2257.00,0.0132
2256.00,0.0132
2255.00,0.0131
2254.00,0.0131
2253.00,0.0131
2252.00,0.0132
2251.00,0.0132
2250.00,0.0131
2249.00,0.0131
2248.00,0.0131
2247.00,0.0131
2246.00,0.0131
2245.00,0.0131
2244.00,0.0130
2243.00,0.0130
2242.00,0.0129
2241.00,0.0128
2240.00,0.0128
2239.00,0.0129
2238.00,0.0130
2237.00,0.0131
2236.00,0.0132
2235.00,0.0133
2234.00,0.0134
2233.00,0.0134
2232.00,0.0134
2231.00,0.0134
2230.00,0.0134
2229.00,0.0134
2228.00,0.0133
2227.00,0.0133
2226.00,0.0132
2225.00,0.0131
2224.00,0.0130
2223.00,0.0131
2222.00,0.0132
2221.00,0.0132
2220.00,0.0132
2219.00,0.0131
2218.00,0.0130
2217.00,0.0129
2216.00,0.0130
2215.00,0.0132
2214.00,0.0132
2213.00,0.0132
2212.00,0.0131
2211.00,0.0129
2210.00,0.0129
2209.00,0.0130
2208.00,0.0131
2207.00,0.0131
2206.00,0.0132
2205.00,0.0132
2204.00,0.0132
2203.00,0.0132
2202.00,0.0132
2201.00,0.0132
2200.00,0.0131
2199.00,0.0132
2198.00,0.0131
2197.00,0.0131
2196.00,0.0130
2195.00,0.0131
2194.00,0.0131
2193.00,0.0131
2192.00,0.0130
2191.00,0.0129
2190.00,0.0128
2189.00,0.0129
2188.00,0.0130
2187.00,0.0131
2186.00,0.0131
2185.00,0.0131
2184.00,0.0129
2183.00,0.0128
2182.00,0.0128
2181.00,0.0129
2180.00,0.0129
2179.00,0.0129
2178.00,0.0127
2177.00,0.0126
2176.00,0.0126
2175.00,0.0127
2174.00,0.0129
2173.00,0.0131
2172.00,0.0133
2171.00,0.0134
2170.00,0.0135
2169.00,0.0136
2168.00,0.0136
2167.00,0.0134
2166.00,0.0132
2165.00,0.0131
2164.00,0.0131
2163.00,0.0131
2162.00,0.0130
2161.00,0.0130
2160.00,0.0129
2159.00,0.0129
2158.00,0.0130
2157.00,0.0131
2156.00,0.0130
2155.00,0.0127
2154.00,0.0125
2153.00,0.0124
2152.00,0.0122
2151.00,0.0122
2150.00,0.0121
2149.00,0.0121
2148.00,0.0122
2147.00,0.0124
2146.00,0.0125
2145.00,0.0127
2144.00,0.0128
2143.00,0.0128
2142.00,0.0128
2141.00,0.0127
2140.00,0.0126
2139.00,0.0126
2138.00,0.0125
2137.00,0.0124
2136.00,0.0124
2135.00,0.0123
2134.00,0.0123
2133.00,0.0124
2132.00,0.0124
2131.00,0.0123
2130.00,0.0123
2129.00,0.0122
2128.00,0.0122
2127.00,0.0122
2126.00,0.0123
2125.00,0.0123
2124.00,0.0122
2123.00,0.0121
2122.00,0.0121
2121.00,0.0120
2120.00,0.0121
2119.00,0.0121
2118.00,0.0122
2117.00,0.0122
2116.00,0.0122
2115.00,0.0123
2114.00,0.0123
2113.00,0.0124
2112.00,0.0125
2111.00,0.0125
2110.00,0.0125
2109.00,0.0125
2108.00,0.0124
2107.00,0.0123
2106.00,0.0123
2105.00,0.0123
2104.00,0.0122
2103.00,0.0122
2102.00,0.0121
2101.00,0.0121
2100.00,0.0121
2099.00,0.0121
2098.00,0.0121
2097.00,0.0121
2096.00,0.0122
2095.00,0.0123
2094.00,0.0123
2093.00,0.0122
2092.00,0.0121
2091.00,0.0120
2090.00,0.0120
2089.00,0.0120
2088.00,0.0120
2087.00,0.0120
2086.00,0.0120
2085.00,0.0120
2084.00,0.0120
2083.00,0.0120
2082.00,0.0120
2081.00,0.0120
2080.00,0.0121
2079.00,0.0122
2078.00,0.0122
2077.00,0.0122
2076.00,0.0121
2075.00,0.0121
2074.00,0.0122
2073.00,0.0122
2072.00,0.0122
2071.00,0.0122
2070.00,0.0121
2069.00,0.0120
2068.00,0.0120
2067.00,0.0120
2066.00,0.0119
2065.00,0.0119
2064.00,0.0118
2063.00,0.0117
2062.00,0.0117
2061.00,0.0117
2060.00,0.0117
2059.00,0.0117
2058.00,0.0117
2057.00,0.0117
2056.00,0.0118
2055.00,0.0120
2054.00,0.0121
2053.00,0.0121
2052.00,0.0121
2051.00,0.0121
2050.00,0.0120
2049.00,0.0120
2048.00,0.0120
2047.00,0.0122
2046.00,0.0122
2045.00,0.0122
2044.00,0.0121
2043.00,0.0120
2042.00,0.0120
2041.00,0.0119
2040.00,0.0118
2039.00,0.0118
2038.00,0.0118
2037.00,0.0119
2036.00,0.0121
2035.00,0.0123
2034.00,0.0123
2033.00,0.0122
2032.00,0.0121
2031.00,0.0120
2030.00,0.0119
2029.00,0.0118
2028.00,0.0117
2027.00,0.0116
2026.00,0.0116
2025.00,0.0115
2024.00,0.0114
2023.00,0.0115
2022.00,0.0117
2021.00,0.0120
2020.00,0.0122
2019.00,0.0124
2018.00,0.0124
2017.00,0.0123
2016.00,0.0122
2015.00,0.0122
2014.00,0.0121
2013.00,0.0121
2012.00,0.0120
2011.00,0.0120
2010.00,0.0120
2009.00,0.0120
2008.00,0.0120
2007.00,0.0120
2006.00,0.0119
2005.00,0.0119
2004.00,0.0119
2003.00,0.0119
2002.00,0.0118
2001.00,0.0118
2000.00,0.0116
1999.00,0.0114
1998.00,0.0114
1997.00,0.0114
1996.00,0.0114
1995.00,0.0116
1994.00,0.0117
1993.00,0.0117
1992.00,0.0118
1991.00,0.0117
1990.00,0.0117
1989.00,0.0116
1988.00,0.0115
1987.00,0.0114
1986.00,0.0114
1985.00,0.0115
1984.00,0.0117
1983.00,0.0119
1982.00,0.0119
1981.00,0.0119
1980.00,0.0119
1979.00,0.0119
1978.00,0.0118
1977.00,0.0118
1976.00,0.0118
1975.00,0.0118
1974.00,0.0118
1973.00,0.0118
1972.00,0.0118
1971.00,0.0118
1970.00,0.0117
1969.00,0.0116
1968.00,0.0115
1967.00,0.0114
1966.00,0.0114
1965.00,0.0114
1964.00,0.0115
1963.00,0.0115
1962.00,0.0115
1961.00,0.0115
1960.00,0.0116
1959.00,0.0116
1958.00,0.0116
1957.00,0.0115
1956.00,0.0114
1955.00,0.0112
1954.00,0.0111
1953.00,0.0110
1952.00,0.0111
1951.00,0.0112
1950.00,0.0113
1949.00,0.0113
1948.00,0.0114
1947.00,0.0115
1946.00,0.0116
1945.00,0.0117
1944.00,0.0117
1943.00,0.0116
1942.00,0.0114
1941.00,0.0112
1940.00,0.0110
1939.00,0.0109
1938.00,0.0108
1937.00,0.0109
1936.00,0.0109
1935.00,0.0110
1934.00,0.0111
1933.00,0.0111
1932.00,0.0110
1931.00,0.0110
1930.00,0.0109
1929.00,0.0109
1928.00,0.0108
1927.00,0.0107
1926.00,0.0107
1925.00,0.0108
1924.00,0.0109
1923.00,0.0110
1922.00,0.0110
1921.00,0.0111
1920.00,0.0111
1919.00,0.0112
1918.00,0.0111
1917.00,0.0110
1916.00,0.0110
1915.00,0.0109
1914.00,0.0109
1913.00,0.0108
1912.00,0.0108
1911.00,0.0107
1910.00,0.0107
1909.00,0.0107
1908.00,0.0107
1907.00,0.0106
1906.00,0.0105
1905.00,0.0105
1904.00,0.0105
1903.00,0.0105
1902.00,0.0105
1901.00,0.0105
1900.00,0.0105
1899.00,0.0106
1898.00,0.0106
1897.00,0.0106
1896.00,0.0105
1895.00,0.0104
1894.00,0.0104
1893.00,0.0104
1892.00,0.0104
1891.00,0.0104
1890.00,0.0104
1889.00,0.0103
1888.00,0.0104
1887.00,0.0104
1886.00,0.0104
1885.00,0.0104
1884.00,0.0103
1883.00,0.0103
1882.00,0.0103
1881.00,0.0103
1880.00,0.0103
1879.00,0.0103
1878.00,0.0103
1877.00,0.0103
1876.00,0.0102
1875.00,0.0102
1874.00,0.0101
1873.00,0.0102
1872.00,0.0102
1871.00,0.0102
1870.00,0.0103
1869.00,0.0102
1868.00,0.0102
1867.00,0.0101
1866.00,0.0101
1865.00,0.0102
1864.00,0.0102
1863.00,0.0101
1862.00,0.0101
1861.00,0.0101
1860.00,0.0101
1859.00,0.0101
1858.00,0.0101
1857.00,0.0101
1856.00,0.0101
1855.00,0.0101
1854.00,0.0101
1853.00,0.0101
1852.00,0.0101
1851.00,0.0101
1850.00,0.0101
1849.00,0.0101
1848.00,0.0101
1847.00,0.0101
1846.00,0.0101
1845.00,0.0100
1844.00,0.0099
1843.00,0.0098
1842.00,0.0097
1841.00,0.0098
1840.00,0.0098
1839.00,0.0098
1838.00,0.0098
1837.00,0.0098
1836.00,0.0098
1835.00,0.0098
1834.00,0.0098
1833.00,0.0098
1832.00,0.0098
1831.00,0.0097
1830.00,0.0096
1829.00,0.0095
1828.00,0.0094
1827.00,0.0094
1826.00,0.0095
1825.00,0.0095
1824.00,0.0096
1823.00,0.0096
1822.00,0.0096
1821.00,0.0097
1820.00,0.0097
1819.00,0.0097
1818.00,0.0096
1817.00,0.0096
1816.00,0.0095
1815.00,0.0094
1814.00,0.0093
1813.00,0.0093
1812.00,0.0093
1811.00,0.0093
1810.00,0.0094
1809.00,0.0094
1808.00,0.0095
1807.00,0.0095
1806.00,0.0095
1805.00,0.0095
1804.00,0.0095
1803.00,0.0095
1802.00,0.0095
1801.00,0.0095
1800.00,0.0094
1799.00,0.0094
1798.00,0.0095
1797.00,0.0097
1796.00,0.0097
1795.00,0.0098
1794.00,0.0098
1793.00,0.0097
1792.00,0.0096
1791.00,0.0095
1790.00,0.0095
1789.00,0.0095
1788.00,0.0096
1787.00,0.0096
1786.00,0.0096
1785.00,0.0096
1784.00,0.0096
1783.00,0.0096
1782.00,0.0096
1781.00,0.0096
1780.00,0.0096
1779.00,0.0096
1778.00,0.0097
1777.00,0.0099
1776.00,0.0100
1775.00,0.0102
1774.00,0.0103
1773.00,0.0102
1772.00,0.0101
1771.00,0.0099
1770.00,0.0099
1769.00,0.0100
1768.00,0.0100
1767.00,0.0101
1766.00,0.0101
1765.00,0.0102
1764.00,0.0103
1763.00,0.0103
1762.00,0.0103
1761.00,0.0103
1760.00,0.0104
1759.00,0.0104
1758.00,0.0105
1757.00,0.0105
1756.00,0.0105
1755.00,0.0106
1754.00,0.0107
1753.00,0.0108
1752.00,0.0110
1751.00,0.0111
1750.00,0.0111
1749.00,0.0111
1748.00,0.0111
1747.00,0.0111
1746.00,0.0111
1745.00,0.0111
1744.00,0.0111
1743.00,0.0111
1742.00,0.0112
1741.00,0.0113
1740.00,0.0114
1739.00,0.0115
1738.00,0.0115
1737.00,0.0117
1736.00,0.0119
1735.00,0.0121
1734.00,0.0121
1733.00,0.0120
1732.00,0.0119
1731.00,0.0118
1730.00,0.0118
1729.00,0.0118
1728.00,0.0119
1727.00,0.0121
1726.00,0.0122
1725.00,0.0123
1724.00,0.0123
1723.00,0.0124
1722.00,0.0124
1721.00,0.0124
1720.00,0.0124
1719.00,0.0125
1718.00,0.0127
1717.00,0.0128
1716.00,0.0129
1715.00,0.0128
1714.00,0.0129
1713.00,0.0129
1712.00,0.0130
1711.00,0.0130
1710.00,0.0130
1709.00,0.0130
1708.00,0.0130
1707.00,0.0130
1706.00,0.0131
1705.00,0.0131
1704.00,0.0132
1703.00,0.0133
1702.00,0.0135
1701.00,0.0137
1700.00,0.0138
1699.00,0.0138
1698.00,0.0138
1697.00,0.0137
1696.00,0.0135
1695.00,0.0134
1694.00,0.0135
1693.00,0.0135
1692.00,0.0135
1691.00,0.0135
1690.00,0.0136
1689.00,0.0137
1688.00,0.0137
1687.00,0.0137
1686.00,0.0135
1685.00,0.0133
1684.00,0.0131
1683.00,0.0131
1682.00,0.0134
1681.00,0.0135
1680.00,0.0136
1679.00,0.0137
1678.00,0.0138
1677.00,0.0139
1676.00,0.0140
1675.00,0.0141
1674.00,0.0141
1673.00,0.0142
1672.00,0.0142
1671.00,0.0143
1670.00,0.0144
1669.00,0.0144
1668.00,0.0144
1667.00,0.0145
1666.00,0.0146
1665.00,0.0146
1664.00,0.0147
1663.00,0.0147
1662.00,0.0148
1661.00,0.0149
1660.00,0.0150
1659.00,0.0151
1658.00,0.0152
1657.00,0.0152
1656.00,0.0151
1655.00,0.0151
1654.00,0.0151
1653.00,0.0152
1652.00,0.0153
1651.00,0.0155
1650.00,0.0156
1649.00,0.0158
1648.00,0.0159
1647.00,0.0161
1646.00,0.0161
1645.00,0.0161
1644.00,0.0162
1643.00,0.0163
1642.00,0.0165
1641.00,0.0166
1640.00,0.0167
1639.00,0.0168
1638.00,0.0169
1637.00,0.0170
1636.00,0.0171
1635.00,0.0171
1634.00,0.0170
1633.00,0.0171
1632.00,0.0172
1631.00,0.0173
1630.00,0.0174
1629.00,0.0174
1628.00,0.0175
1627.00,0.0176
1626.00,0.0178
1625.00,0.0180
1624.00,0.0181
1623.00,0.0183
1622.00,0.0183
1621.00,0.0184
1620.00,0.0184
1619.00,0.0184
1618.00,0.0185
1617.00,0.0186
1616.00,0.0186
1615.00,0.0187
1614.00,0.0187
1613.00,0.0188
1612.00,0.0188
1611.00,0.0190
1610.00,0.0191
1609.00,0.0192
1608.00,0.0193
1607.00,0.0194
1606.00,0.0195
1605.00,0.0195
1604.00,0.0195
1603.00,0.0195
1602.00,0.0196
1601.00,0.0196
1600.00,0.0196
1599.00,0.0196
1598.00,0.0197
1597.00,0.0197
1596.00,0.0197
1595.00,0.0198
1594.00,0.0198
1593.00,0.0198
1592.00,0.0198
1591.00,0.0198
1590.00,0.0198
1589.00,0.0198
1588.00,0.0198
1587.00,0.0199
1586.00,0.0199
1585.00,0.0199
1584.00,0.0199
1583.00,0.0199
1582.00,0.0200
1581.00,0.0200
1580.00,0.0201
1579.00,0.0201
1578.00,0.0201
1577.00,0.0201
1576.00,0.0202
1575.00,0.0202
1574.00,0.0202
1573.00,0.0201
1572.00,0.0201
1571.00,0.0201
1570.00,0.0201
1569.00,0.0201
1568.00,0.0202
1567.00,0.0201
1566.00,0.0201
1565.00,0.0200
1564.00,0.0200
1563.00,0.0200
1562.00,0.0198
1561.00,0.0195
1560.00,0.0194
1559.00,0.0197
1558.00,0.0198
1557.00,0.0199
1556.00,0.0199
1555.00,0.0199
1554.00,0.0199
1553.00,0.0198
1552.00,0.0196
1551.00,0.0195
1550.00,0.0194
1549.00,0.0194
1548.00,0.0194
1547.00,0.0193
1546.00,0.0193
1545.00,0.0193
1544.00,0.0194
1543.00,0.0194
1542.00,0.0195
1541.00,0.0194
1540.00,0.0189
1539.00,0.0185
1538.00,0.0184
1537.00,0.0184
1536.00,0.0184
1535.00,0.0184
1534.00,0.0183
1533.00,0.0183
1532.00,0.0183
1531.00,0.0183
1530.00,0.0183
1529.00,0.0183
1528.00,0.0184
1527.00,0.0184
1526.00,0.0185
1525.00,0.0184
1524.00,0.0184
1523.00,0.0183
1522.00,0.0182
1521.00,0.0181
1520.00,0.0179
1519.00,0.0178
1518.00,0.0177
1517.00,0.0177
1516.00,0.0177
1515.00,0.0177
1514.00,0.0178
1513.00,0.0179
1512.00,0.0179
1511.00,0.0178
1510.00,0.0177
1509.00,0.0177
1508.00,0.0177
1507.00,0.0175
1506.00,0.0172
1505.00,0.0173
1504.00,0.0174
1503.00,0.0174
1502.00,0.0174
1501.00,0.0173
1500.00,0.0173
1499.00,0.0172
1498.00,0.0172
1497.00,0.0173
1496.00,0.0172
1495.00,0.0172
1494.00,0.0172
1493.00,0.0172
1492.00,0.0173
1491.00,0.0174
1490.00,0.0173
1489.00,0.0172
1488.00,0.0170
1487.00,0.0169
1486.00,0.0169
1485.00,0.0170
1484.00,0.0171
1483.00,0.0171
1482.00,0.0172
1481.00,0.0172
1480.00,0.0171
1479.00,0.0171
1478.00,0.0171
1477.00,0.0173
1476.00,0.0175
1475.00,0.0177
1474.00,0.0179
1473.00,0.0180
1472.00,0.0178
1471.00,0.0176
1470.00,0.0175
1469.00,0.0175
1468.00,0.0175
1467.00,0.0175
1466.00,0.0175
1465.00,0.0177
1464.00,0.0178
1463.00,0.0178
1462.00,0.0177
1461.00,0.0176
1460.00,0.0175
1459.00,0.0175
1458.00,0.0176
1457.00,0.0178
1456.00,0.0177
1455.00,0.0177
1454.00,0.0176
1453.00,0.0176
1452.00,0.0176
1451.00,0.0176
1450.00,0.0176
1449.00,0.0176
1448.00,0.0176
1447.00,0.0176
1446.00,0.0175
1445.00,0.0175
1444.00,0.0175
1443.00,0.0175
1442.00,0.0175
1441.00,0.0175
1440.00,0.0175
1439.00,0.0176
1438.00,0.0176
1437.00,0.0176
1436.00,0.0176
1435.00,0.0176
1434.00,0.0176
1433.00,0.0176
1432.00,0.0176
1431.00,0.0175
1430.00,0.0175
1429.00,0.0175
1428.00,0.0175
1427.00,0.0176
1426.00,0.0176
1425.00,0.0176
1424.00,0.0176
1423.00,0.0176
1422.00,0.0177
1421.00,0.0177
1420.00,0.0178
1419.00,0.0178
1418.00,0.0179
1417.00,0.0179
1416.00,0.0180
1415.00,0.0181
1414.00,0.0181
1413.00,0.0182
1412.00,0.0183
1411.00,0.0183
1410.00,0.0183
1409.00,0.0184
1408.00,0.0184
1407.00,0.0185
1406.00,0.0185
1405.00,0.0187
1404.00,0.0188
1403.00,0.0190
1402.00,0.0191
1401.00,0.0193
1400.00,0.0195
1399.00,0.0197
1398.00,0.0199
1397.00,0.0200
1396.00,0.0201
1395.00,0.0202
1394.00,0.0202
1393.00,0.0203
1392.00,0.0203
1391.00,0.0204
1390.00,0.0204
1389.00,0.0205
1388.00,0.0206
1387.00,0.0207
1386.00,0.0208
1385.00,0.0208
1384.00,0.0208
1383.00,0.0209
1382.00,0.0209
1381.00,0.0209
1380.00,0.0209
1379.00,0.0209
1378.00,0.0208
1377.00,0.0207
1376.00,0.0206
1375.00,0.0205
1374.00,0.0204
1373.00,0.0204
1372.00,0.0204
1371.00,0.0203
1370.00,0.0202
1369.00,0.0201
1368.00,0.0200
1367.00,0.0200
1366.00,0.0200
1365.00,0.0199
1364.00,0.0199
1363.00,0.0198
1362.00,0.0197
1361.00,0.0196
1360.00,0.0196
1359.00,0.0196
1358.00,0.0196
1357.00,0.0196
1356.00,0.0195
1355.00,0.0195
1354.00,0.0194
1353.00,0.0194
1352.00,0.0194
1351.00,0.0195
1350.00,0.0195
1349.00,0.0195
1348.00,0.0195
1347.00,0.0194
1346.00,0.0193
1345.00,0.0193
1344.00,0.0192
1343.00,0.0192
1342.00,0.0192
1341.00,0.0191
1340.00,0.0191
1339.00,0.0191
1338.00,0.0191
1337.00,0.0191
1336.00,0.0191
1335.00,0.0191
1334.00,0.0191
1333.00,0.0191
1332.00,0.0191
1331.00,0.0191
1330.00,0.0191
1329.00,0.0191
1328.00,0.0190
1327.00,0.0189
1326.00,0.0188
1325.00,0.0188
1324.00,0.0188
1323.00,0.0189
1322.00,0.0190
1321.00,0.0190
1320.00,0.0191
1319.00,0.0191
1318.00,0.0191
1317.00,0.0191
1316.00,0.0191
1315.00,0.0191
1314.00,0.0191
1313.00,0.0190
1312.00,0.0190
1311.00,0.0190
1310.00,0.0190
1309.00,0.0190
1308.00,0.0190
1307.00,0.0190
1306.00,0.0190
1305.00,0.0191
1304.00,0.0191
1303.00,0.0192
1302.00,0.0193
1301.00,0.0193
1300.00,0.0193
1299.00,0.0193
1298.00,0.0193
1297.00,0.0193
1296.00,0.0194
1295.00,0.0194
1294.00,0.0195
1293.00,0.0195
1292.00,0.0196
1291.00,0.0196
1290.00,0.0197
1289.00,0.0198
1288.00,0.0199
1287.00,0.0199
1286.00,0.0200
1285.00,0.0200
1284.00,0.0200
1283.00,0.0201
1282.00,0.0201
1281.00,0.0202
1280.00,0.0202
1279.00,0.0203
1278.00,0.0203
1277.00,0.0204
1276.00,0.0206
1275.00,0.0207
1274.00,0.0209
1273.00,0.0210
1272.00,0.0212
1271.00,0.0213
1270.00,0.0214
1269.00,0.0215
1268.00,0.0216
1267.00,0.0217
1266.00,0.0218
1265.00,0.0219
1264.00,0.0221
1263.00,0.0222
1262.00,0.0224
1261.00,0.0226
1260.00,0.0229
1259.00,0.0231
1258.00,0.0232
1257.00,0.0234
1256.00,0.0236
1255.00,0.0237
1254.00,0.0239
1253.00,0.0240
1252.00,0.0242
1251.00,0.0243
1250.00,0.0244
1249.00,0.0245
1248.00,0.0247
1247.00,0.0249
1246.00,0.0250
1245.00,0.0251
1244.00,0.0252
1243.00,0.0253
1242.00,0.0254
1241.00,0.0256
1240.00,0.0257
1239.00,0.0258
1238.00,0.0259
1237.00,0.0259
1236.00,0.0260
1235.00,0.0261
1234.00,0.0262
1233.00,0.0262
1232.00,0.0263
1231.00,0.0264
1230.00,0.0264
1229.00,0.0265
1228.00,0.0266
1227.00,0.0267
1226.00,0.0267
1225.00,0.0268
1224.00,0.0268
1223.00,0.0269
1222.00,0.0269
1221.00,0.0269
1220.00,0.0268
1219.00,0.0268
1218.00,0.0268
1217.00,0.0267
1216.00,0.0268
1215.00,0.0268
1214.00,0.0270
1213.00,0.0271
1212.00,0.0273
1211.00,0.0274
1210.00,0.0274
1209.00,0.0274
1208.00,0.0274
1207.00,0.0274
1206.00,0.0274
1205.00,0.0275
1204.00,0.0275
1203.00,0.0276
1202.00,0.0276
1201.00,0.0276
1200.00,0.0278
1199.00,0.0280
1198.00,0.0282
1197.00,0.0284
1196.00,0.0285
1195.00,0.0286
1194.00,0.0287
1193.00,0.0286
1192.00,0.0286
1191.00,0.0286
1190.00,0.0286
1189.00,0.0285
1188.00,0.0285
1187.00,0.0286
1186.00,0.0288
1185.00,0.0290
1184.00,0.0292
1183.00,0.0293
1182.00,0.0294
1181.00,0.0296
1180.00,0.0297
1179.00,0.0299
1178.00,0.0301
1177.00,0.0303
1176.00,0.0303
1175.00,0.0303
1174.00,0.0302
1173.00,0.0301
1172.00,0.0301
1171.00,0.0303
1170.00,0.0306
1169.00,0.0308
1168.00,0.0309
1167.00,0.0310
1166.00,0.0311
1165.00,0.0313
1164.00,0.0316
1163.00,0.0317
1162.00,0.0318
1161.00,0.0317
1160.00,0.0317
1159.00,0.0317
1158.00,0.0318
1157.00,0.0318
1156.00,0.0319
1155.00,0.0318
1154.00,0.0316
1153.00,0.0316
1152.00,0.0317
1151.00,0.0319
1150.00,0.0322
1149.00,0.0324
1148.00,0.0323
1147.00,0.0322
1146.00,0.0320
1145.00,0.0319
1144.00,0.0319
1143.00,0.0319
1142.00,0.0319
1141.00,0.0317
1140.00,0.0316
1139.00,0.0316
1138.00,0.0318
1137.00,0.0320
1136.00,0.0322
1135.00,0.0324
1134.00,0.0325
1133.00,0.0325
1132.00,0.0324
1131.00,0.0324
1130.00,0.0324
1129.00,0.0325
1128.00,0.0325
1127.00,0.0324
1126.00,0.0323
1125.00,0.0322
1124.00,0.0323
1123.00,0.0325
1122.00,0.0328
1121.00,0.0331
1120.00,0.0332
1119.00,0.0332
1118.00,0.0333
1117.00,0.0334
1116.00,0.0336
1115.00,0.0338
1114.00,0.0339
1113.00,0.0339
1112.00,0.0339
1111.00,0.0341
1110.00,0.0344
1109.00,0.0348
1108.00,0.0353
1107.00,0.0357
1106.00,0.0360
1105.00,0.0362
1104.00,0.0363
1103.00,0.0366
1102.00,0.0371
1101.00,0.0376
1100.00,0.0380
1099.00,0.0381
1098.00,0.0382
1097.00,0.0383
1096.00,0.0386
1095.00,0.0391
1094.00,0.0395
1093.00,0.0397
1092.00,0.0398
1091.00,0.0398
1090.00,0.0398
1089.00,0.0400
1088.00,0.0404
1087.00,0.0408
1086.00,0.0410
1085.00,0.0410
1084.00,0.0408
1083.00,0.0408
1082.00,0.0409
1081.00,0.0411
1080.00,0.0413
1079.00,0.0414
1078.00,0.0412
1077.00,0.0410
1076.00,0.0411
1075.00,0.0415
1074.00,0.0421
1073.00,0.0425
1072.00,0.0427
1071.00,0.0425
1070.00,0.0423
1069.00,0.0421
1068.00,0.0421
1067.00,0.0422
1066.00,0.0422
1065.00,0.0420
1064.00,0.0417
1063.00,0.0415
1062.00,0.0415
1061.00,0.0417
1060.00,0.0420
1059.00,0.0422
1058.00,0.0420
1057.00,0.0417
1056.00,0.0414
1055.00,0.0413
1054.00,0.0412
1053.00,0.0412
1052.00,0.0411
1051.00,0.0409
1050.00,0.0406
1049.00,0.0405
1048.00,0.0405
1047.00,0.0406
1046.00,0.0406
1045.00,0.0405
1044.00,0.0402
1043.00,0.0398
1042.00,0.0395
1041.00,0.0394
1040.00,0.0395
1039.00,0.0396
1038.00,0.0396
1037.00,0.0395
1036.00,0.0393
1035.00,0.0389
1034.00,0.0386
1033.00,0.0382
1032.00,0.0379
1031.00,0.0377
1030.00,0.0374
1029.00,0.0371
1028.00,0.0368
1027.00,0.0366
1026.00,0.0364
1025.00,0.0362
1024.00,0.0361
1023.00,0.0358
1022.00,0.0354
1021.00,0.0349
1020.00,0.0343
1019.00,0.0338
1018.00,0.0334
1017.00,0.0331
1016.00,0.0329
1015.00,0.0327
1014.00,0.0325
1013.00,0.0323
1012.00,0.0323
1011.00,0.0324
1010.00,0.0323
1009.00,0.0321
1008.00,0.0317
1007.00,0.0311
1006.00,0.0304
1005.00,0.0300
1004.00,0.0298
1003.00,0.0296
1002.00,0.0294
1001.00,0.0292
1000.00,0.0290
999.00,0.0288
998.00,0.0287
997.00,0.0287
996.00,0.0288
995.00,0.0286
994.00,0.0282
993.00,0.0277
992.00,0.0274
991.00,0.0272
990.00,0.0271
989.00,0.0270
988.00,0.0267
987.00,0.0264
986.00,0.0261
985.00,0.0259
984.00,0.0261
983.00,0.0263
982.00,0.0265
981.00,0.0264
980.00,0.0262
979.00,0.0260
978.00,0.0261
977.00,0.0263
976.00,0.0265
975.00,0.0266
974.00,0.0264
973.00,0.0260
972.00,0.0257
971.00,0.0256
970.00,0.0259
969.00,0.0263
968.00,0.0265
967.00,0.0265
966.00,0.0263
965.00,0.0261
964.00,0.0261
963.00,0.0262
962.00,0.0264
961.00,0.0263
960.00,0.0261
959.00,0.0257
958.00,0.0254
957.00,0.0254
956.00,0.0255
955.00,0.0256
954.00,0.0257
953.00,0.0256
952.00,0.0254
951.00,0.0253
950.00,0.0254
949.00,0.0255
948.00,0.0256
947.00,0.0254
946.00,0.0251
945.00,0.0247
944.00,0.0245
943.00,0.0245
942.00,0.0246
941.00,0.0247
940.00,0.0247
939.00,0.0246
938.00,0.0245
937.00,0.0244
936.00,0.0244
935.00,0.0244
934.00,0.0244
933.00,0.0242
932.00,0.0238
931.00,0.0234
930.00,0.0231
929.00,0.0229
928.00,0.0228
927.00,0.0229
926.00,0.0229
925.00,0.0229
924.00,0.0229
923.00,0.0230
922.00,0.0231
921.00,0.0232
920.00,0.0233
919.00,0.0234
918.00,0.0235
917.00,0.0234
916.00,0.0234
915.00,0.0233
914.00,0.0232
913.00,0.0232
912.00,0.0231
911.00,0.0230
910.00,0.0229
909.00,0.0228
908.00,0.0229
907.00,0.0230
906.00,0.0233
905.00,0.0233
904.00,0.0232
903.00,0.0229
902.00,0.0225
901.00,0.0223
900.00,0.0223
899.00,0.0224
898.00,0.0225
897.00,0.0224
896.00,0.0222
895.00,0.0220
894.00,0.0220
893.00,0.0222
892.00,0.0226
891.00,0.0227
890.00,0.0225
889.00,0.0222
888.00,0.0221
887.00,0.0222
886.00,0.0226
885.00,0.0229
884.00,0.0229
883.00,0.0226
882.00,0.0222
881.00,0.0218
880.00,0.0220
879.00,0.0224
878.00,0.0228
877.00,0.0229
876.00,0.0226
875.00,0.0223
874.00,0.0221
873.00,0.0223
872.00,0.0227
871.00,0.0229
870.00,0.0228
869.00,0.0221
868.00,0.0213
867.00,0.0208
866.00,0.0209
865.00,0.0212
864.00,0.0215
863.00,0.0216
862.00,0.0214
861.00,0.0212
860.00,0.0213
859.00,0.0218
858.00,0.0224
857.00,0.0226
856.00,0.0224
855.00,0.0218
854.00,0.0213
853.00,0.0214
852.00,0.0219
851.00,0.0224
850.00,0.0226
849.00,0.0223
848.00,0.0219
847.00,0.0216
846.00,0.0219
845.00,0.0228
844.00,0.0236
843.00,0.0240
842.00,0.0237
841.00,0.0232
840.00,0.0231
839.00,0.0235
838.00,0.0241
837.00,0.0245
836.00,0.0244
835.00,0.0237
834.00,0.0229
833.00,0.0225
832.00,0.0229
831.00,0.0238
830.00,0.0246
829.00,0.0248
828.00,0.0246
827.00,0.0245
826.00,0.0247
825.00,0.0253
824.00,0.0260
823.00,0.0263
822.00,0.0259
821.00,0.0251
820.00,0.0244
819.00,0.0242
818.00,0.0246
817.00,0.0252
816.00,0.0258
815.00,0.0260
814.00,0.0260
813.00,0.0259
812.00,0.0260
811.00,0.0263
810.00,0.0265
809.00,0.0264
808.00,0.0260
807.00,0.0254
806.00,0.0249
805.00,0.0249
804.00,0.0251
803.00,0.0257
802.00,0.0261
801.00,0.0265
800.00,0.0265
799.00,0.0265
798.00,0.0265
797.00,0.0268
796.00,0.0270
795.00,0.0271
794.00,0.0269
793.00,0.0266
792.00,0.0263
791.00,0.0262
790.00,0.0264
789.00,0.0268
788.00,0.0271
787.00,0.0272
786.00,0.0268
785.00,0.0264
784.00,0.0260
783.00,0.0260
782.00,0.0262
781.00,0.0266
780.00,0.0268
779.00,0.0268
778.00,0.0264
777.00,0.0260
776.00,0.0257
775.00,0.0258
774.00,0.0259
773.00,0.0258
772.00,0.0253
771.00,0.0248
770.00,0.0245
769.00,0.0248
768.00,0.0255
767.00,0.0263
766.00,0.0268
765.00,0.0266
764.00,0.0260
763.00,0.0254
762.00,0.0253
761.00,0.0256
760.00,0.0261
759.00,0.0264
758.00,0.0264
757.00,0.0260
756.00,0.0259
755.00,0.0261
754.00,0.0265
753.00,0.0268
752.00,0.0266
751.00,0.0260
750.00,0.0256
749.00,0.0256
748.00,0.0259
747.00,0.0264
746.00,0.0266
745.00,0.0263
744.00,0.0255
743.00,0.0249
742.00,0.0247
741.00,0.0250
740.00,0.0255
739.00,0.0257
738.00,0.0254
737.00,0.0250
736.00,0.0247
735.00,0.0247
734.00,0.0252
733.00,0.0258
732.00,0.0261
731.00,0.0260
730.00,0.0255
729.00,0.0251
728.00,0.0250
727.00,0.0252
726.00,0.0254
725.00,0.0255
724.00,0.0255
723.00,0.0255
722.00,0.0259
721.00,0.0265
720.00,0.0273
719.00,0.0280
718.00,0.0283
717.00,0.0282
716.00,0.0277
715.00,0.0270
714.00,0.0263
713.00,0.0259
712.00,0.0258
711.00,0.0259
710.00,0.0260
709.00,0.0259
708.00,0.0259
707.00,0.0262
706.00,0.0268
705.00,0.0276
704.00,0.0279
703.00,0.0276
702.00,0.0269
701.00,0.0261
700.00,0.0255
699.00,0.0253
698.00,0.0254
697.00,0.0256
696.00,0.0257
695.00,0.0257
694.00,0.0257
693.00,0.0261
692.00,0.0270
691.00,0.0281
690.00,0.0292
689.00,0.0297
688.00,0.0297
687.00,0.0291
686.00,0.0287
685.00,0.0286
684.00,0.0287
683.00,0.0284
682.00,0.0277
681.00,0.0266
680.00,0.0257
679.00,0.0254
678.00,0.0260
677.00,0.0274
676.00,0.0290
675.00,0.0299
674.00,0.0298
673.00,0.0292
672.00,0.0288
671.00,0.0288
670.00,0.0289
669.00,0.0282
668.00,0.0262
667.00,0.0247
666.00,0.0247
665.00,0.0256
664.00,0.0272
663.00,0.0294
662.00,0.0310
661.00,0.0313
660.00,0.0304
659.00,0.0296
658.00,0.0294
657.00,0.0298
656.00,0.0303
655.00,0.0298
654.00,0.0279
653.00,0.0252
652.00,0.0231
651.00,0.0228
650.00,0.0246
