Created as New Dataset,Monday, April 03 2023
cm-1,A
4000.00,0.0051
3999.00,0.0052
3998.00,0.0052
3997.00,0.0052
3996.00,0.0052
3995.00,0.0052
3994.00,0.0052
3993.00,0.0052
3992.00,0.0052
3991.00,0.0052
3990.00,0.0052
3989.00,0.0052
3988.00,0.0052
3987.00,0.0052
3986.00,0.0051
3985.00,0.0051
3984.00,0.0051
3983.00,0.0051
3982.00,0.0051
3981.00,0.0051
3980.00,0.0051
3979.00,0.0052
3978.00,0.0052
3977.00,0.0052
3976.00,0.0052
3975.00,0.0052
3974.00,0.0052
3973.00,0.0052
3972.00,0.0052
3971.00,0.0052
3970.00,0.0052
3969.00,0.0052
3968.00,0.0052
3967.00,0.0052
3966.00,0.0052
3965.00,0.0052
3964.00,0.0053
3963.00,0.0053
3962.00,0.0053
3961.00,0.0053
3960.00,0.0052
3959.00,0.0052
3958.00,0.0052
3957.00,0.0052
3956.00,0.0052
3955.00,0.0052
3954.00,0.0052
3953.00,0.0052
3952.00,0.0053
3951.00,0.0053
3950.00,0.0053
3949.00,0.0054
3948.00,0.0054
3947.00,0.0055
3946.00,0.0054
3945.00,0.0053
3944.00,0.0052
3943.00,0.0052
3942.00,0.0051
3941.00,0.0052
3940.00,0.0052
3939.00,0.0052
3938.00,0.0052
3937.00,0.0052
3936.00,0.0053
3935.00,0.0054
3934.00,0.0054
3933.00,0.0055
3932.00,0.0054
3931.00,0.0054
3930.00,0.0053
3929.00,0.0053
3928.00,0.0052
3927.00,0.0052
3926.00,0.0051
3925.00,0.0051
3924.00,0.0052
3923.00,0.0053
3922.00,0.0053
3921.00,0.0054
3920.00,0.0054
3919.00,0.0055
3918.00,0.0055
3917.00,0.0054
3916.00,0.0054
3915.00,0.0053
3914.00,0.0053
3913.00,0.0052
3912.00,0.0052
3911.00,0.0052
3910.00,0.0053
3909.00,0.0053
3908.00,0.0054
3907.00,0.0054
3906.00,0.0055
3905.00,0.0056
3904.00,0.0058
3903.00,0.0059
3902.00,0.0059
3901.00,0.0059
3900.00,0.0057
3899.00,0.0056
3898.00,0.0055
3897.00,0.0055
3896.00,0.0056
3895.00,0.0056
3894.00,0.0056
3893.00,0.0055
3892.00,0.0055
3891.00,0.0055
3890.00,0.0055
3889.00,0.0056
3888.00,0.0056
3887.00,0.0057
3886.00,0.0057
3885.00,0.0056
3884.00,0.0056
3883.00,0.0055
3882.00,0.0054
3881.00,0.0053
3880.00,0.0053
3879.00,0.0054
3878.00,0.0055
3877.00,0.0055
3876.00,0.0055
3875.00,0.0054
3874.00,0.0055
3873.00,0.0056
3872.00,0.0057
3871.00,0.0058
3870.00,0.0058
3869.00,0.0057
3868.00,0.0058
3867.00,0.0059
3866.00,0.0059
3865.00,0.0058
3864.00,0.0057
3863.00,0.0056
3862.00,0.0057
3861.00,0.0058
3860.00,0.0058
3859.00,0.0058
3858.00,0.0057
3857.00,0.0058
3856.00,0.0059
3855.00,0.0060
3854.00,0.0060
3853.00,0.0059
3852.00,0.0057
3851.00,0.0057
3850.00,0.0057
3849.00,0.0057
3848.00,0.0057
3847.00,0.0057
3846.00,0.0056
3845.00,0.0056
3844.00,0.0056
3843.00,0.0057
3842.00,0.0058
3841.00,0.0059
3840.00,0.0059
3839.00,0.0059
3838.00,0.0058
3837.00,0.0058
3836.00,0.0057
3835.00,0.0057
3834.00,0.0057
3833.00,0.0057
3832.00,0.0057
3831.00,0.0058
3830.00,0.0058
3829.00,0.0058
3828.00,0.0057
3827.00,0.0056
3826.00,0.0056
3825.00,0.0057
3824.00,0.0058
3823.00,0.0060
3822.00,0.0060
3821.00,0.0059
3820.00,0.0059
3819.00,0.0059
3818.00,0.0060
3817.00,0.0059
3816.00,0.0057
3815.00,0.0056
3814.00,0.0056
3813.00,0.0056
3812.00,0.0056
3811.00,0.0056
3810.00,0.0055
3809.00,0.0056
3808.00,0.0057
3807.00,0.0058
3806.00,0.0058
3805.00,0.0059
3804.00,0.0059
3803.00,0.0059
3802.00,0.0059
3801.00,0.0057
3800.00,0.0057
3799.00,0.0057
3798.00,0.0057
3797.00,0.0057
3796.00,0.0056
3795.00,0.0056
3794.00,0.0056
3793.00,0.0056
3792.00,0.0055
3791.00,0.0054
3790.00,0.0054
3789.00,0.0055
3788.00,0.0055
3787.00,0.0056
3786.00,0.0056
3785.00,0.0056
3784.00,0.0056
3783.00,0.0056
3782.00,0.0056
3781.00,0.0055
3780.00,0.0054
3779.00,0.0054
3778.00,0.0054
3777.00,0.0055
3776.00,0.0056
3775.00,0.0056
3774.00,0.0057
3773.00,0.0057
3772.00,0.0058
3771.00,0.0058
3770.00,0.0058
3769.00,0.0058
3768.00,0.0058
3767.00,0.0058
3766.00,0.0058
3765.00,0.0058
3764.00,0.0059
3763.00,0.0059
3762.00,0.0060
3761.00,0.0059
3760.00,0.0059
3759.00,0.0059
3758.00,0.0060
3757.00,0.0061
3756.00,0.0062
3755.00,0.0062
3754.00,0.0064
3753.00,0.0065
3752.00,0.0067
3751.00,0.0069
3750.00,0.0070
3749.00,0.0069
3748.00,0.0067
3747.00,0.0066
3746.00,0.0065
3745.00,0.0064
3744.00,0.0064
3743.00,0.0063
3742.00,0.0064
3741.00,0.0065
3740.00,0.0065
3739.00,0.0065
3738.00,0.0065
3737.00,0.0066
3736.00,0.0065
3735.00,0.0063
3734.00,0.0063
3733.00,0.0063
3732.00,0.0063
3731.00,0.0062
3730.00,0.0061
3729.00,0.0061
3728.00,0.0062
3727.00,0.0062
3726.00,0.0061
3725.00,0.0061
3724.00,0.0060
3723.00,0.0060
3722.00,0.0059
3721.00,0.0058
3720.00,0.0058
3719.00,0.0058
3718.00,0.0058
3717.00,0.0059
3716.00,0.0060
3715.00,0.0061
3714.00,0.0061
3713.00,0.0061
3712.00,0.0060
3711.00,0.0059
3710.00,0.0059
3709.00,0.0059
3708.00,0.0059
3707.00,0.0059
3706.00,0.0058
3705.00,0.0057
3704.00,0.0056
3703.00,0.0055
3702.00,0.0055
3701.00,0.0055
3700.00,0.0056
3699.00,0.0057
3698.00,0.0058
3697.00,0.0058
3696.00,0.0057
3695.00,0.0057
3694.00,0.0058
3693.00,0.0058
3692.00,0.0058
3691.00,0.0059
3690.00,0.0059
3689.00,0.0059
3688.00,0.0060
3687.00,0.0060
3686.00,0.0060
3685.00,0.0060
3684.00,0.0061
3683.00,0.0060
3682.00,0.0060
3681.00,0.0060
3680.00,0.0059
3679.00,0.0059
3678.00,0.0060
3677.00,0.0061
3676.00,0.0062
3675.00,0.0062
3674.00,0.0063
3673.00,0.0065
3672.00,0.0065
3671.00,0.0064
3670.00,0.0061
3669.00,0.0060
3668.00,0.0060
3667.00,0.0060
3666.00,0.0060
3665.00,0.0060
3664.00,0.0060
3663.00,0.0060
3662.00,0.0060
3661.00,0.0059
3660.00,0.0059
3659.00,0.0060
3658.00,0.0060
3657.00,0.0061
3656.00,0.0062
3655.00,0.0062
3654.00,0.0062
3653.00,0.0062
3652.00,0.0063
3651.00,0.0065
3650.00,0.0067
3649.00,0.0067
3648.00,0.0065
3647.00,0.0064
3646.00,0.0063
3645.00,0.0063
3644.00,0.0063
3643.00,0.0062
3642.00,0.0061
3641.00,0.0061
3640.00,0.0061
3639.00,0.0061
3638.00,0.0060
3637.00,0.0061
3636.00,0.0061
3635.00,0.0062
3634.00,0.0062
3633.00,0.0063
3632.00,0.0064
3631.00,0.0066
3630.00,0.0068
3629.00,0.0069
3628.00,0.0068
3627.00,0.0068
3626.00,0.0067
3625.00,0.0067
3624.00,0.0066
3623.00,0.0066
3622.00,0.0066
3621.00,0.0066
3620.00,0.0066
3619.00,0.0066
3618.00,0.0067
3617.00,0.0068
3616.00,0.0069
3615.00,0.0069
3614.00,0.0069
3613.00,0.0069
3612.00,0.0070
3611.00,0.0070
3610.00,0.0071
3609.00,0.0070
3608.00,0.0068
3607.00,0.0067
3606.00,0.0066
3605.00,0.0066
3604.00,0.0066
3603.00,0.0065
3602.00,0.0064
3601.00,0.0064
3600.00,0.0065
3599.00,0.0065
3598.00,0.0065
3597.00,0.0065
3596.00,0.0065
3595.00,0.0065
3594.00,0.0066
3593.00,0.0067
3592.00,0.0068
3591.00,0.0069
3590.00,0.0069
3589.00,0.0068
3588.00,0.0067
3587.00,0.0066
3586.00,0.0066
3585.00,0.0066
3584.00,0.0066
3583.00,0.0066
3582.00,0.0065
3581.00,0.0065
3580.00,0.0065
3579.00,0.0065
3578.00,0.0065
3577.00,0.0065
3576.00,0.0065
3575.00,0.0065
3574.00,0.0065
3573.00,0.0066
3572.00,0.0066
3571.00,0.0066
3570.00,0.0067
3569.00,0.0067
3568.00,0.0068
3567.00,0.0068
3566.00,0.0068
3565.00,0.0068
3564.00,0.0068
3563.00,0.0068
3562.00,0.0067
3561.00,0.0066
3560.00,0.0065
3559.00,0.0065
3558.00,0.0065
3557.00,0.0066
3556.00,0.0066
3555.00,0.0066
3554.00,0.0066
3553.00,0.0067
3552.00,0.0067
3551.00,0.0067
3550.00,0.0068
3549.00,0.0069
3548.00,0.0070
3547.00,0.0070
3546.00,0.0070
3545.00,0.0070
3544.00,0.0069
3543.00,0.0069
3542.00,0.0068
3541.00,0.0067
3540.00,0.0067
3539.00,0.0067
3538.00,0.0066
3537.00,0.0066
3536.00,0.0067
3535.00,0.0067
3534.00,0.0068
3533.00,0.0068
3532.00,0.0068
3531.00,0.0068
3530.00,0.0068
3529.00,0.0068
3528.00,0.0068
3527.00,0.0069
3526.00,0.0069
3525.00,0.0069
3524.00,0.0069
3523.00,0.0069
3522.00,0.0069
3521.00,0.0069
3520.00,0.0068
3519.00,0.0068
3518.00,0.0068
3517.00,0.0068
3516.00,0.0068
3515.00,0.0068
3514.00,0.0067
3513.00,0.0067
3512.00,0.0067
3511.00,0.0067
3510.00,0.0067
3509.00,0.0068
3508.00,0.0069
3507.00,0.0069
3506.00,0.0070
3505.00,0.0070
3504.00,0.0070
3503.00,0.0070
3502.00,0.0070
3501.00,0.0070
3500.00,0.0069
3499.00,0.0069
3498.00,0.0069
3497.00,0.0069
3496.00,0.0069
3495.00,0.0069
3494.00,0.0069
3493.00,0.0069
3492.00,0.0069
3491.00,0.0069
3490.00,0.0069
3489.00,0.0069
3488.00,0.0069
3487.00,0.0070
3486.00,0.0070
3485.00,0.0070
3484.00,0.0069
3483.00,0.0069
3482.00,0.0069
3481.00,0.0069
3480.00,0.0069
3479.00,0.0069
3478.00,0.0069
3477.00,0.0069
3476.00,0.0069
3475.00,0.0069
3474.00,0.0068
3473.00,0.0068
3472.00,0.0068
3471.00,0.0068
3470.00,0.0068
3469.00,0.0068
3468.00,0.0069
3467.00,0.0069
3466.00,0.0069
3465.00,0.0069
3464.00,0.0069
3463.00,0.0069
3462.00,0.0069
3461.00,0.0069
3460.00,0.0069
3459.00,0.0068
3458.00,0.0068
3457.00,0.0068
3456.00,0.0068
3455.00,0.0068
3454.00,0.0068
3453.00,0.0069
3452.00,0.0069
3451.00,0.0070
3450.00,0.0070
3449.00,0.0070
3448.00,0.0070
3447.00,0.0070
3446.00,0.0070
3445.00,0.0070
3444.00,0.0070
3443.00,0.0070
3442.00,0.0069
3441.00,0.0069
3440.00,0.0069
3439.00,0.0069
3438.00,0.0069
3437.00,0.0069
3436.00,0.0070
3435.00,0.0070
3434.00,0.0070
3433.00,0.0070
3432.00,0.0070
3431.00,0.0070
3430.00,0.0069
3429.00,0.0069
3428.00,0.0069
3427.00,0.0069
3426.00,0.0070
3425.00,0.0070
3424.00,0.0070
3423.00,0.0070
3422.00,0.0070
3421.00,0.0070
3420.00,0.0071
3419.00,0.0071
3418.00,0.0070
3417.00,0.0070
3416.00,0.0070
3415.00,0.0069
3414.00,0.0070
3413.00,0.0070
3412.00,0.0070
3411.00,0.0070
3410.00,0.0070
3409.00,0.0069
3408.00,0.0070
3407.00,0.0070
3406.00,0.0070
3405.00,0.0070
3404.00,0.0070
3403.00,0.0070
3402.00,0.0070
3401.00,0.0070
3400.00,0.0070
3399.00,0.0070
3398.00,0.0070
3397.00,0.0070
3396.00,0.0070
3395.00,0.0071
3394.00,0.0071
3393.00,0.0071
3392.00,0.0071
3391.00,0.0071
3390.00,0.0071
3389.00,0.0071
3388.00,0.0071
3387.00,0.0070
3386.00,0.0070
3385.00,0.0070
3384.00,0.0070
3383.00,0.0070
3382.00,0.0070
3381.00,0.0070
3380.00,0.0070
3379.00,0.0070
3378.00,0.0071
3377.00,0.0071
3376.00,0.0072
3375.00,0.0072
3374.00,0.0071
3373.00,0.0071
3372.00,0.0071
3371.00,0.0070
3370.00,0.0070
3369.00,0.0070
3368.00,0.0070
3367.00,0.0071
3366.00,0.0071
3365.00,0.0071
3364.00,0.0071
3363.00,0.0071
3362.00,0.0071
3361.00,0.0071
3360.00,0.0071
3359.00,0.0071
3358.00,0.0071
3357.00,0.0071
3356.00,0.0071
3355.00,0.0070
3354.00,0.0070
3353.00,0.0070
3352.00,0.0071
3351.00,0.0071
3350.00,0.0071
3349.00,0.0071
3348.00,0.0071
3347.00,0.0071
3346.00,0.0071
3345.00,0.0071
3344.00,0.0071
3343.00,0.0071
3342.00,0.0072
3341.00,0.0072
3340.00,0.0072
3339.00,0.0071
3338.00,0.0071
3337.00,0.0071
3336.00,0.0071
3335.00,0.0071
3334.00,0.0071
3333.00,0.0071
3332.00,0.0072
3331.00,0.0072
3330.00,0.0072
3329.00,0.0072
3328.00,0.0072
3327.00,0.0072
3326.00,0.0072
3325.00,0.0071
3324.00,0.0071
3323.00,0.0071
3322.00,0.0071
3321.00,0.0072
3320.00,0.0072
3319.00,0.0073
3318.00,0.0073
3317.00,0.0073
3316.00,0.0072
3315.00,0.0072
3314.00,0.0072
3313.00,0.0072
3312.00,0.0072
3311.00,0.0071
3310.00,0.0071
3309.00,0.0071
3308.00,0.0072
3307.00,0.0072
3306.00,0.0072
3305.00,0.0072
3304.00,0.0071
3303.00,0.0071
3302.00,0.0071
3301.00,0.0072
3300.00,0.0072
3299.00,0.0073
3298.00,0.0073
3297.00,0.0073
3296.00,0.0073
3295.00,0.0073
3294.00,0.0073
3293.00,0.0073
3292.00,0.0073
3291.00,0.0073
3290.00,0.0073
3289.00,0.0072
3288.00,0.0072
3287.00,0.0072
3286.00,0.0072
3285.00,0.0072
3284.00,0.0072
3283.00,0.0072
3282.00,0.0071
3281.00,0.0071
3280.00,0.0072
3279.00,0.0072
3278.00,0.0072
3277.00,0.0073
3276.00,0.0073
3275.00,0.0073
3274.00,0.0073
3273.00,0.0073
3272.00,0.0073
3271.00,0.0073
3270.00,0.0073
3269.00,0.0073
3268.00,0.0073
3267.00,0.0073
3266.00,0.0073
3265.00,0.0073
3264.00,0.0073
3263.00,0.0072
3262.00,0.0072
3261.00,0.0072
3260.00,0.0072
3259.00,0.0072
3258.00,0.0072
3257.00,0.0072
3256.00,0.0072
3255.00,0.0073
3254.00,0.0073
3253.00,0.0073
3252.00,0.0073
3251.00,0.0073
3250.00,0.0073
3249.00,0.0074
3248.00,0.0074
3247.00,0.0074
3246.00,0.0074
3245.00,0.0073
3244.00,0.0073
3243.00,0.0073
3242.00,0.0073
3241.00,0.0073
3240.00,0.0073
3239.00,0.0073
3238.00,0.0073
3237.00,0.0073
3236.00,0.0074
3235.00,0.0074
3234.00,0.0074
3233.00,0.0074
3232.00,0.0074
3231.00,0.0073
3230.00,0.0073
3229.00,0.0073
3228.00,0.0073
3227.00,0.0073
3226.00,0.0074
3225.00,0.0074
3224.00,0.0073
3223.00,0.0073
3222.00,0.0073
3221.00,0.0073
3220.00,0.0073
3219.00,0.0073
3218.00,0.0073
3217.00,0.0073
3216.00,0.0073
3215.00,0.0073
3214.00,0.0073
3213.00,0.0073
3212.00,0.0073
3211.00,0.0073
3210.00,0.0073
3209.00,0.0073
3208.00,0.0073
3207.00,0.0073
3206.00,0.0073
3205.00,0.0073
3204.00,0.0073
3203.00,0.0073
3202.00,0.0073
3201.00,0.0074
3200.00,0.0074
3199.00,0.0074
3198.00,0.0074
3197.00,0.0074
3196.00,0.0074
3195.00,0.0073
3194.00,0.0073
3193.00,0.0073
3192.00,0.0073
3191.00,0.0073
3190.00,0.0073
3189.00,0.0073
3188.00,0.0073
3187.00,0.0073
3186.00,0.0073
3185.00,0.0073
3184.00,0.0073
3183.00,0.0073
3182.00,0.0073
3181.00,0.0073
3180.00,0.0073
3179.00,0.0073
3178.00,0.0073
3177.00,0.0073
3176.00,0.0073
3175.00,0.0073
3174.00,0.0073
3173.00,0.0073
3172.00,0.0073
3171.00,0.0073
3170.00,0.0073
3169.00,0.0074
3168.00,0.0074
3167.00,0.0074
3166.00,0.0073
3165.00,0.0073
3164.00,0.0073
3163.00,0.0073
3162.00,0.0073
3161.00,0.0073
3160.00,0.0073
3159.00,0.0073
3158.00,0.0073
3157.00,0.0073
3156.00,0.0073
3155.00,0.0073
3154.00,0.0072
3153.00,0.0072
3152.00,0.0072
3151.00,0.0072
3150.00,0.0073
3149.00,0.0073
3148.00,0.0073
3147.00,0.0073
3146.00,0.0073
3145.00,0.0073
3144.00,0.0073
3143.00,0.0073
3142.00,0.0073
3141.00,0.0073
3140.00,0.0073
3139.00,0.0073
3138.00,0.0073
3137.00,0.0073
3136.00,0.0073
3135.00,0.0073
3134.00,0.0072
3133.00,0.0072
3132.00,0.0072
3131.00,0.0073
3130.00,0.0073
3129.00,0.0073
3128.00,0.0073
3127.00,0.0073
3126.00,0.0072
3125.00,0.0072
3124.00,0.0072
3123.00,0.0072
3122.00,0.0073
3121.00,0.0073
3120.00,0.0073
3119.00,0.0073
3118.00,0.0073
3117.00,0.0073
3116.00,0.0073
3115.00,0.0072
3114.00,0.0072
3113.00,0.0072
3112.00,0.0072
3111.00,0.0072
3110.00,0.0072
3109.00,0.0072
3108.00,0.0072
3107.00,0.0072
3106.00,0.0072
3105.00,0.0072
3104.00,0.0072
3103.00,0.0073
3102.00,0.0073
3101.00,0.0073
3100.00,0.0073
3099.00,0.0072
3098.00,0.0072
3097.00,0.0071
3096.00,0.0071
3095.00,0.0071
3094.00,0.0071
3093.00,0.0072
3092.00,0.0072
3091.00,0.0072
3090.00,0.0072
3089.00,0.0073
3088.00,0.0073
3087.00,0.0073
3086.00,0.0073
3085.00,0.0073
3084.00,0.0072
3083.00,0.0072
3082.00,0.0072
3081.00,0.0072
3080.00,0.0072
3079.00,0.0073
3078.00,0.0073
3077.00,0.0072
3076.00,0.0072
3075.00,0.0072
3074.00,0.0071
3073.00,0.0071
3072.00,0.0071
3071.00,0.0071
3070.00,0.0071
3069.00,0.0071
3068.00,0.0071
3067.00,0.0071
3066.00,0.0071
3065.00,0.0071
3064.00,0.0071
3063.00,0.0071
3062.00,0.0071
3061.00,0.0071
3060.00,0.0072
3059.00,0.0072
3058.00,0.0071
3057.00,0.0071
3056.00,0.0071
3055.00,0.0070
3054.00,0.0070
3053.00,0.0070
3052.00,0.0070
3051.00,0.0070
3050.00,0.0070
3049.00,0.0071
3048.00,0.0071
3047.00,0.0071
3046.00,0.0071
3045.00,0.0071
3044.00,0.0071
3043.00,0.0071
3042.00,0.0071
3041.00,0.0071
3040.00,0.0071
3039.00,0.0070
3038.00,0.0070
3037.00,0.0070
3036.00,0.0070
3035.00,0.0071
3034.00,0.0071
3033.00,0.0070
3032.00,0.0070
3031.00,0.0070
3030.00,0.0069
3029.00,0.0069
3028.00,0.0069
3027.00,0.0069
3026.00,0.0069
3025.00,0.0069
3024.00,0.0069
3023.00,0.0069
3022.00,0.0069
3021.00,0.0069
3020.00,0.0069
3019.00,0.0069
3018.00,0.0069
3017.00,0.0069
3016.00,0.0069
3015.00,0.0069
3014.00,0.0069
3013.00,0.0069
3012.00,0.0068
3011.00,0.0068
3010.00,0.0067
3009.00,0.0066
3008.00,0.0066
3007.00,0.0066
3006.00,0.0066
3005.00,0.0066
3004.00,0.0066
3003.00,0.0065
3002.00,0.0065
3001.00,0.0065
3000.00,0.0064
2999.00,0.0064
2998.00,0.0064
2997.00,0.0064
2996.00,0.0064
2995.00,0.0064
2994.00,0.0064
2993.00,0.0064
2992.00,0.0063
2991.00,0.0063
2990.00,0.0062
2989.00,0.0062
2988.00,0.0062
2987.00,0.0061
2986.00,0.0061
2985.00,0.0060
2984.00,0.0059
2983.00,0.0058
2982.00,0.0057
2981.00,0.0057
2980.00,0.0057
2979.00,0.0057
2978.00,0.0057
2977.00,0.0058
2976.00,0.0058
2975.00,0.0058
2974.00,0.0058
2973.00,0.0057
2972.00,0.0057
2971.00,0.0056
2970.00,0.0056
2969.00,0.0056
2968.00,0.0056
2967.00,0.0055
2966.00,0.0055
2965.00,0.0054
2964.00,0.0054
2963.00,0.0054
2962.00,0.0054
2961.00,0.0053
2960.00,0.0053
2959.00,0.0053
2958.00,0.0053
2957.00,0.0053
2956.00,0.0053
2955.00,0.0053
2954.00,0.0053
2953.00,0.0054
2952.00,0.0054
2951.00,0.0054
2950.00,0.0055
2949.00,0.0055
2948.00,0.0054
2947.00,0.0054
2946.00,0.0053
2945.00,0.0053
2944.00,0.0053
2943.00,0.0053
2942.00,0.0052
2941.00,0.0051
2940.00,0.0050
2939.00,0.0049
2938.00,0.0048
2937.00,0.0048
2936.00,0.0047
2935.00,0.0046
2934.00,0.0045
2933.00,0.0044
2932.00,0.0042
2931.00,0.0041
2930.00,0.0039
2929.00,0.0038
2928.00,0.0037
2927.00,0.0036
2926.00,0.0036
2925.00,0.0036
2924.00,0.0035
2923.00,0.0035
2922.00,0.0035
2921.00,0.0035
2920.00,0.0035
2919.00,0.0036
2918.00,0.0036
2917.00,0.0036
2916.00,0.0037
2915.00,0.0039
2914.00,0.0041
2913.00,0.0043
2912.00,0.0045
2911.00,0.0046
2910.00,0.0047
2909.00,0.0047
2908.00,0.0048
2907.00,0.0049
2906.00,0.0050
2905.00,0.0051
2904.00,0.0051
2903.00,0.0052
2902.00,0.0052
2901.00,0.0053
2900.00,0.0053
2899.00,0.0053
2898.00,0.0053
2897.00,0.0054
2896.00,0.0054
2895.00,0.0054
2894.00,0.0054
2893.00,0.0054
2892.00,0.0054
2891.00,0.0054
2890.00,0.0055
2889.00,0.0055
2888.00,0.0055
2887.00,0.0055
2886.00,0.0056
2885.00,0.0056
2884.00,0.0056
2883.00,0.0056
2882.00,0.0056
2881.00,0.0056
2880.00,0.0056
2879.00,0.0056
2878.00,0.0056
2877.00,0.0056
2876.00,0.0056
2875.00,0.0056
2874.00,0.0056
2873.00,0.0055
2872.00,0.0055
2871.00,0.0055
2870.00,0.0055
2869.00,0.0054
2868.00,0.0054
2867.00,0.0054
2866.00,0.0053
2865.00,0.0053
2864.00,0.0053
2863.00,0.0052
2862.00,0.0052
2861.00,0.0051
2860.00,0.0051
2859.00,0.0050
2858.00,0.0049
2857.00,0.0048
2856.00,0.0047
2855.00,0.0046
2854.00,0.0046
2853.00,0.0046
2852.00,0.0046
2851.00,0.0047
2850.00,0.0047
2849.00,0.0048
2848.00,0.0049
2847.00,0.0051
2846.00,0.0052
2845.00,0.0053
2844.00,0.0054
2843.00,0.0055
2842.00,0.0056
2841.00,0.0057
2840.00,0.0058
2839.00,0.0058
2838.00,0.0059
2837.00,0.0059
2836.00,0.0059
2835.00,0.0059
2834.00,0.0059
2833.00,0.0059
2832.00,0.0060
2831.00,0.0060
2830.00,0.0060
2829.00,0.0060
2828.00,0.0060
2827.00,0.0060
2826.00,0.0060
2825.00,0.0060
2824.00,0.0061
2823.00,0.0061
2822.00,0.0061
2821.00,0.0061
2820.00,0.0061
2819.00,0.0061
2818.00,0.0061
2817.00,0.0061
2816.00,0.0061
2815.00,0.0060
2814.00,0.0060
2813.00,0.0061
2812.00,0.0061
2811.00,0.0061
2810.00,0.0061
2809.00,0.0060
2808.00,0.0060
2807.00,0.0060
2806.00,0.0060
2805.00,0.0060
2804.00,0.0060
2803.00,0.0060
2802.00,0.0060
2801.00,0.0060
2800.00,0.0060
2799.00,0.0060
2798.00,0.0060
2797.00,0.0060
2796.00,0.0060
2795.00,0.0060
2794.00,0.0061
2793.00,0.0060
2792.00,0.0060
2791.00,0.0060
2790.00,0.0060
2789.00,0.0060
2788.00,0.0060
2787.00,0.0060
2786.00,0.0060
2785.00,0.0060
2784.00,0.0060
2783.00,0.0060
2782.00,0.0060
2781.00,0.0060
2780.00,0.0060
2779.00,0.0060
2778.00,0.0060
2777.00,0.0060
2776.00,0.0060
2775.00,0.0060
2774.00,0.0059
2773.00,0.0059
2772.00,0.0059
2771.00,0.0060
2770.00,0.0060
2769.00,0.0060
2768.00,0.0060
2767.00,0.0060
2766.00,0.0060
2765.00,0.0060
2764.00,0.0060
2763.00,0.0059
2762.00,0.0059
2761.00,0.0059
2760.00,0.0059
2759.00,0.0059
2758.00,0.0059
2757.00,0.0059
2756.00,0.0060
2755.00,0.0060
2754.00,0.0060
2753.00,0.0060
2752.00,0.0059
2751.00,0.0059
2750.00,0.0059
2749.00,0.0060
2748.00,0.0060
2747.00,0.0060
2746.00,0.0060
2745.00,0.0059
2744.00,0.0059
2743.00,0.0059
2742.00,0.0059
2741.00,0.0059
2740.00,0.0059
2739.00,0.0059
2738.00,0.0059
2737.00,0.0058
2736.00,0.0058
2735.00,0.0058
2734.00,0.0058
2733.00,0.0058
2732.00,0.0058
2731.00,0.0058
2730.00,0.0058
2729.00,0.0058
2728.00,0.0058
2727.00,0.0058
2726.00,0.0058
2725.00,0.0058
2724.00,0.0058
2723.00,0.0058
2722.00,0.0058
2721.00,0.0058
2720.00,0.0059
2719.00,0.0059
2718.00,0.0059
2717.00,0.0059
2716.00,0.0059
2715.00,0.0059
2714.00,0.0059
2713.00,0.0059
2712.00,0.0059
2711.00,0.0059
2710.00,0.0059
2709.00,0.0058
2708.00,0.0058
2707.00,0.0058
2706.00,0.0059
2705.00,0.0059
2704.00,0.0058
2703.00,0.0058
2702.00,0.0058
2701.00,0.0058
2700.00,0.0058
2699.00,0.0058
2698.00,0.0058
2697.00,0.0058
2696.00,0.0058
2695.00,0.0059
2694.00,0.0059
2693.00,0.0058
2692.00,0.0058
2691.00,0.0058
2690.00,0.0058
2689.00,0.0057
2688.00,0.0058
2687.00,0.0058
2686.00,0.0058
2685.00,0.0058
2684.00,0.0058
2683.00,0.0059
2682.00,0.0059
2681.00,0.0059
2680.00,0.0059
2679.00,0.0058
2678.00,0.0058
2677.00,0.0058
2676.00,0.0058
2675.00,0.0057
2674.00,0.0058
2673.00,0.0058
2672.00,0.0058
2671.00,0.0058
2670.00,0.0058
2669.00,0.0058
2668.00,0.0058
2667.00,0.0058
2666.00,0.0059
2665.00,0.0059
2664.00,0.0059
2663.00,0.0059
2662.00,0.0059
2661.00,0.0059
2660.00,0.0059
2659.00,0.0059
2658.00,0.0059
2657.00,0.0059
2656.00,0.0060
2655.00,0.0060
2654.00,0.0060
2653.00,0.0060
2652.00,0.0060
2651.00,0.0060
2650.00,0.0060
2649.00,0.0060
2648.00,0.0060
2647.00,0.0060
2646.00,0.0060
2645.00,0.0060
2644.00,0.0060
2643.00,0.0060
2642.00,0.0060
2641.00,0.0060
2640.00,0.0060
2639.00,0.0060
2638.00,0.0060
2637.00,0.0060
2636.00,0.0060
2635.00,0.0060
2634.00,0.0060
2633.00,0.0060
2632.00,0.0060
2631.00,0.0060
2630.00,0.0060
2629.00,0.0060
2628.00,0.0061
2627.00,0.0061
2626.00,0.0061
2625.00,0.0060
2624.00,0.0060
2623.00,0.0060
2622.00,0.0060
2621.00,0.0060
2620.00,0.0060
2619.00,0.0060
2618.00,0.0060
2617.00,0.0060
2616.00,0.0060
2615.00,0.0060
2614.00,0.0060
2613.00,0.0060
2612.00,0.0060
2611.00,0.0060
2610.00,0.0060
2609.00,0.0061
2608.00,0.0061
2607.00,0.0061
2606.00,0.0062
2605.00,0.0062
2604.00,0.0061
2603.00,0.0061
2602.00,0.0061
2601.00,0.0061
2600.00,0.0061
2599.00,0.0061
2598.00,0.0061
2597.00,0.0061
2596.00,0.0060
2595.00,0.0060
2594.00,0.0061
2593.00,0.0061
2592.00,0.0061
2591.00,0.0062
2590.00,0.0062
2589.00,0.0062
2588.00,0.0061
2587.00,0.0061
2586.00,0.0061
2585.00,0.0060
2584.00,0.0060
2583.00,0.0061
2582.00,0.0061
2581.00,0.0061
2580.00,0.0061
2579.00,0.0061
2578.00,0.0061
2577.00,0.0061
2576.00,0.0061
2575.00,0.0061
2574.00,0.0061
2573.00,0.0061
2572.00,0.0061
2571.00,0.0061
2570.00,0.0061
2569.00,0.0061
2568.00,0.0061
2567.00,0.0061
2566.00,0.0062
2565.00,0.0062
2564.00,0.0062
2563.00,0.0062
2562.00,0.0062
2561.00,0.0061
2560.00,0.0061
2559.00,0.0060
2558.00,0.0060
2557.00,0.0060
2556.00,0.0061
2555.00,0.0061
2554.00,0.0061
2553.00,0.0061
2552.00,0.0061
2551.00,0.0061
2550.00,0.0062
2549.00,0.0062
2548.00,0.0062
2547.00,0.0062
2546.00,0.0062
2545.00,0.0061
2544.00,0.0060
2543.00,0.0060
2542.00,0.0060
2541.00,0.0060
2540.00,0.0061
2539.00,0.0061
2538.00,0.0061
2537.00,0.0061
2536.00,0.0061
2535.00,0.0061
2534.00,0.0061
2533.00,0.0061
2532.00,0.0060
2531.00,0.0060
2530.00,0.0060
2529.00,0.0061
2528.00,0.0061
2527.00,0.0061
2526.00,0.0061
2525.00,0.0062
2524.00,0.0062
2523.00,0.0062
2522.00,0.0062
2521.00,0.0062
2520.00,0.0061
2519.00,0.0061
2518.00,0.0061
2517.00,0.0061
2516.00,0.0061
2515.00,0.0061
2514.00,0.0062
2513.00,0.0061
2512.00,0.0061
2511.00,0.0061
2510.00,0.0060
2509.00,0.0060
2508.00,0.0060
2507.00,0.0060
2506.00,0.0061
2505.00,0.0061
2504.00,0.0061
2503.00,0.0061
2502.00,0.0061
2501.00,0.0060
2500.00,0.0060
2499.00,0.0060
2498.00,0.0061
2497.00,0.0061
2496.00,0.0062
2495.00,0.0062
2494.00,0.0062
2493.00,0.0063
2492.00,0.0063
2491.00,0.0063
2490.00,0.0063
2489.00,0.0063
2488.00,0.0063
2487.00,0.0062
2486.00,0.0062
2485.00,0.0062
2484.00,0.0061
2483.00,0.0061
2482.00,0.0061
2481.00,0.0061
2480.00,0.0062
2479.00,0.0062
2478.00,0.0062
2477.00,0.0062
2476.00,0.0062
2475.00,0.0062
2474.00,0.0061
2473.00,0.0061
2472.00,0.0061
2471.00,0.0061
2470.00,0.0062
2469.00,0.0062
2468.00,0.0062
2467.00,0.0062
2466.00,0.0062
2465.00,0.0063
2464.00,0.0063
2463.00,0.0063
2462.00,0.0063
2461.00,0.0063
2460.00,0.0063
2459.00,0.0062
2458.00,0.0062
2457.00,0.0061
2456.00,0.0061
2455.00,0.0061
2454.00,0.0062
2453.00,0.0062
2452.00,0.0062
2451.00,0.0063
2450.00,0.0063
2449.00,0.0062
2448.00,0.0062
2447.00,0.0062
2446.00,0.0062
2445.00,0.0062
2444.00,0.0062
2443.00,0.0062
2442.00,0.0062
2441.00,0.0062
2440.00,0.0061
2439.00,0.0061
2438.00,0.0061
2437.00,0.0061
2436.00,0.0061
2435.00,0.0061
2434.00,0.0061
2433.00,0.0062
2432.00,0.0062
2431.00,0.0062
2430.00,0.0061
2429.00,0.0061
2428.00,0.0061
2427.00,0.0062
2426.00,0.0062
2425.00,0.0062
2424.00,0.0062
2423.00,0.0061
2422.00,0.0060
2421.00,0.0060
2420.00,0.0060
2419.00,0.0060
2418.00,0.0061
2417.00,0.0061
2416.00,0.0060
2415.00,0.0060
2414.00,0.0060
2413.00,0.0061
2412.00,0.0061
2411.00,0.0061
2410.00,0.0060
2409.00,0.0060
2408.00,0.0060
2407.00,0.0061
2406.00,0.0061
2405.00,0.0061
2404.00,0.0061
2403.00,0.0060
2402.00,0.0060
2401.00,0.0060
2400.00,0.0060
2399.00,0.0060
2398.00,0.0060
2397.00,0.0061
2396.00,0.0061
2395.00,0.0061
2394.00,0.0061
2393.00,0.0060
2392.00,0.0060
2391.00,0.0060
2390.00,0.0060
2389.00,0.0060
2388.00,0.0060
2387.00,0.0060
2386.00,0.0060
2385.00,0.0060
2384.00,0.0060
2383.00,0.0060
2382.00,0.0059
2381.00,0.0059
2380.00,0.0058
2379.00,0.0057
2378.00,0.0057
2377.00,0.0058
2376.00,0.0058
2375.00,0.0059
2374.00,0.0060
2373.00,0.0059
2372.00,0.0059
2371.00,0.0058
2370.00,0.0058
2369.00,0.0057
2368.00,0.0057
2367.00,0.0056
2366.00,0.0056
2365.00,0.0056
2364.00,0.0056
2363.00,0.0056
2362.00,0.0056
2361.00,0.0057
2360.00,0.0057
2359.00,0.0057
2358.00,0.0057
2357.00,0.0057
2356.00,0.0057
2355.00,0.0058
2354.00,0.0059
2353.00,0.0059
2352.00,0.0061
2351.00,0.0063
2350.00,0.0063
2349.00,0.0059
2348.00,0.0052
2347.00,0.0044
2346.00,0.0041
2345.00,0.0042
2344.00,0.0046
2343.00,0.0050
2342.00,0.0054
2341.00,0.0057
2340.00,0.0060
2339.00,0.0061
2338.00,0.0061
2337.00,0.0061
2336.00,0.0061
2335.00,0.0061
2334.00,0.0062
2333.00,0.0062
2332.00,0.0062
2331.00,0.0063
2330.00,0.0064
2329.00,0.0066
2328.00,0.0069
2327.00,0.0071
2326.00,0.0072
2325.00,0.0072
2324.00,0.0071
2323.00,0.0071
2322.00,0.0072
2321.00,0.0073
2320.00,0.0073
2319.00,0.0073
2318.00,0.0072
2317.00,0.0071
2316.00,0.0070
2315.00,0.0068
2314.00,0.0066
2313.00,0.0065
2312.00,0.0065
2311.00,0.0066
2310.00,0.0066
2309.00,0.0066
2308.00,0.0066
2307.00,0.0066
2306.00,0.0066
2305.00,0.0065
2304.00,0.0064
2303.00,0.0064
2302.00,0.0063
2301.00,0.0063
2300.00,0.0063
2299.00,0.0063
2298.00,0.0063
2297.00,0.0062
2296.00,0.0062
2295.00,0.0062
2294.00,0.0063
2293.00,0.0063
2292.00,0.0063
2291.00,0.0063
2290.00,0.0064
2289.00,0.0065
2288.00,0.0066
2287.00,0.0067
2286.00,0.0067
2285.00,0.0066
2284.00,0.0065
2283.00,0.0064
2282.00,0.0064
2281.00,0.0063
2280.00,0.0063
2279.00,0.0063
2278.00,0.0062
2277.00,0.0061
2276.00,0.0061
2275.00,0.0060
2274.00,0.0060
2273.00,0.0060
2272.00,0.0060
2271.00,0.0061
2270.00,0.0061
2269.00,0.0062
2268.00,0.0062
2267.00,0.0061
2266.00,0.0061
2265.00,0.0062
2264.00,0.0063
2263.00,0.0064
2262.00,0.0065
2261.00,0.0065
2260.00,0.0064
2259.00,0.0064
2258.00,0.0063
2257.00,0.0062
2256.00,0.0061
2255.00,0.0061
2254.00,0.0062
2253.00,0.0062
2252.00,0.0062
2251.00,0.0062
2250.00,0.0062
2249.00,0.0062
2248.00,0.0062
2247.00,0.0062
2246.00,0.0062
2245.00,0.0062
2244.00,0.0062
2243.00,0.0061
2242.00,0.0061
2241.00,0.0061
2240.00,0.0062
2239.00,0.0063
2238.00,0.0064
2237.00,0.0064
2236.00,0.0064
2235.00,0.0064
2234.00,0.0064
2233.00,0.0063
2232.00,0.0063
2231.00,0.0063
2230.00,0.0063
2229.00,0.0063
2228.00,0.0064
2227.00,0.0064
2226.00,0.0065
2225.00,0.0065
2224.00,0.0065
2223.00,0.0065
2222.00,0.0064
2221.00,0.0063
2220.00,0.0063
2219.00,0.0063
2218.00,0.0063
2217.00,0.0063
2216.00,0.0063
2215.00,0.0064
2214.00,0.0064
2213.00,0.0065
2212.00,0.0065
2211.00,0.0065
2210.00,0.0064
2209.00,0.0063
2208.00,0.0062
2207.00,0.0061
2206.00,0.0061
2205.00,0.0062
2204.00,0.0063
2203.00,0.0063
2202.00,0.0063
2201.00,0.0063
2200.00,0.0063
2199.00,0.0064
2198.00,0.0065
2197.00,0.0066
2196.00,0.0065
2195.00,0.0064
2194.00,0.0064
2193.00,0.0064
2192.00,0.0064
2191.00,0.0065
2190.00,0.0066
2189.00,0.0067
2188.00,0.0068
2187.00,0.0069
2186.00,0.0068
2185.00,0.0066
2184.00,0.0064
2183.00,0.0062
2182.00,0.0062
2181.00,0.0063
2180.00,0.0065
2179.00,0.0065
2178.00,0.0065
2177.00,0.0065
2176.00,0.0064
2175.00,0.0064
2174.00,0.0065
2173.00,0.0066
2172.00,0.0068
2171.00,0.0069
2170.00,0.0070
2169.00,0.0071
2168.00,0.0071
2167.00,0.0070
2166.00,0.0070
2165.00,0.0070
2164.00,0.0069
2163.00,0.0068
2162.00,0.0066
2161.00,0.0063
2160.00,0.0061
2159.00,0.0060
2158.00,0.0059
2157.00,0.0059
2156.00,0.0058
2155.00,0.0057
2154.00,0.0057
2153.00,0.0057
2152.00,0.0057
2151.00,0.0058
2150.00,0.0057
2149.00,0.0057
2148.00,0.0057
2147.00,0.0057
2146.00,0.0059
2145.00,0.0060
2144.00,0.0061
2143.00,0.0061
2142.00,0.0060
2141.00,0.0060
2140.00,0.0060
2139.00,0.0060
2138.00,0.0060
2137.00,0.0059
2136.00,0.0058
2135.00,0.0058
2134.00,0.0057
2133.00,0.0057
2132.00,0.0057
2131.00,0.0057
2130.00,0.0057
2129.00,0.0058
2128.00,0.0058
2127.00,0.0059
2126.00,0.0059
2125.00,0.0059
2124.00,0.0059
2123.00,0.0059
2122.00,0.0059
2121.00,0.0060
2120.00,0.0061
2119.00,0.0062
2118.00,0.0063
2117.00,0.0063
2116.00,0.0063
2115.00,0.0062
2114.00,0.0062
2113.00,0.0061
2112.00,0.0061
2111.00,0.0062
2110.00,0.0062
2109.00,0.0062
2108.00,0.0061
2107.00,0.0061
2106.00,0.0061
2105.00,0.0061
2104.00,0.0061
2103.00,0.0061
2102.00,0.0061
2101.00,0.0061
2100.00,0.0061
2099.00,0.0061
2098.00,0.0061
2097.00,0.0061
2096.00,0.0061
2095.00,0.0061
2094.00,0.0060
2093.00,0.0060
2092.00,0.0060
2091.00,0.0060
2090.00,0.0060
2089.00,0.0059
2088.00,0.0059
2087.00,0.0058
2086.00,0.0059
2085.00,0.0059
2084.00,0.0059
2083.00,0.0059
2082.00,0.0059
2081.00,0.0059
2080.00,0.0059
2079.00,0.0060
2078.00,0.0061
2077.00,0.0062
2076.00,0.0062
2075.00,0.0061
2074.00,0.0061
2073.00,0.0060
2072.00,0.0060
2071.00,0.0060
2070.00,0.0060
2069.00,0.0061
2068.00,0.0061
2067.00,0.0061
2066.00,0.0061
2065.00,0.0060
2064.00,0.0060
2063.00,0.0060
2062.00,0.0060
2061.00,0.0060
2060.00,0.0061
2059.00,0.0061
2058.00,0.0061
2057.00,0.0062
2056.00,0.0062
2055.00,0.0062
2054.00,0.0062
2053.00,0.0063
2052.00,0.0064
2051.00,0.0064
2050.00,0.0064
2049.00,0.0063
2048.00,0.0062
2047.00,0.0062
2046.00,0.0063
2045.00,0.0064
2044.00,0.0065
2043.00,0.0065
2042.00,0.0064
2041.00,0.0063
2040.00,0.0063
2039.00,0.0064
2038.00,0.0066
2037.00,0.0069
2036.00,0.0072
2035.00,0.0072
2034.00,0.0070
2033.00,0.0068
2032.00,0.0066
2031.00,0.0064
2030.00,0.0064
2029.00,0.0065
2028.00,0.0065
2027.00,0.0065
2026.00,0.0065
2025.00,0.0065
2024.00,0.0065
2023.00,0.0064
2022.00,0.0063
2021.00,0.0063
2020.00,0.0064
2019.00,0.0064
2018.00,0.0064
2017.00,0.0064
2016.00,0.0064
2015.00,0.0065
2014.00,0.0065
2013.00,0.0066
2012.00,0.0066
2011.00,0.0066
2010.00,0.0065
2009.00,0.0065
2008.00,0.0065
2007.00,0.0064
2006.00,0.0062
2005.00,0.0060
2004.00,0.0060
2003.00,0.0060
2002.00,0.0062
2001.00,0.0064
2000.00,0.0065
1999.00,0.0065
1998.00,0.0065
1997.00,0.0066
1996.00,0.0066
1995.00,0.0066
1994.00,0.0066
1993.00,0.0066
1992.00,0.0066
1991.00,0.0067
1990.00,0.0067
1989.00,0.0067
1988.00,0.0066
1987.00,0.0065
1986.00,0.0064
1985.00,0.0064
1984.00,0.0065
1983.00,0.0066
1982.00,0.0067
1981.00,0.0067
1980.00,0.0067
1979.00,0.0065
1978.00,0.0063
1977.00,0.0061
1976.00,0.0059
1975.00,0.0059
1974.00,0.0059
1973.00,0.0061
1972.00,0.0063
1971.00,0.0065
1970.00,0.0065
1969.00,0.0064
1968.00,0.0063
1967.00,0.0062
1966.00,0.0062
1965.00,0.0063
1964.00,0.0063
1963.00,0.0063
1962.00,0.0062
1961.00,0.0061
1960.00,0.0060
1959.00,0.0060
1958.00,0.0059
1957.00,0.0059
1956.00,0.0059
1955.00,0.0059
1954.00,0.0059
1953.00,0.0059
1952.00,0.0059
1951.00,0.0059
1950.00,0.0060
1949.00,0.0060
1948.00,0.0061
1947.00,0.0062
1946.00,0.0062
1945.00,0.0061
1944.00,0.0060
1943.00,0.0059
1942.00,0.0059
1941.00,0.0059
1940.00,0.0058
1939.00,0.0058
1938.00,0.0058
1937.00,0.0059
1936.00,0.0059
1935.00,0.0060
1934.00,0.0060
1933.00,0.0060
1932.00,0.0059
1931.00,0.0058
1930.00,0.0058
1929.00,0.0057
1928.00,0.0057
1927.00,0.0057
1926.00,0.0057
1925.00,0.0057
1924.00,0.0058
1923.00,0.0058
1922.00,0.0058
1921.00,0.0059
1920.00,0.0059
1919.00,0.0059
1918.00,0.0059
1917.00,0.0059
1916.00,0.0059
1915.00,0.0059
1914.00,0.0059
1913.00,0.0059
1912.00,0.0058
1911.00,0.0057
1910.00,0.0057
1909.00,0.0057
1908.00,0.0057
1907.00,0.0057
1906.00,0.0057
1905.00,0.0057
1904.00,0.0057
1903.00,0.0057
1902.00,0.0057
1901.00,0.0057
1900.00,0.0057
1899.00,0.0057
1898.00,0.0057
1897.00,0.0057
1896.00,0.0057
1895.00,0.0057
1894.00,0.0057
1893.00,0.0057
1892.00,0.0057
1891.00,0.0056
1890.00,0.0055
1889.00,0.0055
1888.00,0.0056
1887.00,0.0056
1886.00,0.0057
1885.00,0.0056
1884.00,0.0056
1883.00,0.0056
1882.00,0.0056
1881.00,0.0056
1880.00,0.0056
1879.00,0.0056
1878.00,0.0056
1877.00,0.0056
1876.00,0.0056
1875.00,0.0056
1874.00,0.0057
1873.00,0.0057
1872.00,0.0057
1871.00,0.0057
1870.00,0.0057
1869.00,0.0057
1868.00,0.0056
1867.00,0.0055
1866.00,0.0056
1865.00,0.0056
1864.00,0.0056
1863.00,0.0056
1862.00,0.0056
1861.00,0.0055
1860.00,0.0055
1859.00,0.0055
1858.00,0.0055
1857.00,0.0055
1856.00,0.0055
1855.00,0.0055
1854.00,0.0054
1853.00,0.0055
1852.00,0.0055
1851.00,0.0055
1850.00,0.0055
1849.00,0.0055
1848.00,0.0055
1847.00,0.0055
1846.00,0.0056
1845.00,0.0057
1844.00,0.0057
1843.00,0.0056
1842.00,0.0055
1841.00,0.0055
1840.00,0.0055
1839.00,0.0055
1838.00,0.0055
1837.00,0.0055
1836.00,0.0054
1835.00,0.0054
1834.00,0.0054
1833.00,0.0054
1832.00,0.0054
1831.00,0.0054
1830.00,0.0053
1829.00,0.0052
1828.00,0.0051
1827.00,0.0051
1826.00,0.0051
1825.00,0.0051
1824.00,0.0052
1823.00,0.0052
1822.00,0.0053
1821.00,0.0054
1820.00,0.0054
1819.00,0.0054
1818.00,0.0053
1817.00,0.0053
1816.00,0.0052
1815.00,0.0052
1814.00,0.0052
1813.00,0.0052
1812.00,0.0051
1811.00,0.0051
1810.00,0.0051
1809.00,0.0052
1808.00,0.0052
1807.00,0.0052
1806.00,0.0052
1805.00,0.0052
1804.00,0.0052
1803.00,0.0051
1802.00,0.0051
1801.00,0.0051
1800.00,0.0051
1799.00,0.0051
1798.00,0.0053
1797.00,0.0054
1796.00,0.0054
1795.00,0.0055
1794.00,0.0056
1793.00,0.0057
1792.00,0.0055
1791.00,0.0054
1790.00,0.0053
1789.00,0.0052
1788.00,0.0052
1787.00,0.0053
1786.00,0.0053
1785.00,0.0053
1784.00,0.0052
1783.00,0.0052
1782.00,0.0051
1781.00,0.0051
1780.00,0.0051
1779.00,0.0052
1778.00,0.0052
1777.00,0.0053
1776.00,0.0054
1775.00,0.0055
1774.00,0.0055
1773.00,0.0055
1772.00,0.0054
1771.00,0.0053
1770.00,0.0053
1769.00,0.0053
1768.00,0.0054
1767.00,0.0054
1766.00,0.0054
1765.00,0.0054
1764.00,0.0054
1763.00,0.0054
1762.00,0.0053
1761.00,0.0053
1760.00,0.0053
1759.00,0.0053
1758.00,0.0053
1757.00,0.0052
1756.00,0.0053
1755.00,0.0053
1754.00,0.0053
1753.00,0.0054
1752.00,0.0055
1751.00,0.0055
1750.00,0.0054
1749.00,0.0053
1748.00,0.0052
1747.00,0.0052
1746.00,0.0051
1745.00,0.0051
1744.00,0.0051
1743.00,0.0050
1742.00,0.0051
1741.00,0.0052
1740.00,0.0054
1739.00,0.0054
1738.00,0.0054
1737.00,0.0055
1736.00,0.0057
1735.00,0.0060
1734.00,0.0061
1733.00,0.0059
1732.00,0.0057
1731.00,0.0055
1730.00,0.0055
1729.00,0.0055
1728.00,0.0056
1727.00,0.0057
1726.00,0.0057
1725.00,0.0058
1724.00,0.0058
1723.00,0.0058
1722.00,0.0058
1721.00,0.0057
1720.00,0.0056
1719.00,0.0056
1718.00,0.0058
1717.00,0.0060
1716.00,0.0060
1715.00,0.0060
1714.00,0.0059
1713.00,0.0059
1712.00,0.0059
1711.00,0.0060
1710.00,0.0060
1709.00,0.0060
1708.00,0.0060
1707.00,0.0060
1706.00,0.0060
1705.00,0.0060
1704.00,0.0060
1703.00,0.0061
1702.00,0.0063
1701.00,0.0066
1700.00,0.0068
1699.00,0.0068
1698.00,0.0067
1697.00,0.0066
1696.00,0.0064
1695.00,0.0064
1694.00,0.0064
1693.00,0.0064
1692.00,0.0064
1691.00,0.0064
1690.00,0.0065
1689.00,0.0065
1688.00,0.0065
1687.00,0.0064
1686.00,0.0062
1685.00,0.0061
1684.00,0.0059
1683.00,0.0060
1682.00,0.0062
1681.00,0.0063
1680.00,0.0064
1679.00,0.0064
1678.00,0.0065
1677.00,0.0067
1676.00,0.0068
1675.00,0.0069
1674.00,0.0068
1673.00,0.0067
1672.00,0.0067
1671.00,0.0067
1670.00,0.0067
1669.00,0.0067
1668.00,0.0067
1667.00,0.0067
1666.00,0.0067
1665.00,0.0068
1664.00,0.0068
1663.00,0.0069
1662.00,0.0069
1661.00,0.0070
1660.00,0.0070
1659.00,0.0071
1658.00,0.0071
1657.00,0.0070
1656.00,0.0068
1655.00,0.0067
1654.00,0.0067
1653.00,0.0067
1652.00,0.0069
1651.00,0.0070
1650.00,0.0070
1649.00,0.0071
1648.00,0.0073
1647.00,0.0074
1646.00,0.0075
1645.00,0.0075
1644.00,0.0075
1643.00,0.0075
1642.00,0.0075
1641.00,0.0075
1640.00,0.0074
1639.00,0.0074
1638.00,0.0074
1637.00,0.0075
1636.00,0.0075
1635.00,0.0075
1634.00,0.0076
1633.00,0.0077
1632.00,0.0077
1631.00,0.0077
1630.00,0.0077
1629.00,0.0076
1628.00,0.0076
1627.00,0.0076
1626.00,0.0077
1625.00,0.0078
1624.00,0.0079
1623.00,0.0080
1622.00,0.0080
1621.00,0.0080
1620.00,0.0080
1619.00,0.0080
1618.00,0.0081
1617.00,0.0081
1616.00,0.0081
1615.00,0.0081
1614.00,0.0081
1613.00,0.0082
1612.00,0.0082
1611.00,0.0083
1610.00,0.0083
1609.00,0.0083
1608.00,0.0083
1607.00,0.0083
1606.00,0.0083
1605.00,0.0084
1604.00,0.0084
1603.00,0.0084
1602.00,0.0084
1601.00,0.0083
1600.00,0.0083
1599.00,0.0083
1598.00,0.0084
1597.00,0.0084
1596.00,0.0084
1595.00,0.0084
1594.00,0.0084
1593.00,0.0084
1592.00,0.0084
1591.00,0.0084
1590.00,0.0083
1589.00,0.0083
1588.00,0.0083
1587.00,0.0083
1586.00,0.0083
1585.00,0.0083
1584.00,0.0082
1583.00,0.0083
1582.00,0.0083
1581.00,0.0083
1580.00,0.0083
1579.00,0.0082
1578.00,0.0083
1577.00,0.0083
1576.00,0.0084
1575.00,0.0084
1574.00,0.0083
1573.00,0.0082
1572.00,0.0082
1571.00,0.0082
1570.00,0.0083
1569.00,0.0082
1568.00,0.0082
1567.00,0.0083
1566.00,0.0083
1565.00,0.0083
1564.00,0.0083
1563.00,0.0082
1562.00,0.0081
1561.00,0.0078
1560.00,0.0079
1559.00,0.0082
1558.00,0.0082
1557.00,0.0083
1556.00,0.0084
1555.00,0.0084
1554.00,0.0084
1553.00,0.0083
1552.00,0.0081
1551.00,0.0080
1550.00,0.0079
1549.00,0.0079
1548.00,0.0080
1547.00,0.0080
1546.00,0.0081
1545.00,0.0081
1544.00,0.0082
1543.00,0.0082
1542.00,0.0083
1541.00,0.0082
1540.00,0.0076
1539.00,0.0072
1538.00,0.0072
1537.00,0.0074
1536.00,0.0074
1535.00,0.0075
1534.00,0.0074
1533.00,0.0073
1532.00,0.0073
1531.00,0.0073
1530.00,0.0074
1529.00,0.0076
1528.00,0.0077
1527.00,0.0078
1526.00,0.0079
1525.00,0.0080
1524.00,0.0080
1523.00,0.0079
1522.00,0.0079
1521.00,0.0076
1520.00,0.0074
1519.00,0.0072
1518.00,0.0071
1517.00,0.0071
1516.00,0.0071
1515.00,0.0072
1514.00,0.0074
1513.00,0.0075
1512.00,0.0075
1511.00,0.0074
1510.00,0.0073
1509.00,0.0072
1508.00,0.0072
1507.00,0.0069
1506.00,0.0067
1505.00,0.0070
1504.00,0.0072
1503.00,0.0073
1502.00,0.0073
1501.00,0.0073
1500.00,0.0072
1499.00,0.0071
1498.00,0.0071
1497.00,0.0071
1496.00,0.0071
1495.00,0.0071
1494.00,0.0071
1493.00,0.0072
1492.00,0.0073
1491.00,0.0073
1490.00,0.0072
1489.00,0.0070
1488.00,0.0068
1487.00,0.0067
1486.00,0.0067
1485.00,0.0068
1484.00,0.0068
1483.00,0.0068
1482.00,0.0069
1481.00,0.0069
1480.00,0.0069
1479.00,0.0068
1478.00,0.0068
1477.00,0.0067
1476.00,0.0068
1475.00,0.0070
1474.00,0.0073
1473.00,0.0073
1472.00,0.0071
1471.00,0.0068
1470.00,0.0067
1469.00,0.0067
1468.00,0.0066
1467.00,0.0066
1466.00,0.0066
1465.00,0.0067
1464.00,0.0066
1463.00,0.0066
1462.00,0.0065
1461.00,0.0065
1460.00,0.0065
1459.00,0.0066
1458.00,0.0070
1457.00,0.0072
1456.00,0.0071
1455.00,0.0069
1454.00,0.0068
1453.00,0.0068
1452.00,0.0068
1451.00,0.0069
1450.00,0.0069
1449.00,0.0070
1448.00,0.0070
1447.00,0.0070
1446.00,0.0070
1445.00,0.0070
1444.00,0.0070
1443.00,0.0070
1442.00,0.0070
1441.00,0.0071
1440.00,0.0071
1439.00,0.0071
1438.00,0.0072
1437.00,0.0072
1436.00,0.0072
1435.00,0.0072
1434.00,0.0072
1433.00,0.0072
1432.00,0.0072
1431.00,0.0072
1430.00,0.0072
1429.00,0.0072
1428.00,0.0072
1427.00,0.0072
1426.00,0.0072
1425.00,0.0072
1424.00,0.0072
1423.00,0.0072
1422.00,0.0072
1421.00,0.0071
1420.00,0.0072
1419.00,0.0072
1418.00,0.0071
1417.00,0.0071
1416.00,0.0072
1415.00,0.0073
1414.00,0.0073
1413.00,0.0073
1412.00,0.0073
1411.00,0.0072
1410.00,0.0072
1409.00,0.0072
1408.00,0.0072
1407.00,0.0071
1406.00,0.0071
1405.00,0.0071
1404.00,0.0072
1403.00,0.0072
1402.00,0.0072
1401.00,0.0072
1400.00,0.0073
1399.00,0.0073
1398.00,0.0073
1397.00,0.0073
1396.00,0.0073
1395.00,0.0072
1394.00,0.0072
1393.00,0.0072
1392.00,0.0072
1391.00,0.0073
1390.00,0.0073
1389.00,0.0073
1388.00,0.0073
1387.00,0.0073
1386.00,0.0072
1385.00,0.0072
1384.00,0.0073
1383.00,0.0073
1382.00,0.0073
1381.00,0.0073
1380.00,0.0073
1379.00,0.0073
1378.00,0.0073
1377.00,0.0073
1376.00,0.0073
1375.00,0.0073
1374.00,0.0073
1373.00,0.0073
1372.00,0.0074
1371.00,0.0074
1370.00,0.0074
1369.00,0.0074
1368.00,0.0074
1367.00,0.0074
1366.00,0.0074
1365.00,0.0074
1364.00,0.0073
1363.00,0.0073
1362.00,0.0073
1361.00,0.0073
1360.00,0.0074
1359.00,0.0074
1358.00,0.0074
1357.00,0.0074
1356.00,0.0074
1355.00,0.0074
1354.00,0.0074
1353.00,0.0074
1352.00,0.0074
1351.00,0.0074
1350.00,0.0074
1349.00,0.0074
1348.00,0.0074
1347.00,0.0074
1346.00,0.0074
1345.00,0.0074
1344.00,0.0074
1343.00,0.0074
1342.00,0.0074
1341.00,0.0074
1340.00,0.0074
1339.00,0.0074
1338.00,0.0073
1337.00,0.0073
1336.00,0.0073
1335.00,0.0073
1334.00,0.0074
1333.00,0.0074
1332.00,0.0074
1331.00,0.0074
1330.00,0.0074
1329.00,0.0074
1328.00,0.0074
1327.00,0.0073
1326.00,0.0073
1325.00,0.0073
1324.00,0.0073
1323.00,0.0073
1322.00,0.0074
1321.00,0.0074
1320.00,0.0074
1319.00,0.0074
1318.00,0.0074
1317.00,0.0075
1316.00,0.0075
1315.00,0.0076
1314.00,0.0076
1313.00,0.0076
1312.00,0.0076
1311.00,0.0076
1310.00,0.0076
1309.00,0.0075
1308.00,0.0075
1307.00,0.0075
1306.00,0.0075
1305.00,0.0075
1304.00,0.0076
1303.00,0.0076
1302.00,0.0077
1301.00,0.0077
1300.00,0.0077
1299.00,0.0076
1298.00,0.0077
1297.00,0.0077
1296.00,0.0077
1295.00,0.0078
1294.00,0.0078
1293.00,0.0077
1292.00,0.0077
1291.00,0.0077
1290.00,0.0077
1289.00,0.0077
1288.00,0.0077
1287.00,0.0077
1286.00,0.0076
1285.00,0.0076
1284.00,0.0076
1283.00,0.0077
1282.00,0.0077
1281.00,0.0077
1280.00,0.0077
1279.00,0.0077
1278.00,0.0077
1277.00,0.0077
1276.00,0.0078
1275.00,0.0078
1274.00,0.0078
1273.00,0.0078
1272.00,0.0078
1271.00,0.0078
1270.00,0.0078
1269.00,0.0078
1268.00,0.0078
1267.00,0.0078
1266.00,0.0078
1265.00,0.0078
1264.00,0.0078
1263.00,0.0078
1262.00,0.0078
1261.00,0.0078
1260.00,0.0078
1259.00,0.0078
1258.00,0.0079
1257.00,0.0079
1256.00,0.0079
1255.00,0.0079
1254.00,0.0080
1253.00,0.0080
1252.00,0.0080
1251.00,0.0080
1250.00,0.0081
1249.00,0.0081
1248.00,0.0082
1247.00,0.0082
1246.00,0.0083
1245.00,0.0082
1244.00,0.0083
1243.00,0.0083
1242.00,0.0084
1241.00,0.0085
1240.00,0.0085
1239.00,0.0086
1238.00,0.0085
1237.00,0.0085
1236.00,0.0086
1235.00,0.0086
1234.00,0.0087
1233.00,0.0087
1232.00,0.0088
1231.00,0.0089
1230.00,0.0090
1229.00,0.0090
1228.00,0.0091
1227.00,0.0092
1226.00,0.0092
1225.00,0.0093
1224.00,0.0093
1223.00,0.0094
1222.00,0.0094
1221.00,0.0094
1220.00,0.0094
1219.00,0.0094
1218.00,0.0094
1217.00,0.0094
1216.00,0.0095
1215.00,0.0095
1214.00,0.0096
1213.00,0.0097
1212.00,0.0097
1211.00,0.0097
1210.00,0.0097
1209.00,0.0097
1208.00,0.0097
1207.00,0.0097
1206.00,0.0098
1205.00,0.0098
1204.00,0.0099
1203.00,0.0100
1202.00,0.0100
1201.00,0.0101
1200.00,0.0100
1199.00,0.0101
1198.00,0.0101
1197.00,0.0101
1196.00,0.0102
1195.00,0.0102
1194.00,0.0101
1193.00,0.0101
1192.00,0.0101
1191.00,0.0102
1190.00,0.0102
1189.00,0.0102
1188.00,0.0102
1187.00,0.0102
1186.00,0.0102
1185.00,0.0103
1184.00,0.0104
1183.00,0.0105
1182.00,0.0105
1181.00,0.0105
1180.00,0.0105
1179.00,0.0106
1178.00,0.0106
1177.00,0.0106
1176.00,0.0106
1175.00,0.0106
1174.00,0.0106
1173.00,0.0105
1172.00,0.0105
1171.00,0.0105
1170.00,0.0106
1169.00,0.0106
1168.00,0.0106
1167.00,0.0106
1166.00,0.0106
1165.00,0.0106
1164.00,0.0106
1163.00,0.0106
1162.00,0.0106
1161.00,0.0106
1160.00,0.0106
1159.00,0.0106
1158.00,0.0106
1157.00,0.0107
1156.00,0.0107
1155.00,0.0108
1154.00,0.0108
1153.00,0.0108
1152.00,0.0108
1151.00,0.0108
1150.00,0.0108
1149.00,0.0109
1148.00,0.0109
1147.00,0.0109
1146.00,0.0110
1145.00,0.0110
1144.00,0.0110
1143.00,0.0110
1142.00,0.0110
1141.00,0.0111
1140.00,0.0111
1139.00,0.0112
1138.00,0.0112
1137.00,0.0112
1136.00,0.0113
1135.00,0.0113
1134.00,0.0113
1133.00,0.0113
1132.00,0.0113
1131.00,0.0113
1130.00,0.0114
1129.00,0.0114
1128.00,0.0115
1127.00,0.0115
1126.00,0.0115
1125.00,0.0114
1124.00,0.0114
1123.00,0.0114
1122.00,0.0115
1121.00,0.0116
1120.00,0.0116
1119.00,0.0116
1118.00,0.0117
1117.00,0.0118
1116.00,0.0119
1115.00,0.0120
1114.00,0.0119
1113.00,0.0119
1112.00,0.0119
1111.00,0.0119
1110.00,0.0120
1109.00,0.0120
1108.00,0.0120
1107.00,0.0121
1106.00,0.0121
1105.00,0.0121
1104.00,0.0122
1103.00,0.0122
1102.00,0.0121
1101.00,0.0122
1100.00,0.0122
1099.00,0.0122
1098.00,0.0122
1097.00,0.0123
1096.00,0.0123
1095.00,0.0124
1094.00,0.0124
1093.00,0.0124
1092.00,0.0125
1091.00,0.0125
1090.00,0.0125
1089.00,0.0125
1088.00,0.0126
1087.00,0.0126
1086.00,0.0127
1085.00,0.0127
1084.00,0.0127
1083.00,0.0127
1082.00,0.0126
1081.00,0.0126
1080.00,0.0127
1079.00,0.0127
1078.00,0.0128
1077.00,0.0128
1076.00,0.0129
1075.00,0.0130
1074.00,0.0131
1073.00,0.0131
1072.00,0.0131
1071.00,0.0131
1070.00,0.0131
1069.00,0.0131
1068.00,0.0132
1067.00,0.0132
1066.00,0.0133
1065.00,0.0134
1064.00,0.0135
1063.00,0.0135
1062.00,0.0136
1061.00,0.0135
1060.00,0.0135
1059.00,0.0135
1058.00,0.0135
1057.00,0.0135
1056.00,0.0135
1055.00,0.0135
1054.00,0.0136
1053.00,0.0137
1052.00,0.0138
1051.00,0.0139
1050.00,0.0140
1049.00,0.0140
1048.00,0.0140
1047.00,0.0140
1046.00,0.0139
1045.00,0.0138
1044.00,0.0137
1043.00,0.0136
1042.00,0.0136
1041.00,0.0136
1040.00,0.0137
1039.00,0.0137
1038.00,0.0137
1037.00,0.0138
1036.00,0.0138
1035.00,0.0138
1034.00,0.0137
1033.00,0.0136
1032.00,0.0135
1031.00,0.0135
1030.00,0.0136
1029.00,0.0136
1028.00,0.0136
1027.00,0.0135
1026.00,0.0134
1025.00,0.0134
1024.00,0.0134
1023.00,0.0134
1022.00,0.0134
1021.00,0.0134
1020.00,0.0134
1019.00,0.0134
1018.00,0.0133
1017.00,0.0132
1016.00,0.0132
1015.00,0.0132
1014.00,0.0132
1013.00,0.0132
1012.00,0.0133
1011.00,0.0133
1010.00,0.0132
1009.00,0.0132
1008.00,0.0131
1007.00,0.0130
1006.00,0.0130
1005.00,0.0129
1004.00,0.0129
1003.00,0.0129
1002.00,0.0129
1001.00,0.0129
1000.00,0.0129
999.00,0.0128
998.00,0.0126
997.00,0.0125
996.00,0.0125
995.00,0.0125
994.00,0.0125
993.00,0.0125
992.00,0.0125
991.00,0.0124
990.00,0.0123
989.00,0.0122
988.00,0.0121
987.00,0.0120
986.00,0.0120
985.00,0.0121
984.00,0.0121
983.00,0.0121
982.00,0.0121
981.00,0.0120
980.00,0.0120
979.00,0.0120
978.00,0.0119
977.00,0.0118
976.00,0.0118
975.00,0.0117
974.00,0.0116
973.00,0.0116
972.00,0.0115
971.00,0.0114
970.00,0.0113
969.00,0.0113
968.00,0.0113
967.00,0.0113
966.00,0.0113
965.00,0.0113
964.00,0.0112
963.00,0.0111
962.00,0.0111
961.00,0.0111
960.00,0.0111
959.00,0.0111
958.00,0.0111
957.00,0.0110
956.00,0.0110
955.00,0.0109
954.00,0.0109
953.00,0.0109
952.00,0.0109
951.00,0.0110
950.00,0.0110
949.00,0.0110
948.00,0.0110
947.00,0.0109
946.00,0.0109
945.00,0.0109
944.00,0.0108
943.00,0.0108
942.00,0.0107
941.00,0.0108
940.00,0.0109
939.00,0.0110
938.00,0.0111
937.00,0.0110
936.00,0.0110
935.00,0.0110
934.00,0.0110
933.00,0.0110
932.00,0.0110
931.00,0.0109
930.00,0.0109
929.00,0.0109
928.00,0.0109
927.00,0.0109
926.00,0.0110
925.00,0.0110
924.00,0.0110
923.00,0.0111
922.00,0.0111
921.00,0.0111
920.00,0.0111
919.00,0.0111
918.00,0.0112
917.00,0.0113
916.00,0.0113
915.00,0.0112
914.00,0.0111
913.00,0.0110
912.00,0.0110
911.00,0.0111
910.00,0.0112
909.00,0.0112
908.00,0.0113
907.00,0.0114
906.00,0.0115
905.00,0.0115
904.00,0.0116
903.00,0.0115
902.00,0.0114
901.00,0.0113
900.00,0.0113
899.00,0.0113
898.00,0.0114
897.00,0.0114
896.00,0.0113
895.00,0.0113
894.00,0.0112
893.00,0.0111
892.00,0.0110
891.00,0.0110
890.00,0.0110
889.00,0.0110
888.00,0.0111
887.00,0.0112
886.00,0.0112
885.00,0.0113
884.00,0.0113
883.00,0.0112
882.00,0.0112
881.00,0.0112
880.00,0.0112
879.00,0.0113
878.00,0.0113
877.00,0.0113
876.00,0.0112
875.00,0.0111
874.00,0.0111
873.00,0.0111
872.00,0.0112
871.00,0.0112
870.00,0.0112
869.00,0.0111
868.00,0.0110
867.00,0.0109
866.00,0.0107
865.00,0.0106
864.00,0.0107
863.00,0.0108
862.00,0.0109
861.00,0.0109
860.00,0.0110
859.00,0.0110
858.00,0.0111
857.00,0.0111
856.00,0.0111
855.00,0.0111
854.00,0.0111
853.00,0.0111
852.00,0.0110
851.00,0.0110
850.00,0.0110
849.00,0.0110
848.00,0.0110
847.00,0.0110
846.00,0.0109
845.00,0.0110
844.00,0.0110
843.00,0.0111
842.00,0.0110
841.00,0.0110
840.00,0.0110
839.00,0.0110
838.00,0.0111
837.00,0.0111
836.00,0.0110
835.00,0.0108
834.00,0.0107
833.00,0.0106
832.00,0.0107
831.00,0.0109
830.00,0.0111
829.00,0.0113
828.00,0.0114
827.00,0.0113
826.00,0.0112
825.00,0.0112
824.00,0.0112
823.00,0.0113
822.00,0.0115
821.00,0.0116
820.00,0.0117
819.00,0.0116
818.00,0.0116
817.00,0.0116
816.00,0.0116
815.00,0.0116
814.00,0.0117
813.00,0.0117
812.00,0.0117
811.00,0.0117
810.00,0.0116
809.00,0.0116
808.00,0.0116
807.00,0.0117
806.00,0.0118
805.00,0.0119
804.00,0.0120
803.00,0.0121
802.00,0.0121
801.00,0.0121
800.00,0.0121
799.00,0.0121
798.00,0.0121
797.00,0.0122
796.00,0.0122
795.00,0.0121
794.00,0.0121
793.00,0.0120
792.00,0.0120
791.00,0.0121
790.00,0.0121
789.00,0.0122
788.00,0.0121
787.00,0.0121
786.00,0.0120
785.00,0.0120
784.00,0.0121
783.00,0.0121
782.00,0.0122
781.00,0.0123
780.00,0.0124
779.00,0.0125
778.00,0.0125
777.00,0.0124
776.00,0.0124
775.00,0.0125
774.00,0.0126
773.00,0.0127
772.00,0.0127
771.00,0.0125
770.00,0.0124
769.00,0.0124
768.00,0.0126
767.00,0.0127
766.00,0.0127
765.00,0.0126
764.00,0.0126
763.00,0.0125
762.00,0.0125
761.00,0.0125
760.00,0.0126
759.00,0.0128
758.00,0.0129
757.00,0.0130
756.00,0.0130
755.00,0.0129
754.00,0.0127
753.00,0.0124
752.00,0.0123
751.00,0.0123
750.00,0.0125
749.00,0.0127
748.00,0.0129
747.00,0.0130
746.00,0.0130
745.00,0.0129
744.00,0.0128
743.00,0.0128
742.00,0.0128
741.00,0.0127
740.00,0.0127
739.00,0.0127
738.00,0.0128
737.00,0.0129
736.00,0.0130
735.00,0.0130
734.00,0.0131
733.00,0.0132
732.00,0.0133
731.00,0.0133
730.00,0.0134
729.00,0.0134
728.00,0.0134
727.00,0.0134
726.00,0.0133
725.00,0.0132
724.00,0.0131
723.00,0.0131
722.00,0.0132
721.00,0.0133
720.00,0.0134
719.00,0.0135
718.00,0.0136
717.00,0.0137
716.00,0.0137
715.00,0.0136
714.00,0.0134
713.00,0.0133
712.00,0.0132
711.00,0.0132
710.00,0.0132
709.00,0.0132
708.00,0.0133
707.00,0.0133
706.00,0.0133
705.00,0.0134
704.00,0.0134
703.00,0.0134
702.00,0.0133
701.00,0.0133
700.00,0.0134
699.00,0.0135
698.00,0.0135
697.00,0.0136
696.00,0.0135
695.00,0.0135
694.00,0.0134
693.00,0.0134
692.00,0.0134
691.00,0.0134
690.00,0.0134
689.00,0.0135
688.00,0.0136
687.00,0.0137
686.00,0.0139
685.00,0.0140
684.00,0.0141
683.00,0.0140
682.00,0.0139
681.00,0.0139
680.00,0.0137
679.00,0.0135
678.00,0.0132
677.00,0.0132
676.00,0.0134
675.00,0.0137
674.00,0.0141
673.00,0.0144
672.00,0.0146
671.00,0.0147
670.00,0.0148
669.00,0.0151
668.00,0.0156
667.00,0.0160
666.00,0.0155
665.00,0.0147
664.00,0.0144
663.00,0.0145
662.00,0.0147
661.00,0.0148
660.00,0.0148
659.00,0.0147
658.00,0.0146
657.00,0.0149
656.00,0.0150
655.00,0.0153
654.00,0.0156
653.00,0.0157
652.00,0.0155
651.00,0.0152
650.00,0.0148
