Created as New Dataset,Monday, April 03 2023
cm-1,A
4000.00,0.0196
3999.00,0.0196
3998.00,0.0196
3997.00,0.0196
3996.00,0.0195
3995.00,0.0195
3994.00,0.0196
3993.00,0.0196
3992.00,0.0197
3991.00,0.0197
3990.00,0.0196
3989.00,0.0196
3988.00,0.0196
3987.00,0.0196
3986.00,0.0196
3985.00,0.0196
3984.00,0.0196
3983.00,0.0195
3982.00,0.0196
3981.00,0.0196
3980.00,0.0196
3979.00,0.0197
3978.00,0.0197
3977.00,0.0196
3976.00,0.0196
3975.00,0.0195
3974.00,0.0195
3973.00,0.0195
3972.00,0.0196
3971.00,0.0196
3970.00,0.0195
3969.00,0.0195
3968.00,0.0195
3967.00,0.0195
3966.00,0.0195
3965.00,0.0196
3964.00,0.0196
3963.00,0.0196
3962.00,0.0196
3961.00,0.0196
3960.00,0.0196
3959.00,0.0196
3958.00,0.0195
3957.00,0.0195
3956.00,0.0195
3955.00,0.0194
3954.00,0.0194
3953.00,0.0194
3952.00,0.0194
3951.00,0.0194
3950.00,0.0195
3949.00,0.0195
3948.00,0.0196
3947.00,0.0196
3946.00,0.0196
3945.00,0.0196
3944.00,0.0195
3943.00,0.0194
3942.00,0.0194
3941.00,0.0195
3940.00,0.0195
3939.00,0.0195
3938.00,0.0195
3937.00,0.0196
3936.00,0.0196
3935.00,0.0197
3934.00,0.0197
3933.00,0.0197
3932.00,0.0197
3931.00,0.0196
3930.00,0.0196
3929.00,0.0195
3928.00,0.0195
3927.00,0.0194
3926.00,0.0193
3925.00,0.0193
3924.00,0.0193
3923.00,0.0194
3922.00,0.0196
3921.00,0.0196
3920.00,0.0197
3919.00,0.0197
3918.00,0.0197
3917.00,0.0197
3916.00,0.0196
3915.00,0.0195
3914.00,0.0194
3913.00,0.0194
3912.00,0.0194
3911.00,0.0194
3910.00,0.0194
3909.00,0.0195
3908.00,0.0195
3907.00,0.0196
3906.00,0.0197
3905.00,0.0198
3904.00,0.0200
3903.00,0.0201
3902.00,0.0201
3901.00,0.0200
3900.00,0.0199
3899.00,0.0197
3898.00,0.0197
3897.00,0.0197
3896.00,0.0197
3895.00,0.0197
3894.00,0.0196
3893.00,0.0196
3892.00,0.0196
3891.00,0.0196
3890.00,0.0197
3889.00,0.0198
3888.00,0.0199
3887.00,0.0199
3886.00,0.0199
3885.00,0.0198
3884.00,0.0198
3883.00,0.0197
3882.00,0.0196
3881.00,0.0194
3880.00,0.0194
3879.00,0.0195
3878.00,0.0196
3877.00,0.0196
3876.00,0.0196
3875.00,0.0195
3874.00,0.0195
3873.00,0.0196
3872.00,0.0197
3871.00,0.0198
3870.00,0.0198
3869.00,0.0198
3868.00,0.0198
3867.00,0.0200
3866.00,0.0200
3865.00,0.0199
3864.00,0.0197
3863.00,0.0197
3862.00,0.0198
3861.00,0.0199
3860.00,0.0199
3859.00,0.0198
3858.00,0.0197
3857.00,0.0197
3856.00,0.0198
3855.00,0.0199
3854.00,0.0200
3853.00,0.0197
3852.00,0.0196
3851.00,0.0195
3850.00,0.0196
3849.00,0.0197
3848.00,0.0197
3847.00,0.0196
3846.00,0.0196
3845.00,0.0195
3844.00,0.0196
3843.00,0.0196
3842.00,0.0197
3841.00,0.0198
3840.00,0.0198
3839.00,0.0198
3838.00,0.0197
3837.00,0.0197
3836.00,0.0196
3835.00,0.0196
3834.00,0.0196
3833.00,0.0196
3832.00,0.0196
3831.00,0.0197
3830.00,0.0197
3829.00,0.0197
3828.00,0.0197
3827.00,0.0196
3826.00,0.0196
3825.00,0.0197
3824.00,0.0198
3823.00,0.0200
3822.00,0.0201
3821.00,0.0200
3820.00,0.0199
3819.00,0.0198
3818.00,0.0198
3817.00,0.0196
3816.00,0.0195
3815.00,0.0193
3814.00,0.0193
3813.00,0.0194
3812.00,0.0195
3811.00,0.0195
3810.00,0.0195
3809.00,0.0195
3808.00,0.0196
3807.00,0.0197
3806.00,0.0197
3805.00,0.0197
3804.00,0.0197
3803.00,0.0197
3802.00,0.0196
3801.00,0.0195
3800.00,0.0194
3799.00,0.0195
3798.00,0.0195
3797.00,0.0194
3796.00,0.0194
3795.00,0.0194
3794.00,0.0194
3793.00,0.0193
3792.00,0.0193
3791.00,0.0192
3790.00,0.0192
3789.00,0.0193
3788.00,0.0193
3787.00,0.0193
3786.00,0.0193
3785.00,0.0192
3784.00,0.0192
3783.00,0.0192
3782.00,0.0192
3781.00,0.0192
3780.00,0.0191
3779.00,0.0191
3778.00,0.0191
3777.00,0.0191
3776.00,0.0192
3775.00,0.0192
3774.00,0.0193
3773.00,0.0193
3772.00,0.0194
3771.00,0.0194
3770.00,0.0195
3769.00,0.0195
3768.00,0.0195
3767.00,0.0195
3766.00,0.0194
3765.00,0.0194
3764.00,0.0194
3763.00,0.0195
3762.00,0.0196
3761.00,0.0196
3760.00,0.0195
3759.00,0.0195
3758.00,0.0195
3757.00,0.0196
3756.00,0.0197
3755.00,0.0198
3754.00,0.0199
3753.00,0.0201
3752.00,0.0203
3751.00,0.0204
3750.00,0.0205
3749.00,0.0204
3748.00,0.0203
3747.00,0.0201
3746.00,0.0200
3745.00,0.0199
3744.00,0.0198
3743.00,0.0197
3742.00,0.0198
3741.00,0.0199
3740.00,0.0199
3739.00,0.0199
3738.00,0.0200
3737.00,0.0200
3736.00,0.0199
3735.00,0.0198
3734.00,0.0197
3733.00,0.0197
3732.00,0.0197
3731.00,0.0196
3730.00,0.0195
3729.00,0.0194
3728.00,0.0195
3727.00,0.0195
3726.00,0.0195
3725.00,0.0195
3724.00,0.0194
3723.00,0.0193
3722.00,0.0192
3721.00,0.0192
3720.00,0.0191
3719.00,0.0192
3718.00,0.0193
3717.00,0.0194
3716.00,0.0194
3715.00,0.0195
3714.00,0.0195
3713.00,0.0195
3712.00,0.0194
3711.00,0.0193
3710.00,0.0192
3709.00,0.0192
3708.00,0.0192
3707.00,0.0192
3706.00,0.0191
3705.00,0.0191
3704.00,0.0190
3703.00,0.0189
3702.00,0.0189
3701.00,0.0189
3700.00,0.0190
3699.00,0.0191
3698.00,0.0191
3697.00,0.0191
3696.00,0.0191
3695.00,0.0192
3694.00,0.0192
3693.00,0.0192
3692.00,0.0192
3691.00,0.0192
3690.00,0.0192
3689.00,0.0193
3688.00,0.0193
3687.00,0.0193
3686.00,0.0193
3685.00,0.0193
3684.00,0.0194
3683.00,0.0194
3682.00,0.0195
3681.00,0.0194
3680.00,0.0194
3679.00,0.0194
3678.00,0.0194
3677.00,0.0196
3676.00,0.0197
3675.00,0.0198
3674.00,0.0199
3673.00,0.0201
3672.00,0.0201
3671.00,0.0199
3670.00,0.0197
3669.00,0.0195
3668.00,0.0195
3667.00,0.0196
3666.00,0.0196
3665.00,0.0196
3664.00,0.0196
3663.00,0.0196
3662.00,0.0196
3661.00,0.0196
3660.00,0.0197
3659.00,0.0198
3658.00,0.0200
3657.00,0.0201
3656.00,0.0202
3655.00,0.0203
3654.00,0.0203
3653.00,0.0204
3652.00,0.0204
3651.00,0.0206
3650.00,0.0208
3649.00,0.0208
3648.00,0.0207
3647.00,0.0206
3646.00,0.0206
3645.00,0.0207
3644.00,0.0206
3643.00,0.0206
3642.00,0.0206
3641.00,0.0206
3640.00,0.0206
3639.00,0.0206
3638.00,0.0207
3637.00,0.0207
3636.00,0.0208
3635.00,0.0209
3634.00,0.0210
3633.00,0.0211
3632.00,0.0212
3631.00,0.0213
3630.00,0.0215
3629.00,0.0217
3628.00,0.0217
3627.00,0.0217
3626.00,0.0217
3625.00,0.0216
3624.00,0.0215
3623.00,0.0215
3622.00,0.0215
3621.00,0.0216
3620.00,0.0217
3619.00,0.0218
3618.00,0.0219
3617.00,0.0220
3616.00,0.0221
3615.00,0.0221
3614.00,0.0221
3613.00,0.0222
3612.00,0.0223
3611.00,0.0224
3610.00,0.0224
3609.00,0.0223
3608.00,0.0221
3607.00,0.0219
3606.00,0.0219
3605.00,0.0220
3604.00,0.0220
3603.00,0.0219
3602.00,0.0219
3601.00,0.0220
3600.00,0.0220
3599.00,0.0220
3598.00,0.0219
3597.00,0.0219
3596.00,0.0219
3595.00,0.0219
3594.00,0.0220
3593.00,0.0222
3592.00,0.0223
3591.00,0.0224
3590.00,0.0224
3589.00,0.0223
3588.00,0.0223
3587.00,0.0222
3586.00,0.0223
3585.00,0.0224
3584.00,0.0224
3583.00,0.0224
3582.00,0.0223
3581.00,0.0223
3580.00,0.0222
3579.00,0.0222
3578.00,0.0223
3577.00,0.0223
3576.00,0.0223
3575.00,0.0223
3574.00,0.0224
3573.00,0.0225
3572.00,0.0225
3571.00,0.0226
3570.00,0.0226
3569.00,0.0227
3568.00,0.0228
3567.00,0.0228
3566.00,0.0228
3565.00,0.0228
3564.00,0.0228
3563.00,0.0228
3562.00,0.0227
3561.00,0.0227
3560.00,0.0227
3559.00,0.0227
3558.00,0.0227
3557.00,0.0227
3556.00,0.0228
3555.00,0.0228
3554.00,0.0228
3553.00,0.0228
3552.00,0.0229
3551.00,0.0230
3550.00,0.0231
3549.00,0.0231
3548.00,0.0232
3547.00,0.0233
3546.00,0.0233
3545.00,0.0233
3544.00,0.0233
3543.00,0.0232
3542.00,0.0231
3541.00,0.0231
3540.00,0.0231
3539.00,0.0231
3538.00,0.0231
3537.00,0.0232
3536.00,0.0232
3535.00,0.0233
3534.00,0.0233
3533.00,0.0233
3532.00,0.0233
3531.00,0.0233
3530.00,0.0233
3529.00,0.0233
3528.00,0.0234
3527.00,0.0235
3526.00,0.0236
3525.00,0.0236
3524.00,0.0236
3523.00,0.0236
3522.00,0.0236
3521.00,0.0236
3520.00,0.0236
3519.00,0.0236
3518.00,0.0236
3517.00,0.0236
3516.00,0.0237
3515.00,0.0237
3514.00,0.0237
3513.00,0.0236
3512.00,0.0236
3511.00,0.0236
3510.00,0.0237
3509.00,0.0238
3508.00,0.0238
3507.00,0.0239
3506.00,0.0239
3505.00,0.0239
3504.00,0.0239
3503.00,0.0240
3502.00,0.0240
3501.00,0.0241
3500.00,0.0241
3499.00,0.0241
3498.00,0.0241
3497.00,0.0241
3496.00,0.0241
3495.00,0.0241
3494.00,0.0241
3493.00,0.0242
3492.00,0.0241
3491.00,0.0241
3490.00,0.0241
3489.00,0.0242
3488.00,0.0242
3487.00,0.0242
3486.00,0.0243
3485.00,0.0243
3484.00,0.0243
3483.00,0.0243
3482.00,0.0243
3481.00,0.0244
3480.00,0.0244
3479.00,0.0244
3478.00,0.0244
3477.00,0.0244
3476.00,0.0244
3475.00,0.0244
3474.00,0.0244
3473.00,0.0245
3472.00,0.0245
3471.00,0.0245
3470.00,0.0245
3469.00,0.0245
3468.00,0.0245
3467.00,0.0245
3466.00,0.0245
3465.00,0.0246
3464.00,0.0246
3463.00,0.0247
3462.00,0.0247
3461.00,0.0247
3460.00,0.0248
3459.00,0.0248
3458.00,0.0248
3457.00,0.0248
3456.00,0.0248
3455.00,0.0247
3454.00,0.0247
3453.00,0.0247
3452.00,0.0247
3451.00,0.0248
3450.00,0.0248
3449.00,0.0248
3448.00,0.0249
3447.00,0.0249
3446.00,0.0250
3445.00,0.0250
3444.00,0.0251
3443.00,0.0251
3442.00,0.0251
3441.00,0.0251
3440.00,0.0251
3439.00,0.0251
3438.00,0.0251
3437.00,0.0251
3436.00,0.0252
3435.00,0.0252
3434.00,0.0252
3433.00,0.0252
3432.00,0.0253
3431.00,0.0253
3430.00,0.0253
3429.00,0.0253
3428.00,0.0253
3427.00,0.0254
3426.00,0.0254
3425.00,0.0254
3424.00,0.0253
3423.00,0.0253
3422.00,0.0253
3421.00,0.0253
3420.00,0.0254
3419.00,0.0254
3418.00,0.0254
3417.00,0.0254
3416.00,0.0254
3415.00,0.0254
3414.00,0.0255
3413.00,0.0255
3412.00,0.0255
3411.00,0.0255
3410.00,0.0255
3409.00,0.0255
3408.00,0.0255
3407.00,0.0255
3406.00,0.0255
3405.00,0.0255
3404.00,0.0256
3403.00,0.0257
3402.00,0.0257
3401.00,0.0258
3400.00,0.0258
3399.00,0.0257
3398.00,0.0256
3397.00,0.0256
3396.00,0.0256
3395.00,0.0257
3394.00,0.0257
3393.00,0.0257
3392.00,0.0257
3391.00,0.0257
3390.00,0.0258
3389.00,0.0258
3388.00,0.0258
3387.00,0.0258
3386.00,0.0258
3385.00,0.0258
3384.00,0.0258
3383.00,0.0258
3382.00,0.0258
3381.00,0.0258
3380.00,0.0258
3379.00,0.0258
3378.00,0.0259
3377.00,0.0259
3376.00,0.0259
3375.00,0.0260
3374.00,0.0260
3373.00,0.0260
3372.00,0.0259
3371.00,0.0259
3370.00,0.0259
3369.00,0.0259
3368.00,0.0259
3367.00,0.0260
3366.00,0.0260
3365.00,0.0261
3364.00,0.0261
3363.00,0.0261
3362.00,0.0261
3361.00,0.0260
3360.00,0.0260
3359.00,0.0260
3358.00,0.0260
3357.00,0.0260
3356.00,0.0260
3355.00,0.0260
3354.00,0.0261
3353.00,0.0261
3352.00,0.0261
3351.00,0.0261
3350.00,0.0262
3349.00,0.0262
3348.00,0.0261
3347.00,0.0261
3346.00,0.0261
3345.00,0.0260
3344.00,0.0261
3343.00,0.0261
3342.00,0.0261
3341.00,0.0261
3340.00,0.0261
3339.00,0.0261
3338.00,0.0261
3337.00,0.0261
3336.00,0.0261
3335.00,0.0261
3334.00,0.0261
3333.00,0.0261
3332.00,0.0261
3331.00,0.0261
3330.00,0.0261
3329.00,0.0261
3328.00,0.0261
3327.00,0.0261
3326.00,0.0262
3325.00,0.0262
3324.00,0.0261
3323.00,0.0261
3322.00,0.0261
3321.00,0.0261
3320.00,0.0262
3319.00,0.0262
3318.00,0.0263
3317.00,0.0263
3316.00,0.0263
3315.00,0.0263
3314.00,0.0262
3313.00,0.0262
3312.00,0.0262
3311.00,0.0262
3310.00,0.0262
3309.00,0.0263
3308.00,0.0263
3307.00,0.0263
3306.00,0.0263
3305.00,0.0263
3304.00,0.0263
3303.00,0.0262
3302.00,0.0262
3301.00,0.0263
3300.00,0.0263
3299.00,0.0263
3298.00,0.0263
3297.00,0.0263
3296.00,0.0263
3295.00,0.0263
3294.00,0.0263
3293.00,0.0264
3292.00,0.0264
3291.00,0.0264
3290.00,0.0264
3289.00,0.0263
3288.00,0.0263
3287.00,0.0263
3286.00,0.0263
3285.00,0.0263
3284.00,0.0263
3283.00,0.0263
3282.00,0.0263
3281.00,0.0263
3280.00,0.0263
3279.00,0.0263
3278.00,0.0264
3277.00,0.0264
3276.00,0.0264
3275.00,0.0264
3274.00,0.0264
3273.00,0.0264
3272.00,0.0264
3271.00,0.0264
3270.00,0.0264
3269.00,0.0264
3268.00,0.0264
3267.00,0.0264
3266.00,0.0264
3265.00,0.0264
3264.00,0.0264
3263.00,0.0263
3262.00,0.0263
3261.00,0.0263
3260.00,0.0263
3259.00,0.0263
3258.00,0.0264
3257.00,0.0264
3256.00,0.0264
3255.00,0.0264
3254.00,0.0264
3253.00,0.0264
3252.00,0.0264
3251.00,0.0264
3250.00,0.0264
3249.00,0.0264
3248.00,0.0264
3247.00,0.0265
3246.00,0.0265
3245.00,0.0265
3244.00,0.0265
3243.00,0.0265
3242.00,0.0265
3241.00,0.0265
3240.00,0.0265
3239.00,0.0265
3238.00,0.0265
3237.00,0.0265
3236.00,0.0265
3235.00,0.0264
3234.00,0.0264
3233.00,0.0264
3232.00,0.0264
3231.00,0.0264
3230.00,0.0264
3229.00,0.0265
3228.00,0.0265
3227.00,0.0265
3226.00,0.0265
3225.00,0.0264
3224.00,0.0264
3223.00,0.0264
3222.00,0.0264
3221.00,0.0265
3220.00,0.0265
3219.00,0.0266
3218.00,0.0266
3217.00,0.0265
3216.00,0.0265
3215.00,0.0265
3214.00,0.0265
3213.00,0.0265
3212.00,0.0265
3211.00,0.0265
3210.00,0.0264
3209.00,0.0264
3208.00,0.0264
3207.00,0.0264
3206.00,0.0264
3205.00,0.0264
3204.00,0.0264
3203.00,0.0265
3202.00,0.0265
3201.00,0.0265
3200.00,0.0265
3199.00,0.0264
3198.00,0.0264
3197.00,0.0264
3196.00,0.0264
3195.00,0.0264
3194.00,0.0264
3193.00,0.0264
3192.00,0.0265
3191.00,0.0264
3190.00,0.0264
3189.00,0.0264
3188.00,0.0264
3187.00,0.0264
3186.00,0.0264
3185.00,0.0264
3184.00,0.0264
3183.00,0.0264
3182.00,0.0263
3181.00,0.0263
3180.00,0.0263
3179.00,0.0263
3178.00,0.0263
3177.00,0.0263
3176.00,0.0263
3175.00,0.0263
3174.00,0.0263
3173.00,0.0263
3172.00,0.0263
3171.00,0.0264
3170.00,0.0264
3169.00,0.0264
3168.00,0.0264
3167.00,0.0263
3166.00,0.0263
3165.00,0.0263
3164.00,0.0262
3163.00,0.0262
3162.00,0.0262
3161.00,0.0262
3160.00,0.0262
3159.00,0.0262
3158.00,0.0262
3157.00,0.0261
3156.00,0.0261
3155.00,0.0261
3154.00,0.0261
3153.00,0.0261
3152.00,0.0261
3151.00,0.0261
3150.00,0.0261
3149.00,0.0261
3148.00,0.0261
3147.00,0.0261
3146.00,0.0261
3145.00,0.0261
3144.00,0.0261
3143.00,0.0261
3142.00,0.0261
3141.00,0.0261
3140.00,0.0261
3139.00,0.0261
3138.00,0.0261
3137.00,0.0261
3136.00,0.0261
3135.00,0.0260
3134.00,0.0260
3133.00,0.0260
3132.00,0.0260
3131.00,0.0260
3130.00,0.0260
3129.00,0.0260
3128.00,0.0260
3127.00,0.0260
3126.00,0.0260
3125.00,0.0260
3124.00,0.0260
3123.00,0.0259
3122.00,0.0259
3121.00,0.0260
3120.00,0.0260
3119.00,0.0260
3118.00,0.0260
3117.00,0.0260
3116.00,0.0260
3115.00,0.0260
3114.00,0.0260
3113.00,0.0259
3112.00,0.0259
3111.00,0.0259
3110.00,0.0259
3109.00,0.0259
3108.00,0.0259
3107.00,0.0259
3106.00,0.0259
3105.00,0.0259
3104.00,0.0258
3103.00,0.0258
3102.00,0.0258
3101.00,0.0258
3100.00,0.0258
3099.00,0.0257
3098.00,0.0257
3097.00,0.0257
3096.00,0.0257
3095.00,0.0257
3094.00,0.0258
3093.00,0.0258
3092.00,0.0258
3091.00,0.0258
3090.00,0.0258
3089.00,0.0258
3088.00,0.0258
3087.00,0.0258
3086.00,0.0258
3085.00,0.0258
3084.00,0.0258
3083.00,0.0258
3082.00,0.0257
3081.00,0.0257
3080.00,0.0258
3079.00,0.0258
3078.00,0.0258
3077.00,0.0257
3076.00,0.0257
3075.00,0.0257
3074.00,0.0256
3073.00,0.0256
3072.00,0.0256
3071.00,0.0256
3070.00,0.0256
3069.00,0.0256
3068.00,0.0256
3067.00,0.0257
3066.00,0.0257
3065.00,0.0257
3064.00,0.0257
3063.00,0.0257
3062.00,0.0257
3061.00,0.0257
3060.00,0.0257
3059.00,0.0257
3058.00,0.0256
3057.00,0.0256
3056.00,0.0256
3055.00,0.0256
3054.00,0.0256
3053.00,0.0256
3052.00,0.0256
3051.00,0.0256
3050.00,0.0255
3049.00,0.0255
3048.00,0.0255
3047.00,0.0255
3046.00,0.0255
3045.00,0.0255
3044.00,0.0255
3043.00,0.0255
3042.00,0.0255
3041.00,0.0254
3040.00,0.0254
3039.00,0.0254
3038.00,0.0254
3037.00,0.0254
3036.00,0.0254
3035.00,0.0254
3034.00,0.0253
3033.00,0.0253
3032.00,0.0252
3031.00,0.0252
3030.00,0.0253
3029.00,0.0253
3028.00,0.0253
3027.00,0.0252
3026.00,0.0252
3025.00,0.0252
3024.00,0.0252
3023.00,0.0251
3022.00,0.0251
3021.00,0.0251
3020.00,0.0251
3019.00,0.0250
3018.00,0.0250
3017.00,0.0250
3016.00,0.0251
3015.00,0.0251
3014.00,0.0251
3013.00,0.0250
3012.00,0.0250
3011.00,0.0249
3010.00,0.0249
3009.00,0.0248
3008.00,0.0247
3007.00,0.0247
3006.00,0.0246
3005.00,0.0246
3004.00,0.0246
3003.00,0.0246
3002.00,0.0246
3001.00,0.0246
3000.00,0.0245
2999.00,0.0245
2998.00,0.0244
2997.00,0.0244
2996.00,0.0243
2995.00,0.0243
2994.00,0.0243
2993.00,0.0243
2992.00,0.0243
2991.00,0.0242
2990.00,0.0242
2989.00,0.0241
2988.00,0.0241
2987.00,0.0240
2986.00,0.0240
2985.00,0.0240
2984.00,0.0239
2983.00,0.0238
2982.00,0.0237
2981.00,0.0236
2980.00,0.0236
2979.00,0.0236
2978.00,0.0236
2977.00,0.0236
2976.00,0.0236
2975.00,0.0236
2974.00,0.0236
2973.00,0.0236
2972.00,0.0235
2971.00,0.0235
2970.00,0.0235
2969.00,0.0235
2968.00,0.0235
2967.00,0.0234
2966.00,0.0234
2965.00,0.0233
2964.00,0.0233
2963.00,0.0233
2962.00,0.0232
2961.00,0.0232
2960.00,0.0232
2959.00,0.0231
2958.00,0.0231
2957.00,0.0231
2956.00,0.0231
2955.00,0.0231
2954.00,0.0231
2953.00,0.0231
2952.00,0.0232
2951.00,0.0232
2950.00,0.0232
2949.00,0.0231
2948.00,0.0231
2947.00,0.0231
2946.00,0.0231
2945.00,0.0231
2944.00,0.0230
2943.00,0.0230
2942.00,0.0229
2941.00,0.0228
2940.00,0.0228
2939.00,0.0227
2938.00,0.0226
2937.00,0.0225
2936.00,0.0224
2935.00,0.0224
2934.00,0.0222
2933.00,0.0221
2932.00,0.0220
2931.00,0.0218
2930.00,0.0217
2929.00,0.0216
2928.00,0.0215
2927.00,0.0214
2926.00,0.0214
2925.00,0.0213
2924.00,0.0213
2923.00,0.0213
2922.00,0.0213
2921.00,0.0213
2920.00,0.0212
2919.00,0.0212
2918.00,0.0212
2917.00,0.0212
2916.00,0.0213
2915.00,0.0215
2914.00,0.0217
2913.00,0.0219
2912.00,0.0220
2911.00,0.0221
2910.00,0.0222
2909.00,0.0223
2908.00,0.0224
2907.00,0.0224
2906.00,0.0225
2905.00,0.0225
2904.00,0.0226
2903.00,0.0226
2902.00,0.0226
2901.00,0.0227
2900.00,0.0227
2899.00,0.0227
2898.00,0.0227
2897.00,0.0227
2896.00,0.0227
2895.00,0.0227
2894.00,0.0227
2893.00,0.0228
2892.00,0.0228
2891.00,0.0227
2890.00,0.0227
2889.00,0.0228
2888.00,0.0228
2887.00,0.0229
2886.00,0.0229
2885.00,0.0229
2884.00,0.0229
2883.00,0.0229
2882.00,0.0229
2881.00,0.0229
2880.00,0.0228
2879.00,0.0228
2878.00,0.0228
2877.00,0.0228
2876.00,0.0228
2875.00,0.0228
2874.00,0.0228
2873.00,0.0227
2872.00,0.0227
2871.00,0.0226
2870.00,0.0226
2869.00,0.0225
2868.00,0.0225
2867.00,0.0225
2866.00,0.0225
2865.00,0.0224
2864.00,0.0224
2863.00,0.0223
2862.00,0.0223
2861.00,0.0222
2860.00,0.0222
2859.00,0.0221
2858.00,0.0220
2857.00,0.0219
2856.00,0.0218
2855.00,0.0217
2854.00,0.0217
2853.00,0.0217
2852.00,0.0217
2851.00,0.0217
2850.00,0.0218
2849.00,0.0219
2848.00,0.0220
2847.00,0.0221
2846.00,0.0222
2845.00,0.0223
2844.00,0.0224
2843.00,0.0225
2842.00,0.0226
2841.00,0.0226
2840.00,0.0227
2839.00,0.0227
2838.00,0.0228
2837.00,0.0228
2836.00,0.0227
2835.00,0.0227
2834.00,0.0227
2833.00,0.0227
2832.00,0.0227
2831.00,0.0227
2830.00,0.0228
2829.00,0.0228
2828.00,0.0228
2827.00,0.0228
2826.00,0.0228
2825.00,0.0228
2824.00,0.0228
2823.00,0.0228
2822.00,0.0228
2821.00,0.0227
2820.00,0.0227
2819.00,0.0227
2818.00,0.0227
2817.00,0.0227
2816.00,0.0227
2815.00,0.0227
2814.00,0.0227
2813.00,0.0228
2812.00,0.0228
2811.00,0.0227
2810.00,0.0227
2809.00,0.0227
2808.00,0.0226
2807.00,0.0226
2806.00,0.0226
2805.00,0.0226
2804.00,0.0226
2803.00,0.0226
2802.00,0.0226
2801.00,0.0226
2800.00,0.0226
2799.00,0.0226
2798.00,0.0225
2797.00,0.0225
2796.00,0.0225
2795.00,0.0225
2794.00,0.0225
2793.00,0.0225
2792.00,0.0225
2791.00,0.0225
2790.00,0.0225
2789.00,0.0225
2788.00,0.0225
2787.00,0.0225
2786.00,0.0225
2785.00,0.0225
2784.00,0.0225
2783.00,0.0225
2782.00,0.0224
2781.00,0.0224
2780.00,0.0224
2779.00,0.0224
2778.00,0.0224
2777.00,0.0223
2776.00,0.0223
2775.00,0.0223
2774.00,0.0223
2773.00,0.0223
2772.00,0.0223
2771.00,0.0223
2770.00,0.0223
2769.00,0.0223
2768.00,0.0223
2767.00,0.0223
2766.00,0.0222
2765.00,0.0222
2764.00,0.0222
2763.00,0.0222
2762.00,0.0222
2761.00,0.0222
2760.00,0.0222
2759.00,0.0222
2758.00,0.0221
2757.00,0.0221
2756.00,0.0221
2755.00,0.0221
2754.00,0.0222
2753.00,0.0222
2752.00,0.0222
2751.00,0.0221
2750.00,0.0221
2749.00,0.0221
2748.00,0.0221
2747.00,0.0221
2746.00,0.0221
2745.00,0.0220
2744.00,0.0220
2743.00,0.0220
2742.00,0.0220
2741.00,0.0220
2740.00,0.0220
2739.00,0.0220
2738.00,0.0220
2737.00,0.0220
2736.00,0.0220
2735.00,0.0220
2734.00,0.0219
2733.00,0.0219
2732.00,0.0219
2731.00,0.0219
2730.00,0.0220
2729.00,0.0219
2728.00,0.0219
2727.00,0.0219
2726.00,0.0219
2725.00,0.0219
2724.00,0.0219
2723.00,0.0219
2722.00,0.0219
2721.00,0.0219
2720.00,0.0219
2719.00,0.0219
2718.00,0.0219
2717.00,0.0219
2716.00,0.0219
2715.00,0.0219
2714.00,0.0219
2713.00,0.0218
2712.00,0.0218
2711.00,0.0218
2710.00,0.0218
2709.00,0.0218
2708.00,0.0218
2707.00,0.0218
2706.00,0.0217
2705.00,0.0217
2704.00,0.0217
2703.00,0.0217
2702.00,0.0217
2701.00,0.0217
2700.00,0.0217
2699.00,0.0217
2698.00,0.0217
2697.00,0.0217
2696.00,0.0217
2695.00,0.0217
2694.00,0.0217
2693.00,0.0217
2692.00,0.0217
2691.00,0.0217
2690.00,0.0217
2689.00,0.0216
2688.00,0.0216
2687.00,0.0216
2686.00,0.0216
2685.00,0.0216
2684.00,0.0216
2683.00,0.0216
2682.00,0.0216
2681.00,0.0216
2680.00,0.0216
2679.00,0.0216
2678.00,0.0216
2677.00,0.0215
2676.00,0.0215
2675.00,0.0215
2674.00,0.0216
2673.00,0.0216
2672.00,0.0215
2671.00,0.0215
2670.00,0.0215
2669.00,0.0215
2668.00,0.0216
2667.00,0.0216
2666.00,0.0216
2665.00,0.0216
2664.00,0.0216
2663.00,0.0216
2662.00,0.0216
2661.00,0.0216
2660.00,0.0215
2659.00,0.0215
2658.00,0.0216
2657.00,0.0216
2656.00,0.0216
2655.00,0.0216
2654.00,0.0217
2653.00,0.0217
2652.00,0.0217
2651.00,0.0217
2650.00,0.0216
2649.00,0.0216
2648.00,0.0216
2647.00,0.0216
2646.00,0.0216
2645.00,0.0216
2644.00,0.0216
2643.00,0.0216
2642.00,0.0216
2641.00,0.0216
2640.00,0.0216
2639.00,0.0216
2638.00,0.0216
2637.00,0.0216
2636.00,0.0216
2635.00,0.0216
2634.00,0.0216
2633.00,0.0216
2632.00,0.0217
2631.00,0.0217
2630.00,0.0218
2629.00,0.0218
2628.00,0.0218
2627.00,0.0217
2626.00,0.0217
2625.00,0.0217
2624.00,0.0217
2623.00,0.0217
2622.00,0.0217
2621.00,0.0217
2620.00,0.0217
2619.00,0.0217
2618.00,0.0217
2617.00,0.0217
2616.00,0.0217
2615.00,0.0217
2614.00,0.0217
2613.00,0.0217
2612.00,0.0217
2611.00,0.0217
2610.00,0.0217
2609.00,0.0217
2608.00,0.0217
2607.00,0.0217
2606.00,0.0217
2605.00,0.0217
2604.00,0.0217
2603.00,0.0217
2602.00,0.0217
2601.00,0.0217
2600.00,0.0217
2599.00,0.0218
2598.00,0.0218
2597.00,0.0218
2596.00,0.0217
2595.00,0.0217
2594.00,0.0217
2593.00,0.0217
2592.00,0.0217
2591.00,0.0217
2590.00,0.0217
2589.00,0.0217
2588.00,0.0217
2587.00,0.0217
2586.00,0.0217
2585.00,0.0217
2584.00,0.0217
2583.00,0.0218
2582.00,0.0218
2581.00,0.0218
2580.00,0.0218
2579.00,0.0219
2578.00,0.0218
2577.00,0.0218
2576.00,0.0218
2575.00,0.0218
2574.00,0.0218
2573.00,0.0218
2572.00,0.0218
2571.00,0.0218
2570.00,0.0217
2569.00,0.0217
2568.00,0.0217
2567.00,0.0217
2566.00,0.0217
2565.00,0.0217
2564.00,0.0218
2563.00,0.0218
2562.00,0.0217
2561.00,0.0217
2560.00,0.0216
2559.00,0.0216
2558.00,0.0216
2557.00,0.0216
2556.00,0.0216
2555.00,0.0216
2554.00,0.0216
2553.00,0.0217
2552.00,0.0217
2551.00,0.0217
2550.00,0.0217
2549.00,0.0216
2548.00,0.0216
2547.00,0.0216
2546.00,0.0216
2545.00,0.0217
2544.00,0.0216
2543.00,0.0216
2542.00,0.0216
2541.00,0.0216
2540.00,0.0217
2539.00,0.0217
2538.00,0.0217
2537.00,0.0217
2536.00,0.0217
2535.00,0.0216
2534.00,0.0216
2533.00,0.0216
2532.00,0.0216
2531.00,0.0215
2530.00,0.0215
2529.00,0.0215
2528.00,0.0215
2527.00,0.0215
2526.00,0.0216
2525.00,0.0216
2524.00,0.0216
2523.00,0.0216
2522.00,0.0216
2521.00,0.0217
2520.00,0.0216
2519.00,0.0216
2518.00,0.0215
2517.00,0.0215
2516.00,0.0215
2515.00,0.0215
2514.00,0.0216
2513.00,0.0216
2512.00,0.0216
2511.00,0.0216
2510.00,0.0216
2509.00,0.0215
2508.00,0.0215
2507.00,0.0214
2506.00,0.0214
2505.00,0.0214
2504.00,0.0214
2503.00,0.0214
2502.00,0.0214
2501.00,0.0214
2500.00,0.0214
2499.00,0.0214
2498.00,0.0215
2497.00,0.0215
2496.00,0.0215
2495.00,0.0216
2494.00,0.0216
2493.00,0.0215
2492.00,0.0215
2491.00,0.0214
2490.00,0.0214
2489.00,0.0215
2488.00,0.0215
2487.00,0.0215
2486.00,0.0214
2485.00,0.0214
2484.00,0.0214
2483.00,0.0214
2482.00,0.0214
2481.00,0.0214
2480.00,0.0214
2479.00,0.0214
2478.00,0.0215
2477.00,0.0215
2476.00,0.0215
2475.00,0.0214
2474.00,0.0214
2473.00,0.0214
2472.00,0.0214
2471.00,0.0214
2470.00,0.0214
2469.00,0.0214
2468.00,0.0214
2467.00,0.0214
2466.00,0.0214
2465.00,0.0214
2464.00,0.0214
2463.00,0.0214
2462.00,0.0214
2461.00,0.0214
2460.00,0.0214
2459.00,0.0214
2458.00,0.0214
2457.00,0.0214
2456.00,0.0213
2455.00,0.0213
2454.00,0.0214
2453.00,0.0214
2452.00,0.0215
2451.00,0.0215
2450.00,0.0214
2449.00,0.0214
2448.00,0.0213
2447.00,0.0213
2446.00,0.0213
2445.00,0.0214
2444.00,0.0213
2443.00,0.0213
2442.00,0.0213
2441.00,0.0212
2440.00,0.0213
2439.00,0.0213
2438.00,0.0213
2437.00,0.0212
2436.00,0.0212
2435.00,0.0212
2434.00,0.0212
2433.00,0.0212
2432.00,0.0211
2431.00,0.0211
2430.00,0.0211
2429.00,0.0211
2428.00,0.0212
2427.00,0.0212
2426.00,0.0212
2425.00,0.0212
2424.00,0.0212
2423.00,0.0212
2422.00,0.0212
2421.00,0.0211
2420.00,0.0211
2419.00,0.0211
2418.00,0.0211
2417.00,0.0210
2416.00,0.0210
2415.00,0.0210
2414.00,0.0211
2413.00,0.0211
2412.00,0.0211
2411.00,0.0211
2410.00,0.0210
2409.00,0.0210
2408.00,0.0209
2407.00,0.0209
2406.00,0.0210
2405.00,0.0210
2404.00,0.0210
2403.00,0.0210
2402.00,0.0210
2401.00,0.0210
2400.00,0.0209
2399.00,0.0209
2398.00,0.0208
2397.00,0.0208
2396.00,0.0209
2395.00,0.0209
2394.00,0.0209
2393.00,0.0208
2392.00,0.0208
2391.00,0.0207
2390.00,0.0207
2389.00,0.0207
2388.00,0.0206
2387.00,0.0206
2386.00,0.0205
2385.00,0.0204
2384.00,0.0204
2383.00,0.0203
2382.00,0.0201
2381.00,0.0200
2380.00,0.0198
2379.00,0.0196
2378.00,0.0196
2377.00,0.0196
2376.00,0.0198
2375.00,0.0199
2374.00,0.0199
2373.00,0.0200
2372.00,0.0200
2371.00,0.0201
2370.00,0.0201
2369.00,0.0201
2368.00,0.0200
2367.00,0.0199
2366.00,0.0199
2365.00,0.0198
2364.00,0.0197
2363.00,0.0197
2362.00,0.0198
2361.00,0.0200
2360.00,0.0202
2359.00,0.0204
2358.00,0.0205
2357.00,0.0207
2356.00,0.0208
2355.00,0.0209
2354.00,0.0208
2353.00,0.0207
2352.00,0.0207
2351.00,0.0206
2350.00,0.0203
2349.00,0.0197
2348.00,0.0190
2347.00,0.0184
2346.00,0.0182
2345.00,0.0185
2344.00,0.0190
2343.00,0.0194
2342.00,0.0197
2341.00,0.0200
2340.00,0.0202
2339.00,0.0202
2338.00,0.0203
2337.00,0.0203
2336.00,0.0203
2335.00,0.0203
2334.00,0.0203
2333.00,0.0203
2332.00,0.0203
2331.00,0.0205
2330.00,0.0207
2329.00,0.0209
2328.00,0.0211
2327.00,0.0212
2326.00,0.0212
2325.00,0.0211
2324.00,0.0210
2323.00,0.0210
2322.00,0.0209
2321.00,0.0210
2320.00,0.0210
2319.00,0.0211
2318.00,0.0211
2317.00,0.0211
2316.00,0.0209
2315.00,0.0208
2314.00,0.0206
2313.00,0.0206
2312.00,0.0206
2311.00,0.0206
2310.00,0.0206
2309.00,0.0206
2308.00,0.0206
2307.00,0.0206
2306.00,0.0205
2305.00,0.0204
2304.00,0.0204
2303.00,0.0203
2302.00,0.0203
2301.00,0.0203
2300.00,0.0203
2299.00,0.0203
2298.00,0.0203
2297.00,0.0203
2296.00,0.0203
2295.00,0.0204
2294.00,0.0204
2293.00,0.0204
2292.00,0.0205
2291.00,0.0205
2290.00,0.0206
2289.00,0.0207
2288.00,0.0207
2287.00,0.0207
2286.00,0.0206
2285.00,0.0206
2284.00,0.0205
2283.00,0.0205
2282.00,0.0205
2281.00,0.0205
2280.00,0.0204
2279.00,0.0204
2278.00,0.0204
2277.00,0.0203
2276.00,0.0203
2275.00,0.0202
2274.00,0.0202
2273.00,0.0202
2272.00,0.0203
2271.00,0.0203
2270.00,0.0203
2269.00,0.0203
2268.00,0.0203
2267.00,0.0203
2266.00,0.0204
2265.00,0.0205
2264.00,0.0206
2263.00,0.0207
2262.00,0.0207
2261.00,0.0208
2260.00,0.0208
2259.00,0.0207
2258.00,0.0206
2257.00,0.0205
2256.00,0.0204
2255.00,0.0204
2254.00,0.0204
2253.00,0.0205
2252.00,0.0205
2251.00,0.0204
2250.00,0.0204
2249.00,0.0203
2248.00,0.0203
2247.00,0.0203
2246.00,0.0203
2245.00,0.0204
2244.00,0.0204
2243.00,0.0205
2242.00,0.0205
2241.00,0.0205
2240.00,0.0205
2239.00,0.0205
2238.00,0.0205
2237.00,0.0205
2236.00,0.0205
2235.00,0.0206
2234.00,0.0206
2233.00,0.0207
2232.00,0.0207
2231.00,0.0207
2230.00,0.0207
2229.00,0.0207
2228.00,0.0207
2227.00,0.0206
2226.00,0.0206
2225.00,0.0205
2224.00,0.0205
2223.00,0.0205
2222.00,0.0206
2221.00,0.0207
2220.00,0.0208
2219.00,0.0207
2218.00,0.0207
2217.00,0.0207
2216.00,0.0206
2215.00,0.0207
2214.00,0.0207
2213.00,0.0207
2212.00,0.0207
2211.00,0.0206
2210.00,0.0206
2209.00,0.0207
2208.00,0.0207
2207.00,0.0206
2206.00,0.0205
2205.00,0.0203
2204.00,0.0202
2203.00,0.0202
2202.00,0.0203
2201.00,0.0205
2200.00,0.0206
2199.00,0.0207
2198.00,0.0208
2197.00,0.0208
2196.00,0.0208
2195.00,0.0207
2194.00,0.0207
2193.00,0.0207
2192.00,0.0207
2191.00,0.0206
2190.00,0.0206
2189.00,0.0207
2188.00,0.0208
2187.00,0.0210
2186.00,0.0210
2185.00,0.0209
2184.00,0.0207
2183.00,0.0205
2182.00,0.0205
2181.00,0.0206
2180.00,0.0207
2179.00,0.0207
2178.00,0.0206
2177.00,0.0204
2176.00,0.0202
2175.00,0.0202
2174.00,0.0203
2173.00,0.0204
2172.00,0.0205
2171.00,0.0206
2170.00,0.0208
2169.00,0.0209
2168.00,0.0209
2167.00,0.0209
2166.00,0.0209
2165.00,0.0209
2164.00,0.0209
2163.00,0.0208
2162.00,0.0206
2161.00,0.0203
2160.00,0.0200
2159.00,0.0199
2158.00,0.0200
2157.00,0.0201
2156.00,0.0201
2155.00,0.0199
2154.00,0.0198
2153.00,0.0198
2152.00,0.0198
2151.00,0.0198
2150.00,0.0197
2149.00,0.0197
2148.00,0.0198
2147.00,0.0199
2146.00,0.0199
2145.00,0.0198
2144.00,0.0197
2143.00,0.0196
2142.00,0.0196
2141.00,0.0197
2140.00,0.0197
2139.00,0.0197
2138.00,0.0196
2137.00,0.0194
2136.00,0.0192
2135.00,0.0192
2134.00,0.0192
2133.00,0.0192
2132.00,0.0192
2131.00,0.0192
2130.00,0.0192
2129.00,0.0193
2128.00,0.0194
2127.00,0.0194
2126.00,0.0194
2125.00,0.0194
2124.00,0.0194
2123.00,0.0193
2122.00,0.0193
2121.00,0.0193
2120.00,0.0194
2119.00,0.0194
2118.00,0.0194
2117.00,0.0194
2116.00,0.0193
2115.00,0.0192
2114.00,0.0192
2113.00,0.0193
2112.00,0.0194
2111.00,0.0194
2110.00,0.0195
2109.00,0.0195
2108.00,0.0194
2107.00,0.0194
2106.00,0.0194
2105.00,0.0195
2104.00,0.0195
2103.00,0.0194
2102.00,0.0194
2101.00,0.0194
2100.00,0.0193
2099.00,0.0193
2098.00,0.0193
2097.00,0.0192
2096.00,0.0192
2095.00,0.0192
2094.00,0.0192
2093.00,0.0192
2092.00,0.0192
2091.00,0.0192
2090.00,0.0191
2089.00,0.0191
2088.00,0.0190
2087.00,0.0190
2086.00,0.0190
2085.00,0.0190
2084.00,0.0190
2083.00,0.0190
2082.00,0.0189
2081.00,0.0189
2080.00,0.0188
2079.00,0.0189
2078.00,0.0190
2077.00,0.0191
2076.00,0.0191
2075.00,0.0191
2074.00,0.0190
2073.00,0.0189
2072.00,0.0189
2071.00,0.0189
2070.00,0.0190
2069.00,0.0190
2068.00,0.0190
2067.00,0.0189
2066.00,0.0188
2065.00,0.0188
2064.00,0.0188
2063.00,0.0188
2062.00,0.0188
2061.00,0.0188
2060.00,0.0188
2059.00,0.0188
2058.00,0.0188
2057.00,0.0189
2056.00,0.0189
2055.00,0.0190
2054.00,0.0190
2053.00,0.0190
2052.00,0.0190
2051.00,0.0190
2050.00,0.0190
2049.00,0.0190
2048.00,0.0190
2047.00,0.0190
2046.00,0.0191
2045.00,0.0191
2044.00,0.0192
2043.00,0.0191
2042.00,0.0191
2041.00,0.0191
2040.00,0.0191
2039.00,0.0191
2038.00,0.0193
2037.00,0.0197
2036.00,0.0199
2035.00,0.0200
2034.00,0.0199
2033.00,0.0198
2032.00,0.0196
2031.00,0.0194
2030.00,0.0195
2029.00,0.0195
2028.00,0.0195
2027.00,0.0194
2026.00,0.0192
2025.00,0.0191
2024.00,0.0189
2023.00,0.0188
2022.00,0.0188
2021.00,0.0189
2020.00,0.0190
2019.00,0.0192
2018.00,0.0193
2017.00,0.0192
2016.00,0.0192
2015.00,0.0192
2014.00,0.0194
2013.00,0.0195
2012.00,0.0195
2011.00,0.0194
2010.00,0.0191
2009.00,0.0190
2008.00,0.0188
2007.00,0.0188
2006.00,0.0188
2005.00,0.0188
2004.00,0.0189
2003.00,0.0189
2002.00,0.0188
2001.00,0.0188
2000.00,0.0189
1999.00,0.0190
1998.00,0.0190
1997.00,0.0191
1996.00,0.0190
1995.00,0.0190
1994.00,0.0190
1993.00,0.0191
1992.00,0.0190
1991.00,0.0190
1990.00,0.0188
1989.00,0.0187
1988.00,0.0185
1987.00,0.0185
1986.00,0.0186
1985.00,0.0188
1984.00,0.0189
1983.00,0.0190
1982.00,0.0191
1981.00,0.0191
1980.00,0.0191
1979.00,0.0190
1978.00,0.0188
1977.00,0.0187
1976.00,0.0186
1975.00,0.0185
1974.00,0.0184
1973.00,0.0184
1972.00,0.0184
1971.00,0.0185
1970.00,0.0185
1969.00,0.0186
1968.00,0.0185
1967.00,0.0184
1966.00,0.0185
1965.00,0.0185
1964.00,0.0185
1963.00,0.0185
1962.00,0.0183
1961.00,0.0182
1960.00,0.0181
1959.00,0.0180
1958.00,0.0180
1957.00,0.0179
1956.00,0.0179
1955.00,0.0179
1954.00,0.0179
1953.00,0.0179
1952.00,0.0179
1951.00,0.0178
1950.00,0.0178
1949.00,0.0177
1948.00,0.0178
1947.00,0.0178
1946.00,0.0179
1945.00,0.0179
1944.00,0.0179
1943.00,0.0179
1942.00,0.0178
1941.00,0.0177
1940.00,0.0176
1939.00,0.0175
1938.00,0.0174
1937.00,0.0173
1936.00,0.0173
1935.00,0.0174
1934.00,0.0174
1933.00,0.0175
1932.00,0.0175
1931.00,0.0174
1930.00,0.0173
1929.00,0.0172
1928.00,0.0171
1927.00,0.0170
1926.00,0.0171
1925.00,0.0171
1924.00,0.0170
1923.00,0.0170
1922.00,0.0170
1921.00,0.0170
1920.00,0.0171
1919.00,0.0171
1918.00,0.0170
1917.00,0.0170
1916.00,0.0169
1915.00,0.0169
1914.00,0.0169
1913.00,0.0169
1912.00,0.0168
1911.00,0.0168
1910.00,0.0167
1909.00,0.0167
1908.00,0.0167
1907.00,0.0167
1906.00,0.0168
1905.00,0.0168
1904.00,0.0167
1903.00,0.0167
1902.00,0.0167
1901.00,0.0167
1900.00,0.0166
1899.00,0.0166
1898.00,0.0166
1897.00,0.0166
1896.00,0.0165
1895.00,0.0165
1894.00,0.0165
1893.00,0.0165
1892.00,0.0164
1891.00,0.0163
1890.00,0.0161
1889.00,0.0160
1888.00,0.0160
1887.00,0.0161
1886.00,0.0161
1885.00,0.0162
1884.00,0.0162
1883.00,0.0162
1882.00,0.0162
1881.00,0.0161
1880.00,0.0160
1879.00,0.0159
1878.00,0.0159
1877.00,0.0160
1876.00,0.0160
1875.00,0.0160
1874.00,0.0160
1873.00,0.0160
1872.00,0.0160
1871.00,0.0160
1870.00,0.0161
1869.00,0.0160
1868.00,0.0158
1867.00,0.0157
1866.00,0.0157
1865.00,0.0157
1864.00,0.0157
1863.00,0.0156
1862.00,0.0156
1861.00,0.0155
1860.00,0.0155
1859.00,0.0156
1858.00,0.0156
1857.00,0.0156
1856.00,0.0155
1855.00,0.0154
1854.00,0.0154
1853.00,0.0154
1852.00,0.0154
1851.00,0.0154
1850.00,0.0154
1849.00,0.0153
1848.00,0.0153
1847.00,0.0153
1846.00,0.0153
1845.00,0.0153
1844.00,0.0151
1843.00,0.0150
1842.00,0.0150
1841.00,0.0150
1840.00,0.0150
1839.00,0.0150
1838.00,0.0149
1837.00,0.0149
1836.00,0.0149
1835.00,0.0149
1834.00,0.0149
1833.00,0.0150
1832.00,0.0150
1831.00,0.0150
1830.00,0.0148
1829.00,0.0146
1828.00,0.0145
1827.00,0.0144
1826.00,0.0144
1825.00,0.0143
1824.00,0.0143
1823.00,0.0144
1822.00,0.0145
1821.00,0.0145
1820.00,0.0145
1819.00,0.0145
1818.00,0.0144
1817.00,0.0143
1816.00,0.0143
1815.00,0.0142
1814.00,0.0142
1813.00,0.0142
1812.00,0.0141
1811.00,0.0140
1810.00,0.0140
1809.00,0.0140
1808.00,0.0140
1807.00,0.0140
1806.00,0.0140
1805.00,0.0140
1804.00,0.0140
1803.00,0.0139
1802.00,0.0139
1801.00,0.0139
1800.00,0.0138
1799.00,0.0139
1798.00,0.0140
1797.00,0.0141
1796.00,0.0142
1795.00,0.0142
1794.00,0.0142
1793.00,0.0142
1792.00,0.0140
1791.00,0.0138
1790.00,0.0138
1789.00,0.0138
1788.00,0.0139
1787.00,0.0139
1786.00,0.0139
1785.00,0.0139
1784.00,0.0139
1783.00,0.0139
1782.00,0.0139
1781.00,0.0139
1780.00,0.0139
1779.00,0.0140
1778.00,0.0140
1777.00,0.0142
1776.00,0.0143
1775.00,0.0144
1774.00,0.0145
1773.00,0.0145
1772.00,0.0144
1771.00,0.0142
1770.00,0.0142
1769.00,0.0143
1768.00,0.0144
1767.00,0.0144
1766.00,0.0145
1765.00,0.0146
1764.00,0.0146
1763.00,0.0146
1762.00,0.0145
1761.00,0.0145
1760.00,0.0145
1759.00,0.0146
1758.00,0.0146
1757.00,0.0146
1756.00,0.0146
1755.00,0.0147
1754.00,0.0148
1753.00,0.0150
1752.00,0.0151
1751.00,0.0151
1750.00,0.0150
1749.00,0.0150
1748.00,0.0149
1747.00,0.0150
1746.00,0.0150
1745.00,0.0150
1744.00,0.0151
1743.00,0.0152
1742.00,0.0153
1741.00,0.0156
1740.00,0.0158
1739.00,0.0158
1738.00,0.0159
1737.00,0.0162
1736.00,0.0166
1735.00,0.0169
1734.00,0.0169
1733.00,0.0166
1732.00,0.0165
1731.00,0.0165
1730.00,0.0166
1729.00,0.0167
1728.00,0.0170
1727.00,0.0172
1726.00,0.0173
1725.00,0.0175
1724.00,0.0177
1723.00,0.0179
1722.00,0.0180
1721.00,0.0181
1720.00,0.0181
1719.00,0.0182
1718.00,0.0184
1717.00,0.0186
1716.00,0.0187
1715.00,0.0186
1714.00,0.0187
1713.00,0.0188
1712.00,0.0189
1711.00,0.0190
1710.00,0.0191
1709.00,0.0193
1708.00,0.0194
1707.00,0.0195
1706.00,0.0195
1705.00,0.0196
1704.00,0.0197
1703.00,0.0198
1702.00,0.0201
1701.00,0.0205
1700.00,0.0207
1699.00,0.0207
1698.00,0.0207
1697.00,0.0207
1696.00,0.0206
1695.00,0.0204
1694.00,0.0205
1693.00,0.0206
1692.00,0.0207
1691.00,0.0208
1690.00,0.0208
1689.00,0.0209
1688.00,0.0210
1687.00,0.0210
1686.00,0.0208
1685.00,0.0207
1684.00,0.0205
1683.00,0.0205
1682.00,0.0208
1681.00,0.0211
1680.00,0.0213
1679.00,0.0215
1678.00,0.0217
1677.00,0.0219
1676.00,0.0221
1675.00,0.0223
1674.00,0.0223
1673.00,0.0223
1672.00,0.0224
1671.00,0.0226
1670.00,0.0227
1669.00,0.0228
1668.00,0.0228
1667.00,0.0229
1666.00,0.0230
1665.00,0.0232
1664.00,0.0234
1663.00,0.0236
1662.00,0.0238
1661.00,0.0239
1660.00,0.0240
1659.00,0.0242
1658.00,0.0243
1657.00,0.0243
1656.00,0.0243
1655.00,0.0243
1654.00,0.0246
1653.00,0.0249
1652.00,0.0250
1651.00,0.0251
1650.00,0.0252
1649.00,0.0254
1648.00,0.0258
1647.00,0.0262
1646.00,0.0264
1645.00,0.0264
1644.00,0.0265
1643.00,0.0266
1642.00,0.0267
1641.00,0.0269
1640.00,0.0270
1639.00,0.0270
1638.00,0.0271
1637.00,0.0274
1636.00,0.0276
1635.00,0.0278
1634.00,0.0280
1633.00,0.0281
1632.00,0.0283
1631.00,0.0284
1630.00,0.0285
1629.00,0.0286
1628.00,0.0288
1627.00,0.0289
1626.00,0.0291
1625.00,0.0293
1624.00,0.0295
1623.00,0.0297
1622.00,0.0299
1621.00,0.0299
1620.00,0.0299
1619.00,0.0300
1618.00,0.0303
1617.00,0.0305
1616.00,0.0306
1615.00,0.0306
1614.00,0.0306
1613.00,0.0307
1612.00,0.0309
1611.00,0.0310
1610.00,0.0312
1609.00,0.0313
1608.00,0.0315
1607.00,0.0316
1606.00,0.0316
1605.00,0.0316
1604.00,0.0317
1603.00,0.0318
1602.00,0.0319
1601.00,0.0319
1600.00,0.0320
1599.00,0.0320
1598.00,0.0321
1597.00,0.0322
1596.00,0.0322
1595.00,0.0323
1594.00,0.0323
1593.00,0.0323
1592.00,0.0324
1591.00,0.0324
1590.00,0.0325
1589.00,0.0325
1588.00,0.0325
1587.00,0.0326
1586.00,0.0326
1585.00,0.0326
1584.00,0.0326
1583.00,0.0326
1582.00,0.0327
1581.00,0.0327
1580.00,0.0327
1579.00,0.0326
1578.00,0.0327
1577.00,0.0328
1576.00,0.0329
1575.00,0.0329
1574.00,0.0328
1573.00,0.0327
1572.00,0.0326
1571.00,0.0326
1570.00,0.0327
1569.00,0.0327
1568.00,0.0326
1567.00,0.0326
1566.00,0.0326
1565.00,0.0326
1564.00,0.0325
1563.00,0.0323
1562.00,0.0319
1561.00,0.0313
1560.00,0.0311
1559.00,0.0319
1558.00,0.0322
1557.00,0.0322
1556.00,0.0322
1555.00,0.0322
1554.00,0.0321
1553.00,0.0319
1552.00,0.0317
1551.00,0.0315
1550.00,0.0313
1549.00,0.0313
1548.00,0.0312
1547.00,0.0311
1546.00,0.0311
1545.00,0.0310
1544.00,0.0310
1543.00,0.0310
1542.00,0.0310
1541.00,0.0309
1540.00,0.0304
1539.00,0.0298
1538.00,0.0296
1537.00,0.0296
1536.00,0.0296
1535.00,0.0296
1534.00,0.0295
1533.00,0.0294
1532.00,0.0293
1531.00,0.0293
1530.00,0.0293
1529.00,0.0293
1528.00,0.0293
1527.00,0.0293
1526.00,0.0294
1525.00,0.0294
1524.00,0.0293
1523.00,0.0292
1522.00,0.0291
1521.00,0.0289
1520.00,0.0286
1519.00,0.0283
1518.00,0.0282
1517.00,0.0282
1516.00,0.0282
1515.00,0.0282
1514.00,0.0283
1513.00,0.0283
1512.00,0.0282
1511.00,0.0280
1510.00,0.0278
1509.00,0.0277
1508.00,0.0278
1507.00,0.0277
1506.00,0.0275
1505.00,0.0275
1504.00,0.0276
1503.00,0.0276
1502.00,0.0275
1501.00,0.0274
1500.00,0.0273
1499.00,0.0272
1498.00,0.0271
1497.00,0.0272
1496.00,0.0272
1495.00,0.0271
1494.00,0.0271
1493.00,0.0272
1492.00,0.0272
1491.00,0.0273
1490.00,0.0272
1489.00,0.0271
1488.00,0.0269
1487.00,0.0268
1486.00,0.0267
1485.00,0.0267
1484.00,0.0268
1483.00,0.0268
1482.00,0.0268
1481.00,0.0268
1480.00,0.0268
1479.00,0.0268
1478.00,0.0267
1477.00,0.0267
1476.00,0.0268
1475.00,0.0270
1474.00,0.0273
1473.00,0.0275
1472.00,0.0273
1471.00,0.0270
1470.00,0.0269
1469.00,0.0269
1468.00,0.0268
1467.00,0.0268
1466.00,0.0269
1465.00,0.0269
1464.00,0.0270
1463.00,0.0269
1462.00,0.0268
1461.00,0.0268
1460.00,0.0267
1459.00,0.0268
1458.00,0.0271
1457.00,0.0275
1456.00,0.0274
1455.00,0.0273
1454.00,0.0272
1453.00,0.0272
1452.00,0.0273
1451.00,0.0274
1450.00,0.0275
1449.00,0.0276
1448.00,0.0277
1447.00,0.0277
1446.00,0.0277
1445.00,0.0277
1444.00,0.0277
1443.00,0.0277
1442.00,0.0278
1441.00,0.0278
1440.00,0.0279
1439.00,0.0279
1438.00,0.0280
1437.00,0.0281
1436.00,0.0281
1435.00,0.0281
1434.00,0.0281
1433.00,0.0280
1432.00,0.0281
1431.00,0.0281
1430.00,0.0282
1429.00,0.0283
1428.00,0.0283
1427.00,0.0284
1426.00,0.0283
1425.00,0.0283
1424.00,0.0284
1423.00,0.0285
1422.00,0.0284
1421.00,0.0284
1420.00,0.0283
1419.00,0.0284
1418.00,0.0284
1417.00,0.0285
1416.00,0.0286
1415.00,0.0286
1414.00,0.0286
1413.00,0.0286
1412.00,0.0287
1411.00,0.0287
1410.00,0.0287
1409.00,0.0287
1408.00,0.0287
1407.00,0.0286
1406.00,0.0286
1405.00,0.0287
1404.00,0.0288
1403.00,0.0288
1402.00,0.0289
1401.00,0.0289
1400.00,0.0290
1399.00,0.0291
1398.00,0.0291
1397.00,0.0291
1396.00,0.0292
1395.00,0.0292
1394.00,0.0292
1393.00,0.0292
1392.00,0.0293
1391.00,0.0294
1390.00,0.0294
1389.00,0.0294
1388.00,0.0294
1387.00,0.0295
1386.00,0.0295
1385.00,0.0295
1384.00,0.0295
1383.00,0.0296
1382.00,0.0296
1381.00,0.0297
1380.00,0.0297
1379.00,0.0297
1378.00,0.0297
1377.00,0.0297
1376.00,0.0296
1375.00,0.0297
1374.00,0.0298
1373.00,0.0298
1372.00,0.0299
1371.00,0.0300
1370.00,0.0300
1369.00,0.0300
1368.00,0.0300
1367.00,0.0300
1366.00,0.0300
1365.00,0.0299
1364.00,0.0298
1363.00,0.0298
1362.00,0.0298
1361.00,0.0299
1360.00,0.0299
1359.00,0.0299
1358.00,0.0299
1357.00,0.0299
1356.00,0.0299
1355.00,0.0299
1354.00,0.0299
1353.00,0.0299
1352.00,0.0299
1351.00,0.0299
1350.00,0.0299
1349.00,0.0300
1348.00,0.0300
1347.00,0.0300
1346.00,0.0299
1345.00,0.0299
1344.00,0.0299
1343.00,0.0299
1342.00,0.0298
1341.00,0.0298
1340.00,0.0298
1339.00,0.0298
1338.00,0.0298
1337.00,0.0298
1336.00,0.0298
1335.00,0.0298
1334.00,0.0298
1333.00,0.0298
1332.00,0.0298
1331.00,0.0299
1330.00,0.0299
1329.00,0.0299
1328.00,0.0298
1327.00,0.0298
1326.00,0.0298
1325.00,0.0298
1324.00,0.0299
1323.00,0.0299
1322.00,0.0299
1321.00,0.0300
1320.00,0.0300
1319.00,0.0300
1318.00,0.0300
1317.00,0.0300
1316.00,0.0300
1315.00,0.0301
1314.00,0.0301
1313.00,0.0301
1312.00,0.0301
1311.00,0.0301
1310.00,0.0301
1309.00,0.0301
1308.00,0.0302
1307.00,0.0302
1306.00,0.0302
1305.00,0.0302
1304.00,0.0302
1303.00,0.0303
1302.00,0.0303
1301.00,0.0304
1300.00,0.0304
1299.00,0.0304
1298.00,0.0304
1297.00,0.0304
1296.00,0.0304
1295.00,0.0305
1294.00,0.0305
1293.00,0.0306
1292.00,0.0306
1291.00,0.0306
1290.00,0.0307
1289.00,0.0306
1288.00,0.0306
1287.00,0.0306
1286.00,0.0307
1285.00,0.0307
1284.00,0.0307
1283.00,0.0308
1282.00,0.0308
1281.00,0.0309
1280.00,0.0309
1279.00,0.0310
1278.00,0.0310
1277.00,0.0310
1276.00,0.0310
1275.00,0.0310
1274.00,0.0310
1273.00,0.0310
1272.00,0.0311
1271.00,0.0311
1270.00,0.0311
1269.00,0.0311
1268.00,0.0311
1267.00,0.0312
1266.00,0.0312
1265.00,0.0312
1264.00,0.0312
1263.00,0.0312
1262.00,0.0313
1261.00,0.0313
1260.00,0.0314
1259.00,0.0314
1258.00,0.0315
1257.00,0.0315
1256.00,0.0315
1255.00,0.0315
1254.00,0.0315
1253.00,0.0315
1252.00,0.0315
1251.00,0.0315
1250.00,0.0316
1249.00,0.0316
1248.00,0.0317
1247.00,0.0318
1246.00,0.0318
1245.00,0.0319
1244.00,0.0319
1243.00,0.0319
1242.00,0.0320
1241.00,0.0320
1240.00,0.0321
1239.00,0.0322
1238.00,0.0323
1237.00,0.0323
1236.00,0.0324
1235.00,0.0325
1234.00,0.0325
1233.00,0.0326
1232.00,0.0327
1231.00,0.0328
1230.00,0.0329
1229.00,0.0330
1228.00,0.0332
1227.00,0.0332
1226.00,0.0333
1225.00,0.0334
1224.00,0.0335
1223.00,0.0336
1222.00,0.0337
1221.00,0.0338
1220.00,0.0339
1219.00,0.0339
1218.00,0.0339
1217.00,0.0339
1216.00,0.0340
1215.00,0.0340
1214.00,0.0342
1213.00,0.0343
1212.00,0.0344
1211.00,0.0345
1210.00,0.0346
1209.00,0.0347
1208.00,0.0347
1207.00,0.0348
1206.00,0.0349
1205.00,0.0350
1204.00,0.0350
1203.00,0.0351
1202.00,0.0353
1201.00,0.0354
1200.00,0.0355
1199.00,0.0356
1198.00,0.0356
1197.00,0.0357
1196.00,0.0358
1195.00,0.0358
1194.00,0.0358
1193.00,0.0359
1192.00,0.0359
1191.00,0.0360
1190.00,0.0360
1189.00,0.0361
1188.00,0.0361
1187.00,0.0361
1186.00,0.0362
1185.00,0.0363
1184.00,0.0364
1183.00,0.0364
1182.00,0.0365
1181.00,0.0365
1180.00,0.0365
1179.00,0.0366
1178.00,0.0368
1177.00,0.0369
1176.00,0.0369
1175.00,0.0369
1174.00,0.0369
1173.00,0.0368
1172.00,0.0368
1171.00,0.0368
1170.00,0.0368
1169.00,0.0369
1168.00,0.0370
1167.00,0.0371
1166.00,0.0372
1165.00,0.0372
1164.00,0.0373
1163.00,0.0374
1162.00,0.0375
1161.00,0.0375
1160.00,0.0374
1159.00,0.0374
1158.00,0.0374
1157.00,0.0374
1156.00,0.0375
1155.00,0.0376
1154.00,0.0377
1153.00,0.0378
1152.00,0.0379
1151.00,0.0379
1150.00,0.0379
1149.00,0.0379
1148.00,0.0380
1147.00,0.0380
1146.00,0.0381
1145.00,0.0381
1144.00,0.0382
1143.00,0.0382
1142.00,0.0383
1141.00,0.0383
1140.00,0.0384
1139.00,0.0386
1138.00,0.0386
1137.00,0.0386
1136.00,0.0386
1135.00,0.0387
1134.00,0.0387
1133.00,0.0388
1132.00,0.0389
1131.00,0.0389
1130.00,0.0389
1129.00,0.0390
1128.00,0.0391
1127.00,0.0392
1126.00,0.0392
1125.00,0.0393
1124.00,0.0393
1123.00,0.0394
1122.00,0.0395
1121.00,0.0396
1120.00,0.0397
1119.00,0.0399
1118.00,0.0400
1117.00,0.0401
1116.00,0.0402
1115.00,0.0403
1114.00,0.0403
1113.00,0.0403
1112.00,0.0403
1111.00,0.0405
1110.00,0.0406
1109.00,0.0407
1108.00,0.0407
1107.00,0.0408
1106.00,0.0409
1105.00,0.0410
1104.00,0.0411
1103.00,0.0413
1102.00,0.0414
1101.00,0.0416
1100.00,0.0417
1099.00,0.0419
1098.00,0.0419
1097.00,0.0420
1096.00,0.0422
1095.00,0.0423
1094.00,0.0423
1093.00,0.0425
1092.00,0.0427
1091.00,0.0429
1090.00,0.0431
1089.00,0.0432
1088.00,0.0433
1087.00,0.0434
1086.00,0.0435
1085.00,0.0436
1084.00,0.0437
1083.00,0.0438
1082.00,0.0439
1081.00,0.0440
1080.00,0.0441
1079.00,0.0443
1078.00,0.0444
1077.00,0.0446
1076.00,0.0448
1075.00,0.0450
1074.00,0.0452
1073.00,0.0453
1072.00,0.0454
1071.00,0.0454
1070.00,0.0454
1069.00,0.0455
1068.00,0.0457
1067.00,0.0458
1066.00,0.0458
1065.00,0.0458
1064.00,0.0459
1063.00,0.0460
1062.00,0.0462
1061.00,0.0463
1060.00,0.0463
1059.00,0.0464
1058.00,0.0465
1057.00,0.0466
1056.00,0.0466
1055.00,0.0467
1054.00,0.0467
1053.00,0.0468
1052.00,0.0470
1051.00,0.0472
1050.00,0.0474
1049.00,0.0475
1048.00,0.0476
1047.00,0.0476
1046.00,0.0475
1045.00,0.0475
1044.00,0.0475
1043.00,0.0476
1042.00,0.0476
1041.00,0.0476
1040.00,0.0476
1039.00,0.0476
1038.00,0.0476
1037.00,0.0475
1036.00,0.0474
1035.00,0.0474
1034.00,0.0475
1033.00,0.0475
1032.00,0.0475
1031.00,0.0475
1030.00,0.0474
1029.00,0.0474
1028.00,0.0474
1027.00,0.0474
1026.00,0.0473
1025.00,0.0473
1024.00,0.0472
1023.00,0.0471
1022.00,0.0470
1021.00,0.0470
1020.00,0.0469
1019.00,0.0469
1018.00,0.0467
1017.00,0.0466
1016.00,0.0465
1015.00,0.0465
1014.00,0.0463
1013.00,0.0463
1012.00,0.0462
1011.00,0.0462
1010.00,0.0462
1009.00,0.0460
1008.00,0.0458
1007.00,0.0456
1006.00,0.0454
1005.00,0.0452
1004.00,0.0451
1003.00,0.0450
1002.00,0.0450
1001.00,0.0449
1000.00,0.0448
999.00,0.0447
998.00,0.0445
997.00,0.0444
996.00,0.0442
995.00,0.0440
994.00,0.0438
993.00,0.0437
992.00,0.0436
991.00,0.0435
990.00,0.0434
989.00,0.0431
988.00,0.0429
987.00,0.0427
986.00,0.0426
985.00,0.0424
984.00,0.0422
983.00,0.0421
982.00,0.0419
981.00,0.0419
980.00,0.0418
979.00,0.0417
978.00,0.0415
977.00,0.0413
976.00,0.0412
975.00,0.0410
974.00,0.0408
973.00,0.0407
972.00,0.0405
971.00,0.0403
970.00,0.0401
969.00,0.0399
968.00,0.0398
967.00,0.0396
966.00,0.0396
965.00,0.0395
964.00,0.0394
963.00,0.0393
962.00,0.0392
961.00,0.0390
960.00,0.0389
959.00,0.0388
958.00,0.0387
957.00,0.0386
956.00,0.0384
955.00,0.0383
954.00,0.0382
953.00,0.0381
952.00,0.0381
951.00,0.0380
950.00,0.0379
949.00,0.0378
948.00,0.0377
947.00,0.0376
946.00,0.0376
945.00,0.0376
944.00,0.0376
943.00,0.0376
942.00,0.0375
941.00,0.0376
940.00,0.0377
939.00,0.0377
938.00,0.0377
937.00,0.0376
936.00,0.0376
935.00,0.0376
934.00,0.0377
933.00,0.0376
932.00,0.0375
931.00,0.0374
930.00,0.0374
929.00,0.0375
928.00,0.0375
927.00,0.0375
926.00,0.0375
925.00,0.0376
924.00,0.0376
923.00,0.0377
922.00,0.0376
921.00,0.0375
920.00,0.0375
919.00,0.0376
918.00,0.0378
917.00,0.0381
916.00,0.0382
915.00,0.0381
914.00,0.0379
913.00,0.0378
912.00,0.0378
911.00,0.0379
910.00,0.0378
909.00,0.0378
908.00,0.0377
907.00,0.0378
906.00,0.0380
905.00,0.0381
904.00,0.0381
903.00,0.0381
902.00,0.0380
901.00,0.0381
900.00,0.0383
899.00,0.0384
898.00,0.0384
897.00,0.0383
896.00,0.0383
895.00,0.0383
894.00,0.0383
893.00,0.0383
892.00,0.0382
891.00,0.0382
890.00,0.0383
889.00,0.0384
888.00,0.0385
887.00,0.0384
886.00,0.0383
885.00,0.0382
884.00,0.0382
883.00,0.0383
882.00,0.0383
881.00,0.0382
880.00,0.0381
879.00,0.0382
878.00,0.0383
877.00,0.0385
876.00,0.0383
875.00,0.0380
874.00,0.0378
873.00,0.0377
872.00,0.0379
871.00,0.0381
870.00,0.0381
869.00,0.0381
868.00,0.0381
867.00,0.0381
866.00,0.0381
865.00,0.0380
864.00,0.0379
863.00,0.0377
862.00,0.0376
861.00,0.0377
860.00,0.0378
859.00,0.0379
858.00,0.0379
857.00,0.0378
856.00,0.0377
855.00,0.0378
854.00,0.0378
853.00,0.0378
852.00,0.0376
851.00,0.0375
850.00,0.0375
849.00,0.0378
848.00,0.0381
847.00,0.0381
846.00,0.0379
845.00,0.0378
844.00,0.0379
843.00,0.0381
842.00,0.0381
841.00,0.0381
840.00,0.0381
839.00,0.0382
838.00,0.0383
837.00,0.0384
836.00,0.0384
835.00,0.0384
834.00,0.0382
833.00,0.0381
832.00,0.0382
831.00,0.0384
830.00,0.0386
829.00,0.0388
828.00,0.0388
827.00,0.0389
826.00,0.0391
825.00,0.0392
824.00,0.0392
823.00,0.0392
822.00,0.0393
821.00,0.0395
820.00,0.0396
819.00,0.0396
818.00,0.0397
817.00,0.0399
816.00,0.0401
815.00,0.0402
814.00,0.0402
813.00,0.0402
812.00,0.0402
811.00,0.0401
810.00,0.0401
809.00,0.0402
808.00,0.0404
807.00,0.0406
806.00,0.0407
805.00,0.0407
804.00,0.0406
803.00,0.0406
802.00,0.0406
801.00,0.0406
800.00,0.0405
799.00,0.0404
798.00,0.0406
797.00,0.0408
796.00,0.0412
795.00,0.0414
794.00,0.0415
793.00,0.0415
792.00,0.0414
791.00,0.0414
790.00,0.0414
789.00,0.0414
788.00,0.0414
787.00,0.0413
786.00,0.0413
785.00,0.0414
784.00,0.0415
783.00,0.0416
782.00,0.0418
781.00,0.0420
780.00,0.0422
779.00,0.0424
778.00,0.0426
777.00,0.0427
776.00,0.0425
775.00,0.0422
774.00,0.0422
773.00,0.0423
772.00,0.0425
771.00,0.0425
770.00,0.0424
769.00,0.0425
768.00,0.0428
767.00,0.0431
766.00,0.0433
765.00,0.0435
764.00,0.0435
763.00,0.0435
762.00,0.0434
761.00,0.0435
760.00,0.0437
759.00,0.0438
758.00,0.0438
757.00,0.0438
756.00,0.0438
755.00,0.0439
754.00,0.0439
753.00,0.0438
752.00,0.0435
751.00,0.0433
750.00,0.0435
749.00,0.0438
748.00,0.0442
747.00,0.0444
746.00,0.0444
745.00,0.0443
744.00,0.0443
743.00,0.0443
742.00,0.0442
741.00,0.0441
740.00,0.0440
739.00,0.0440
738.00,0.0441
737.00,0.0444
736.00,0.0445
735.00,0.0444
734.00,0.0442
733.00,0.0442
732.00,0.0444
731.00,0.0447
730.00,0.0447
729.00,0.0447
728.00,0.0447
727.00,0.0449
726.00,0.0450
725.00,0.0449
724.00,0.0446
723.00,0.0444
722.00,0.0447
721.00,0.0451
720.00,0.0454
719.00,0.0452
718.00,0.0449
717.00,0.0449
716.00,0.0453
715.00,0.0457
714.00,0.0458
713.00,0.0456
712.00,0.0454
711.00,0.0455
710.00,0.0459
709.00,0.0462
708.00,0.0462
707.00,0.0460
706.00,0.0459
705.00,0.0459
704.00,0.0462
703.00,0.0464
702.00,0.0465
701.00,0.0464
700.00,0.0463
699.00,0.0463
698.00,0.0464
697.00,0.0465
696.00,0.0465
695.00,0.0464
694.00,0.0464
693.00,0.0464
692.00,0.0465
691.00,0.0466
690.00,0.0467
689.00,0.0469
688.00,0.0472
687.00,0.0476
686.00,0.0479
685.00,0.0480
684.00,0.0481
683.00,0.0479
682.00,0.0478
681.00,0.0478
680.00,0.0479
679.00,0.0480
678.00,0.0481
677.00,0.0481
676.00,0.0482
675.00,0.0486
674.00,0.0489
673.00,0.0492
672.00,0.0492
671.00,0.0493
670.00,0.0498
669.00,0.0508
668.00,0.0520
667.00,0.0520
666.00,0.0509
665.00,0.0498
664.00,0.0493
663.00,0.0494
662.00,0.0496
661.00,0.0496
660.00,0.0496
659.00,0.0499
658.00,0.0500
657.00,0.0499
656.00,0.0496
655.00,0.0495
654.00,0.0496
653.00,0.0499
652.00,0.0501
651.00,0.0501
650.00,0.0500
