Created as New Dataset,Monday, April 03 2023
cm-1,A
4000.00,0.0103
3999.00,0.0103
3998.00,0.0103
3997.00,0.0103
3996.00,0.0103
3995.00,0.0103
3994.00,0.0103
3993.00,0.0104
3992.00,0.0104
3991.00,0.0104
3990.00,0.0104
3989.00,0.0103
3988.00,0.0103
3987.00,0.0103
3986.00,0.0103
3985.00,0.0103
3984.00,0.0103
3983.00,0.0103
3982.00,0.0103
3981.00,0.0103
3980.00,0.0103
3979.00,0.0104
3978.00,0.0104
3977.00,0.0104
3976.00,0.0104
3975.00,0.0103
3974.00,0.0103
3973.00,0.0103
3972.00,0.0103
3971.00,0.0103
3970.00,0.0102
3969.00,0.0102
3968.00,0.0102
3967.00,0.0102
3966.00,0.0102
3965.00,0.0103
3964.00,0.0103
3963.00,0.0104
3962.00,0.0104
3961.00,0.0103
3960.00,0.0103
3959.00,0.0103
3958.00,0.0103
3957.00,0.0103
3956.00,0.0102
3955.00,0.0102
3954.00,0.0102
3953.00,0.0102
3952.00,0.0103
3951.00,0.0103
3950.00,0.0104
3949.00,0.0105
3948.00,0.0105
3947.00,0.0105
3946.00,0.0105
3945.00,0.0105
3944.00,0.0104
3943.00,0.0103
3942.00,0.0102
3941.00,0.0102
3940.00,0.0102
3939.00,0.0103
3938.00,0.0103
3937.00,0.0103
3936.00,0.0104
3935.00,0.0105
3934.00,0.0105
3933.00,0.0105
3932.00,0.0105
3931.00,0.0104
3930.00,0.0103
3929.00,0.0103
3928.00,0.0103
3927.00,0.0102
3926.00,0.0102
3925.00,0.0102
3924.00,0.0102
3923.00,0.0103
3922.00,0.0103
3921.00,0.0104
3920.00,0.0104
3919.00,0.0105
3918.00,0.0105
3917.00,0.0104
3916.00,0.0104
3915.00,0.0103
3914.00,0.0102
3913.00,0.0102
3912.00,0.0102
3911.00,0.0102
3910.00,0.0102
3909.00,0.0102
3908.00,0.0103
3907.00,0.0103
3906.00,0.0105
3905.00,0.0107
3904.00,0.0109
3903.00,0.0110
3902.00,0.0110
3901.00,0.0110
3900.00,0.0108
3899.00,0.0106
3898.00,0.0105
3897.00,0.0105
3896.00,0.0105
3895.00,0.0105
3894.00,0.0105
3893.00,0.0104
3892.00,0.0104
3891.00,0.0104
3890.00,0.0104
3889.00,0.0104
3888.00,0.0105
3887.00,0.0106
3886.00,0.0106
3885.00,0.0106
3884.00,0.0105
3883.00,0.0105
3882.00,0.0104
3881.00,0.0103
3880.00,0.0102
3879.00,0.0103
3878.00,0.0103
3877.00,0.0103
3876.00,0.0103
3875.00,0.0103
3874.00,0.0103
3873.00,0.0103
3872.00,0.0105
3871.00,0.0105
3870.00,0.0105
3869.00,0.0105
3868.00,0.0106
3867.00,0.0108
3866.00,0.0109
3865.00,0.0107
3864.00,0.0105
3863.00,0.0105
3862.00,0.0105
3861.00,0.0105
3860.00,0.0105
3859.00,0.0104
3858.00,0.0103
3857.00,0.0103
3856.00,0.0104
3855.00,0.0106
3854.00,0.0107
3853.00,0.0106
3852.00,0.0105
3851.00,0.0105
3850.00,0.0105
3849.00,0.0105
3848.00,0.0104
3847.00,0.0104
3846.00,0.0104
3845.00,0.0103
3844.00,0.0104
3843.00,0.0104
3842.00,0.0105
3841.00,0.0105
3840.00,0.0105
3839.00,0.0104
3838.00,0.0104
3837.00,0.0104
3836.00,0.0104
3835.00,0.0104
3834.00,0.0104
3833.00,0.0104
3832.00,0.0104
3831.00,0.0104
3830.00,0.0104
3829.00,0.0104
3828.00,0.0103
3827.00,0.0103
3826.00,0.0102
3825.00,0.0102
3824.00,0.0104
3823.00,0.0105
3822.00,0.0105
3821.00,0.0104
3820.00,0.0104
3819.00,0.0104
3818.00,0.0105
3817.00,0.0104
3816.00,0.0103
3815.00,0.0101
3814.00,0.0101
3813.00,0.0101
3812.00,0.0101
3811.00,0.0101
3810.00,0.0100
3809.00,0.0101
3808.00,0.0102
3807.00,0.0103
3806.00,0.0103
3805.00,0.0103
3804.00,0.0104
3803.00,0.0104
3802.00,0.0103
3801.00,0.0102
3800.00,0.0101
3799.00,0.0102
3798.00,0.0102
3797.00,0.0101
3796.00,0.0100
3795.00,0.0100
3794.00,0.0100
3793.00,0.0100
3792.00,0.0099
3791.00,0.0098
3790.00,0.0099
3789.00,0.0099
3788.00,0.0100
3787.00,0.0100
3786.00,0.0099
3785.00,0.0099
3784.00,0.0099
3783.00,0.0100
3782.00,0.0100
3781.00,0.0099
3780.00,0.0098
3779.00,0.0098
3778.00,0.0098
3777.00,0.0098
3776.00,0.0099
3775.00,0.0099
3774.00,0.0099
3773.00,0.0099
3772.00,0.0100
3771.00,0.0101
3770.00,0.0101
3769.00,0.0101
3768.00,0.0101
3767.00,0.0102
3766.00,0.0101
3765.00,0.0101
3764.00,0.0101
3763.00,0.0101
3762.00,0.0101
3761.00,0.0101
3760.00,0.0101
3759.00,0.0100
3758.00,0.0101
3757.00,0.0101
3756.00,0.0102
3755.00,0.0103
3754.00,0.0104
3753.00,0.0106
3752.00,0.0108
3751.00,0.0110
3750.00,0.0111
3749.00,0.0111
3748.00,0.0109
3747.00,0.0108
3746.00,0.0107
3745.00,0.0107
3744.00,0.0106
3743.00,0.0106
3742.00,0.0107
3741.00,0.0108
3740.00,0.0108
3739.00,0.0108
3738.00,0.0109
3737.00,0.0109
3736.00,0.0108
3735.00,0.0107
3734.00,0.0106
3733.00,0.0106
3732.00,0.0106
3731.00,0.0105
3730.00,0.0104
3729.00,0.0104
3728.00,0.0105
3727.00,0.0105
3726.00,0.0104
3725.00,0.0103
3724.00,0.0102
3723.00,0.0101
3722.00,0.0100
3721.00,0.0099
3720.00,0.0098
3719.00,0.0098
3718.00,0.0098
3717.00,0.0098
3716.00,0.0098
3715.00,0.0099
3714.00,0.0100
3713.00,0.0100
3712.00,0.0100
3711.00,0.0100
3710.00,0.0100
3709.00,0.0100
3708.00,0.0100
3707.00,0.0099
3706.00,0.0099
3705.00,0.0098
3704.00,0.0097
3703.00,0.0096
3702.00,0.0095
3701.00,0.0096
3700.00,0.0097
3699.00,0.0098
3698.00,0.0098
3697.00,0.0098
3696.00,0.0097
3695.00,0.0097
3694.00,0.0097
3693.00,0.0097
3692.00,0.0097
3691.00,0.0097
3690.00,0.0098
3689.00,0.0099
3688.00,0.0099
3687.00,0.0099
3686.00,0.0099
3685.00,0.0099
3684.00,0.0099
3683.00,0.0099
3682.00,0.0099
3681.00,0.0099
3680.00,0.0099
3679.00,0.0099
3678.00,0.0100
3677.00,0.0101
3676.00,0.0102
3675.00,0.0103
3674.00,0.0104
3673.00,0.0106
3672.00,0.0107
3671.00,0.0106
3670.00,0.0103
3669.00,0.0102
3668.00,0.0102
3667.00,0.0102
3666.00,0.0103
3665.00,0.0102
3664.00,0.0102
3663.00,0.0102
3662.00,0.0102
3661.00,0.0102
3660.00,0.0103
3659.00,0.0104
3658.00,0.0106
3657.00,0.0107
3656.00,0.0108
3655.00,0.0108
3654.00,0.0109
3653.00,0.0109
3652.00,0.0110
3651.00,0.0112
3650.00,0.0114
3649.00,0.0115
3648.00,0.0114
3647.00,0.0113
3646.00,0.0114
3645.00,0.0114
3644.00,0.0114
3643.00,0.0114
3642.00,0.0113
3641.00,0.0113
3640.00,0.0113
3639.00,0.0114
3638.00,0.0114
3637.00,0.0115
3636.00,0.0115
3635.00,0.0117
3634.00,0.0118
3633.00,0.0119
3632.00,0.0121
3631.00,0.0124
3630.00,0.0127
3629.00,0.0128
3628.00,0.0128
3627.00,0.0127
3626.00,0.0127
3625.00,0.0125
3624.00,0.0124
3623.00,0.0123
3622.00,0.0123
3621.00,0.0124
3620.00,0.0126
3619.00,0.0127
3618.00,0.0129
3617.00,0.0129
3616.00,0.0130
3615.00,0.0130
3614.00,0.0131
3613.00,0.0132
3612.00,0.0133
3611.00,0.0135
3610.00,0.0135
3609.00,0.0134
3608.00,0.0133
3607.00,0.0132
3606.00,0.0132
3605.00,0.0132
3604.00,0.0132
3603.00,0.0132
3602.00,0.0132
3601.00,0.0132
3600.00,0.0132
3599.00,0.0132
3598.00,0.0132
3597.00,0.0132
3596.00,0.0133
3595.00,0.0134
3594.00,0.0135
3593.00,0.0136
3592.00,0.0137
3591.00,0.0137
3590.00,0.0138
3589.00,0.0138
3588.00,0.0138
3587.00,0.0137
3586.00,0.0138
3585.00,0.0138
3584.00,0.0138
3583.00,0.0138
3582.00,0.0137
3581.00,0.0137
3580.00,0.0137
3579.00,0.0137
3578.00,0.0138
3577.00,0.0138
3576.00,0.0138
3575.00,0.0138
3574.00,0.0139
3573.00,0.0140
3572.00,0.0141
3571.00,0.0141
3570.00,0.0142
3569.00,0.0144
3568.00,0.0146
3567.00,0.0146
3566.00,0.0147
3565.00,0.0147
3564.00,0.0146
3563.00,0.0146
3562.00,0.0145
3561.00,0.0144
3560.00,0.0144
3559.00,0.0144
3558.00,0.0144
3557.00,0.0145
3556.00,0.0145
3555.00,0.0145
3554.00,0.0145
3553.00,0.0146
3552.00,0.0146
3551.00,0.0147
3550.00,0.0148
3549.00,0.0149
3548.00,0.0150
3547.00,0.0151
3546.00,0.0151
3545.00,0.0151
3544.00,0.0151
3543.00,0.0150
3542.00,0.0150
3541.00,0.0150
3540.00,0.0150
3539.00,0.0150
3538.00,0.0150
3537.00,0.0150
3536.00,0.0150
3535.00,0.0151
3534.00,0.0152
3533.00,0.0152
3532.00,0.0152
3531.00,0.0152
3530.00,0.0153
3529.00,0.0153
3528.00,0.0154
3527.00,0.0156
3526.00,0.0157
3525.00,0.0157
3524.00,0.0157
3523.00,0.0156
3522.00,0.0155
3521.00,0.0155
3520.00,0.0155
3519.00,0.0156
3518.00,0.0156
3517.00,0.0157
3516.00,0.0157
3515.00,0.0157
3514.00,0.0157
3513.00,0.0157
3512.00,0.0157
3511.00,0.0157
3510.00,0.0158
3509.00,0.0159
3508.00,0.0160
3507.00,0.0160
3506.00,0.0160
3505.00,0.0160
3504.00,0.0161
3503.00,0.0162
3502.00,0.0162
3501.00,0.0162
3500.00,0.0162
3499.00,0.0162
3498.00,0.0162
3497.00,0.0162
3496.00,0.0162
3495.00,0.0163
3494.00,0.0163
3493.00,0.0163
3492.00,0.0163
3491.00,0.0163
3490.00,0.0163
3489.00,0.0164
3488.00,0.0164
3487.00,0.0165
3486.00,0.0165
3485.00,0.0166
3484.00,0.0166
3483.00,0.0165
3482.00,0.0165
3481.00,0.0166
3480.00,0.0166
3479.00,0.0167
3478.00,0.0167
3477.00,0.0167
3476.00,0.0167
3475.00,0.0167
3474.00,0.0168
3473.00,0.0168
3472.00,0.0168
3471.00,0.0168
3470.00,0.0168
3469.00,0.0168
3468.00,0.0168
3467.00,0.0169
3466.00,0.0170
3465.00,0.0170
3464.00,0.0170
3463.00,0.0170
3462.00,0.0170
3461.00,0.0170
3460.00,0.0170
3459.00,0.0170
3458.00,0.0170
3457.00,0.0170
3456.00,0.0170
3455.00,0.0170
3454.00,0.0171
3453.00,0.0171
3452.00,0.0172
3451.00,0.0173
3450.00,0.0174
3449.00,0.0174
3448.00,0.0174
3447.00,0.0174
3446.00,0.0174
3445.00,0.0175
3444.00,0.0175
3443.00,0.0175
3442.00,0.0175
3441.00,0.0175
3440.00,0.0175
3439.00,0.0175
3438.00,0.0175
3437.00,0.0175
3436.00,0.0175
3435.00,0.0175
3434.00,0.0176
3433.00,0.0176
3432.00,0.0176
3431.00,0.0177
3430.00,0.0177
3429.00,0.0177
3428.00,0.0177
3427.00,0.0178
3426.00,0.0178
3425.00,0.0179
3424.00,0.0179
3423.00,0.0179
3422.00,0.0179
3421.00,0.0178
3420.00,0.0179
3419.00,0.0179
3418.00,0.0179
3417.00,0.0180
3416.00,0.0180
3415.00,0.0180
3414.00,0.0180
3413.00,0.0180
3412.00,0.0180
3411.00,0.0180
3410.00,0.0180
3409.00,0.0180
3408.00,0.0180
3407.00,0.0180
3406.00,0.0180
3405.00,0.0180
3404.00,0.0181
3403.00,0.0181
3402.00,0.0182
3401.00,0.0182
3400.00,0.0183
3399.00,0.0182
3398.00,0.0182
3397.00,0.0182
3396.00,0.0182
3395.00,0.0183
3394.00,0.0183
3393.00,0.0184
3392.00,0.0184
3391.00,0.0184
3390.00,0.0184
3389.00,0.0184
3388.00,0.0184
3387.00,0.0184
3386.00,0.0184
3385.00,0.0184
3384.00,0.0184
3383.00,0.0184
3382.00,0.0184
3381.00,0.0184
3380.00,0.0184
3379.00,0.0184
3378.00,0.0185
3377.00,0.0185
3376.00,0.0186
3375.00,0.0186
3374.00,0.0186
3373.00,0.0186
3372.00,0.0186
3371.00,0.0186
3370.00,0.0186
3369.00,0.0186
3368.00,0.0186
3367.00,0.0185
3366.00,0.0186
3365.00,0.0186
3364.00,0.0186
3363.00,0.0186
3362.00,0.0186
3361.00,0.0186
3360.00,0.0186
3359.00,0.0187
3358.00,0.0187
3357.00,0.0187
3356.00,0.0187
3355.00,0.0187
3354.00,0.0187
3353.00,0.0187
3352.00,0.0187
3351.00,0.0187
3350.00,0.0187
3349.00,0.0187
3348.00,0.0187
3347.00,0.0187
3346.00,0.0187
3345.00,0.0186
3344.00,0.0186
3343.00,0.0186
3342.00,0.0186
3341.00,0.0186
3340.00,0.0187
3339.00,0.0187
3338.00,0.0188
3337.00,0.0188
3336.00,0.0188
3335.00,0.0188
3334.00,0.0188
3333.00,0.0188
3332.00,0.0188
3331.00,0.0188
3330.00,0.0187
3329.00,0.0187
3328.00,0.0187
3327.00,0.0187
3326.00,0.0188
3325.00,0.0188
3324.00,0.0188
3323.00,0.0188
3322.00,0.0187
3321.00,0.0187
3320.00,0.0188
3319.00,0.0188
3318.00,0.0189
3317.00,0.0189
3316.00,0.0189
3315.00,0.0188
3314.00,0.0188
3313.00,0.0188
3312.00,0.0188
3311.00,0.0188
3310.00,0.0188
3309.00,0.0188
3308.00,0.0188
3307.00,0.0188
3306.00,0.0188
3305.00,0.0188
3304.00,0.0188
3303.00,0.0188
3302.00,0.0189
3301.00,0.0189
3300.00,0.0189
3299.00,0.0189
3298.00,0.0189
3297.00,0.0189
3296.00,0.0189
3295.00,0.0189
3294.00,0.0189
3293.00,0.0189
3292.00,0.0189
3291.00,0.0189
3290.00,0.0189
3289.00,0.0189
3288.00,0.0190
3287.00,0.0190
3286.00,0.0190
3285.00,0.0190
3284.00,0.0190
3283.00,0.0189
3282.00,0.0189
3281.00,0.0189
3280.00,0.0189
3279.00,0.0189
3278.00,0.0190
3277.00,0.0190
3276.00,0.0190
3275.00,0.0190
3274.00,0.0190
3273.00,0.0190
3272.00,0.0190
3271.00,0.0190
3270.00,0.0190
3269.00,0.0190
3268.00,0.0190
3267.00,0.0190
3266.00,0.0190
3265.00,0.0190
3264.00,0.0190
3263.00,0.0189
3262.00,0.0189
3261.00,0.0189
3260.00,0.0189
3259.00,0.0190
3258.00,0.0190
3257.00,0.0189
3256.00,0.0189
3255.00,0.0190
3254.00,0.0190
3253.00,0.0190
3252.00,0.0190
3251.00,0.0190
3250.00,0.0190
3249.00,0.0190
3248.00,0.0190
3247.00,0.0190
3246.00,0.0190
3245.00,0.0191
3244.00,0.0191
3243.00,0.0190
3242.00,0.0190
3241.00,0.0190
3240.00,0.0190
3239.00,0.0191
3238.00,0.0191
3237.00,0.0191
3236.00,0.0191
3235.00,0.0191
3234.00,0.0190
3233.00,0.0190
3232.00,0.0190
3231.00,0.0190
3230.00,0.0190
3229.00,0.0190
3228.00,0.0191
3227.00,0.0191
3226.00,0.0191
3225.00,0.0191
3224.00,0.0190
3223.00,0.0190
3222.00,0.0190
3221.00,0.0190
3220.00,0.0190
3219.00,0.0190
3218.00,0.0190
3217.00,0.0190
3216.00,0.0189
3215.00,0.0189
3214.00,0.0189
3213.00,0.0189
3212.00,0.0189
3211.00,0.0189
3210.00,0.0189
3209.00,0.0189
3208.00,0.0189
3207.00,0.0189
3206.00,0.0189
3205.00,0.0189
3204.00,0.0189
3203.00,0.0189
3202.00,0.0189
3201.00,0.0189
3200.00,0.0189
3199.00,0.0189
3198.00,0.0189
3197.00,0.0188
3196.00,0.0188
3195.00,0.0188
3194.00,0.0188
3193.00,0.0188
3192.00,0.0188
3191.00,0.0188
3190.00,0.0188
3189.00,0.0188
3188.00,0.0188
3187.00,0.0189
3186.00,0.0189
3185.00,0.0189
3184.00,0.0188
3183.00,0.0188
3182.00,0.0187
3181.00,0.0187
3180.00,0.0187
3179.00,0.0187
3178.00,0.0187
3177.00,0.0186
3176.00,0.0186
3175.00,0.0186
3174.00,0.0187
3173.00,0.0187
3172.00,0.0187
3171.00,0.0187
3170.00,0.0187
3169.00,0.0187
3168.00,0.0187
3167.00,0.0187
3166.00,0.0186
3165.00,0.0186
3164.00,0.0185
3163.00,0.0185
3162.00,0.0185
3161.00,0.0185
3160.00,0.0185
3159.00,0.0185
3158.00,0.0184
3157.00,0.0184
3156.00,0.0184
3155.00,0.0184
3154.00,0.0184
3153.00,0.0184
3152.00,0.0184
3151.00,0.0184
3150.00,0.0184
3149.00,0.0184
3148.00,0.0183
3147.00,0.0183
3146.00,0.0183
3145.00,0.0183
3144.00,0.0183
3143.00,0.0183
3142.00,0.0182
3141.00,0.0183
3140.00,0.0183
3139.00,0.0183
3138.00,0.0183
3137.00,0.0183
3136.00,0.0183
3135.00,0.0182
3134.00,0.0182
3133.00,0.0182
3132.00,0.0181
3131.00,0.0181
3130.00,0.0181
3129.00,0.0181
3128.00,0.0181
3127.00,0.0181
3126.00,0.0181
3125.00,0.0180
3124.00,0.0180
3123.00,0.0180
3122.00,0.0180
3121.00,0.0180
3120.00,0.0180
3119.00,0.0180
3118.00,0.0180
3117.00,0.0180
3116.00,0.0179
3115.00,0.0179
3114.00,0.0179
3113.00,0.0179
3112.00,0.0179
3111.00,0.0178
3110.00,0.0178
3109.00,0.0178
3108.00,0.0178
3107.00,0.0178
3106.00,0.0178
3105.00,0.0178
3104.00,0.0178
3103.00,0.0178
3102.00,0.0178
3101.00,0.0178
3100.00,0.0178
3099.00,0.0177
3098.00,0.0177
3097.00,0.0176
3096.00,0.0176
3095.00,0.0176
3094.00,0.0176
3093.00,0.0177
3092.00,0.0177
3091.00,0.0177
3090.00,0.0177
3089.00,0.0177
3088.00,0.0176
3087.00,0.0176
3086.00,0.0176
3085.00,0.0176
3084.00,0.0175
3083.00,0.0175
3082.00,0.0175
3081.00,0.0175
3080.00,0.0175
3079.00,0.0175
3078.00,0.0174
3077.00,0.0174
3076.00,0.0173
3075.00,0.0173
3074.00,0.0173
3073.00,0.0173
3072.00,0.0173
3071.00,0.0173
3070.00,0.0173
3069.00,0.0173
3068.00,0.0173
3067.00,0.0173
3066.00,0.0173
3065.00,0.0173
3064.00,0.0173
3063.00,0.0172
3062.00,0.0172
3061.00,0.0171
3060.00,0.0171
3059.00,0.0171
3058.00,0.0171
3057.00,0.0171
3056.00,0.0171
3055.00,0.0171
3054.00,0.0171
3053.00,0.0170
3052.00,0.0170
3051.00,0.0170
3050.00,0.0169
3049.00,0.0169
3048.00,0.0169
3047.00,0.0169
3046.00,0.0169
3045.00,0.0169
3044.00,0.0169
3043.00,0.0169
3042.00,0.0169
3041.00,0.0168
3040.00,0.0168
3039.00,0.0168
3038.00,0.0167
3037.00,0.0167
3036.00,0.0168
3035.00,0.0168
3034.00,0.0167
3033.00,0.0167
3032.00,0.0167
3031.00,0.0166
3030.00,0.0166
3029.00,0.0166
3028.00,0.0165
3027.00,0.0165
3026.00,0.0165
3025.00,0.0165
3024.00,0.0165
3023.00,0.0165
3022.00,0.0165
3021.00,0.0165
3020.00,0.0164
3019.00,0.0164
3018.00,0.0164
3017.00,0.0163
3016.00,0.0163
3015.00,0.0163
3014.00,0.0163
3013.00,0.0163
3012.00,0.0163
3011.00,0.0162
3010.00,0.0162
3009.00,0.0161
3008.00,0.0161
3007.00,0.0161
3006.00,0.0160
3005.00,0.0160
3004.00,0.0160
3003.00,0.0160
3002.00,0.0160
3001.00,0.0159
3000.00,0.0159
2999.00,0.0159
2998.00,0.0159
2997.00,0.0158
2996.00,0.0158
2995.00,0.0158
2994.00,0.0158
2993.00,0.0158
2992.00,0.0158
2991.00,0.0157
2990.00,0.0157
2989.00,0.0156
2988.00,0.0156
2987.00,0.0156
2986.00,0.0155
2985.00,0.0155
2984.00,0.0154
2983.00,0.0153
2982.00,0.0152
2981.00,0.0152
2980.00,0.0152
2979.00,0.0152
2978.00,0.0152
2977.00,0.0152
2976.00,0.0153
2975.00,0.0153
2974.00,0.0153
2973.00,0.0152
2972.00,0.0152
2971.00,0.0151
2970.00,0.0151
2969.00,0.0151
2968.00,0.0151
2967.00,0.0151
2966.00,0.0150
2965.00,0.0150
2964.00,0.0150
2963.00,0.0149
2962.00,0.0149
2961.00,0.0149
2960.00,0.0149
2959.00,0.0148
2958.00,0.0148
2957.00,0.0148
2956.00,0.0148
2955.00,0.0148
2954.00,0.0148
2953.00,0.0148
2952.00,0.0148
2951.00,0.0148
2950.00,0.0148
2949.00,0.0148
2948.00,0.0148
2947.00,0.0148
2946.00,0.0148
2945.00,0.0148
2944.00,0.0148
2943.00,0.0147
2942.00,0.0146
2941.00,0.0145
2940.00,0.0144
2939.00,0.0143
2938.00,0.0143
2937.00,0.0142
2936.00,0.0142
2935.00,0.0141
2934.00,0.0140
2933.00,0.0139
2932.00,0.0138
2931.00,0.0137
2930.00,0.0136
2929.00,0.0135
2928.00,0.0135
2927.00,0.0134
2926.00,0.0134
2925.00,0.0133
2924.00,0.0133
2923.00,0.0133
2922.00,0.0133
2921.00,0.0134
2920.00,0.0134
2919.00,0.0134
2918.00,0.0134
2917.00,0.0134
2916.00,0.0134
2915.00,0.0135
2914.00,0.0136
2913.00,0.0137
2912.00,0.0138
2911.00,0.0139
2910.00,0.0139
2909.00,0.0140
2908.00,0.0140
2907.00,0.0140
2906.00,0.0141
2905.00,0.0141
2904.00,0.0141
2903.00,0.0141
2902.00,0.0142
2901.00,0.0142
2900.00,0.0142
2899.00,0.0142
2898.00,0.0142
2897.00,0.0142
2896.00,0.0142
2895.00,0.0142
2894.00,0.0142
2893.00,0.0142
2892.00,0.0142
2891.00,0.0142
2890.00,0.0142
2889.00,0.0142
2888.00,0.0142
2887.00,0.0142
2886.00,0.0142
2885.00,0.0142
2884.00,0.0142
2883.00,0.0142
2882.00,0.0142
2881.00,0.0142
2880.00,0.0142
2879.00,0.0142
2878.00,0.0142
2877.00,0.0141
2876.00,0.0141
2875.00,0.0141
2874.00,0.0140
2873.00,0.0140
2872.00,0.0139
2871.00,0.0139
2870.00,0.0139
2869.00,0.0138
2868.00,0.0138
2867.00,0.0138
2866.00,0.0138
2865.00,0.0137
2864.00,0.0137
2863.00,0.0137
2862.00,0.0136
2861.00,0.0136
2860.00,0.0135
2859.00,0.0134
2858.00,0.0133
2857.00,0.0132
2856.00,0.0132
2855.00,0.0131
2854.00,0.0131
2853.00,0.0131
2852.00,0.0131
2851.00,0.0131
2850.00,0.0131
2849.00,0.0132
2848.00,0.0133
2847.00,0.0134
2846.00,0.0135
2845.00,0.0135
2844.00,0.0136
2843.00,0.0136
2842.00,0.0137
2841.00,0.0137
2840.00,0.0137
2839.00,0.0138
2838.00,0.0138
2837.00,0.0138
2836.00,0.0137
2835.00,0.0137
2834.00,0.0137
2833.00,0.0137
2832.00,0.0137
2831.00,0.0137
2830.00,0.0137
2829.00,0.0137
2828.00,0.0137
2827.00,0.0137
2826.00,0.0136
2825.00,0.0136
2824.00,0.0136
2823.00,0.0136
2822.00,0.0136
2821.00,0.0137
2820.00,0.0137
2819.00,0.0137
2818.00,0.0137
2817.00,0.0136
2816.00,0.0136
2815.00,0.0136
2814.00,0.0136
2813.00,0.0136
2812.00,0.0136
2811.00,0.0136
2810.00,0.0135
2809.00,0.0135
2808.00,0.0135
2807.00,0.0135
2806.00,0.0135
2805.00,0.0134
2804.00,0.0134
2803.00,0.0134
2802.00,0.0134
2801.00,0.0134
2800.00,0.0134
2799.00,0.0134
2798.00,0.0134
2797.00,0.0133
2796.00,0.0133
2795.00,0.0133
2794.00,0.0133
2793.00,0.0132
2792.00,0.0132
2791.00,0.0132
2790.00,0.0132
2789.00,0.0132
2788.00,0.0132
2787.00,0.0132
2786.00,0.0132
2785.00,0.0132
2784.00,0.0132
2783.00,0.0132
2782.00,0.0132
2781.00,0.0131
2780.00,0.0131
2779.00,0.0131
2778.00,0.0131
2777.00,0.0131
2776.00,0.0130
2775.00,0.0130
2774.00,0.0130
2773.00,0.0130
2772.00,0.0130
2771.00,0.0130
2770.00,0.0130
2769.00,0.0130
2768.00,0.0130
2767.00,0.0130
2766.00,0.0129
2765.00,0.0129
2764.00,0.0129
2763.00,0.0129
2762.00,0.0129
2761.00,0.0129
2760.00,0.0129
2759.00,0.0128
2758.00,0.0128
2757.00,0.0128
2756.00,0.0128
2755.00,0.0128
2754.00,0.0128
2753.00,0.0128
2752.00,0.0128
2751.00,0.0128
2750.00,0.0128
2749.00,0.0128
2748.00,0.0128
2747.00,0.0127
2746.00,0.0127
2745.00,0.0127
2744.00,0.0127
2743.00,0.0127
2742.00,0.0127
2741.00,0.0127
2740.00,0.0126
2739.00,0.0126
2738.00,0.0126
2737.00,0.0126
2736.00,0.0126
2735.00,0.0126
2734.00,0.0126
2733.00,0.0126
2732.00,0.0126
2731.00,0.0126
2730.00,0.0125
2729.00,0.0125
2728.00,0.0125
2727.00,0.0125
2726.00,0.0125
2725.00,0.0125
2724.00,0.0125
2723.00,0.0125
2722.00,0.0124
2721.00,0.0124
2720.00,0.0125
2719.00,0.0125
2718.00,0.0125
2717.00,0.0125
2716.00,0.0125
2715.00,0.0124
2714.00,0.0124
2713.00,0.0124
2712.00,0.0124
2711.00,0.0124
2710.00,0.0124
2709.00,0.0123
2708.00,0.0123
2707.00,0.0123
2706.00,0.0123
2705.00,0.0123
2704.00,0.0122
2703.00,0.0122
2702.00,0.0122
2701.00,0.0122
2700.00,0.0122
2699.00,0.0122
2698.00,0.0122
2697.00,0.0122
2696.00,0.0122
2695.00,0.0122
2694.00,0.0122
2693.00,0.0122
2692.00,0.0122
2691.00,0.0122
2690.00,0.0122
2689.00,0.0122
2688.00,0.0121
2687.00,0.0121
2686.00,0.0121
2685.00,0.0121
2684.00,0.0121
2683.00,0.0121
2682.00,0.0121
2681.00,0.0121
2680.00,0.0121
2679.00,0.0120
2678.00,0.0120
2677.00,0.0120
2676.00,0.0120
2675.00,0.0120
2674.00,0.0120
2673.00,0.0120
2672.00,0.0121
2671.00,0.0121
2670.00,0.0121
2669.00,0.0121
2668.00,0.0121
2667.00,0.0121
2666.00,0.0121
2665.00,0.0121
2664.00,0.0121
2663.00,0.0121
2662.00,0.0121
2661.00,0.0121
2660.00,0.0121
2659.00,0.0121
2658.00,0.0121
2657.00,0.0121
2656.00,0.0122
2655.00,0.0122
2654.00,0.0123
2653.00,0.0123
2652.00,0.0123
2651.00,0.0123
2650.00,0.0122
2649.00,0.0122
2648.00,0.0122
2647.00,0.0122
2646.00,0.0122
2645.00,0.0122
2644.00,0.0122
2643.00,0.0122
2642.00,0.0121
2641.00,0.0121
2640.00,0.0121
2639.00,0.0121
2638.00,0.0121
2637.00,0.0121
2636.00,0.0121
2635.00,0.0121
2634.00,0.0121
2633.00,0.0121
2632.00,0.0121
2631.00,0.0121
2630.00,0.0122
2629.00,0.0122
2628.00,0.0122
2627.00,0.0121
2626.00,0.0121
2625.00,0.0121
2624.00,0.0121
2623.00,0.0121
2622.00,0.0121
2621.00,0.0121
2620.00,0.0120
2619.00,0.0120
2618.00,0.0120
2617.00,0.0120
2616.00,0.0120
2615.00,0.0120
2614.00,0.0120
2613.00,0.0120
2612.00,0.0120
2611.00,0.0120
2610.00,0.0120
2609.00,0.0120
2608.00,0.0120
2607.00,0.0120
2606.00,0.0120
2605.00,0.0120
2604.00,0.0120
2603.00,0.0120
2602.00,0.0120
2601.00,0.0120
2600.00,0.0120
2599.00,0.0120
2598.00,0.0120
2597.00,0.0119
2596.00,0.0119
2595.00,0.0119
2594.00,0.0118
2593.00,0.0118
2592.00,0.0118
2591.00,0.0118
2590.00,0.0118
2589.00,0.0119
2588.00,0.0119
2587.00,0.0119
2586.00,0.0119
2585.00,0.0119
2584.00,0.0119
2583.00,0.0118
2582.00,0.0118
2581.00,0.0118
2580.00,0.0118
2579.00,0.0118
2578.00,0.0118
2577.00,0.0117
2576.00,0.0117
2575.00,0.0118
2574.00,0.0118
2573.00,0.0118
2572.00,0.0118
2571.00,0.0118
2570.00,0.0118
2569.00,0.0118
2568.00,0.0118
2567.00,0.0118
2566.00,0.0117
2565.00,0.0117
2564.00,0.0117
2563.00,0.0117
2562.00,0.0117
2561.00,0.0116
2560.00,0.0116
2559.00,0.0115
2558.00,0.0115
2557.00,0.0116
2556.00,0.0116
2555.00,0.0116
2554.00,0.0116
2553.00,0.0116
2552.00,0.0116
2551.00,0.0116
2550.00,0.0116
2549.00,0.0116
2548.00,0.0116
2547.00,0.0116
2546.00,0.0116
2545.00,0.0116
2544.00,0.0115
2543.00,0.0115
2542.00,0.0115
2541.00,0.0115
2540.00,0.0115
2539.00,0.0115
2538.00,0.0115
2537.00,0.0115
2536.00,0.0115
2535.00,0.0115
2534.00,0.0114
2533.00,0.0114
2532.00,0.0113
2531.00,0.0113
2530.00,0.0113
2529.00,0.0113
2528.00,0.0113
2527.00,0.0113
2526.00,0.0113
2525.00,0.0114
2524.00,0.0114
2523.00,0.0114
2522.00,0.0114
2521.00,0.0114
2520.00,0.0114
2519.00,0.0113
2518.00,0.0113
2517.00,0.0113
2516.00,0.0114
2515.00,0.0114
2514.00,0.0114
2513.00,0.0114
2512.00,0.0114
2511.00,0.0113
2510.00,0.0113
2509.00,0.0112
2508.00,0.0112
2507.00,0.0111
2506.00,0.0111
2505.00,0.0111
2504.00,0.0112
2503.00,0.0112
2502.00,0.0113
2501.00,0.0113
2500.00,0.0113
2499.00,0.0112
2498.00,0.0112
2497.00,0.0112
2496.00,0.0113
2495.00,0.0113
2494.00,0.0113
2493.00,0.0113
2492.00,0.0113
2491.00,0.0113
2490.00,0.0113
2489.00,0.0112
2488.00,0.0112
2487.00,0.0111
2486.00,0.0111
2485.00,0.0111
2484.00,0.0111
2483.00,0.0111
2482.00,0.0111
2481.00,0.0111
2480.00,0.0111
2479.00,0.0111
2478.00,0.0111
2477.00,0.0111
2476.00,0.0111
2475.00,0.0111
2474.00,0.0111
2473.00,0.0110
2472.00,0.0110
2471.00,0.0110
2470.00,0.0110
2469.00,0.0110
2468.00,0.0111
2467.00,0.0111
2466.00,0.0111
2465.00,0.0111
2464.00,0.0111
2463.00,0.0111
2462.00,0.0111
2461.00,0.0111
2460.00,0.0111
2459.00,0.0111
2458.00,0.0111
2457.00,0.0111
2456.00,0.0111
2455.00,0.0110
2454.00,0.0111
2453.00,0.0111
2452.00,0.0111
2451.00,0.0111
2450.00,0.0111
2449.00,0.0111
2448.00,0.0111
2447.00,0.0111
2446.00,0.0111
2445.00,0.0111
2444.00,0.0110
2443.00,0.0110
2442.00,0.0110
2441.00,0.0110
2440.00,0.0109
2439.00,0.0109
2438.00,0.0109
2437.00,0.0109
2436.00,0.0109
2435.00,0.0109
2434.00,0.0109
2433.00,0.0109
2432.00,0.0109
2431.00,0.0109
2430.00,0.0108
2429.00,0.0108
2428.00,0.0109
2427.00,0.0109
2426.00,0.0109
2425.00,0.0109
2424.00,0.0109
2423.00,0.0108
2422.00,0.0108
2421.00,0.0107
2420.00,0.0107
2419.00,0.0107
2418.00,0.0107
2417.00,0.0107
2416.00,0.0107
2415.00,0.0107
2414.00,0.0107
2413.00,0.0107
2412.00,0.0107
2411.00,0.0107
2410.00,0.0106
2409.00,0.0106
2408.00,0.0105
2407.00,0.0105
2406.00,0.0105
2405.00,0.0105
2404.00,0.0105
2403.00,0.0106
2402.00,0.0106
2401.00,0.0106
2400.00,0.0105
2399.00,0.0104
2398.00,0.0104
2397.00,0.0104
2396.00,0.0104
2395.00,0.0105
2394.00,0.0105
2393.00,0.0105
2392.00,0.0104
2391.00,0.0104
2390.00,0.0103
2389.00,0.0103
2388.00,0.0103
2387.00,0.0103
2386.00,0.0103
2385.00,0.0104
2384.00,0.0104
2383.00,0.0104
2382.00,0.0103
2381.00,0.0102
2380.00,0.0100
2379.00,0.0099
2378.00,0.0097
2377.00,0.0096
2376.00,0.0095
2375.00,0.0095
2374.00,0.0095
2373.00,0.0095
2372.00,0.0094
2371.00,0.0094
2370.00,0.0095
2369.00,0.0096
2368.00,0.0097
2367.00,0.0098
2366.00,0.0098
2365.00,0.0097
2364.00,0.0097
2363.00,0.0096
2362.00,0.0096
2361.00,0.0097
2360.00,0.0098
2359.00,0.0097
2358.00,0.0096
2357.00,0.0096
2356.00,0.0097
2355.00,0.0097
2354.00,0.0098
2353.00,0.0098
2352.00,0.0098
2351.00,0.0098
2350.00,0.0097
2349.00,0.0097
2348.00,0.0097
2347.00,0.0098
2346.00,0.0099
2345.00,0.0099
2344.00,0.0099
2343.00,0.0097
2342.00,0.0096
2341.00,0.0096
2340.00,0.0097
2339.00,0.0097
2338.00,0.0098
2337.00,0.0098
2336.00,0.0098
2335.00,0.0098
2334.00,0.0098
2333.00,0.0098
2332.00,0.0099
2331.00,0.0100
2330.00,0.0101
2329.00,0.0102
2328.00,0.0103
2327.00,0.0105
2326.00,0.0106
2325.00,0.0106
2324.00,0.0106
2323.00,0.0105
2322.00,0.0104
2321.00,0.0103
2320.00,0.0102
2319.00,0.0101
2318.00,0.0101
2317.00,0.0102
2316.00,0.0102
2315.00,0.0102
2314.00,0.0101
2313.00,0.0101
2312.00,0.0101
2311.00,0.0102
2310.00,0.0103
2309.00,0.0103
2308.00,0.0103
2307.00,0.0103
2306.00,0.0103
2305.00,0.0102
2304.00,0.0102
2303.00,0.0101
2302.00,0.0101
2301.00,0.0101
2300.00,0.0101
2299.00,0.0102
2298.00,0.0102
2297.00,0.0103
2296.00,0.0103
2295.00,0.0104
2294.00,0.0104
2293.00,0.0104
2292.00,0.0105
2291.00,0.0105
2290.00,0.0106
2289.00,0.0107
2288.00,0.0107
2287.00,0.0107
2286.00,0.0107
2285.00,0.0106
2284.00,0.0106
2283.00,0.0105
2282.00,0.0105
2281.00,0.0105
2280.00,0.0105
2279.00,0.0104
2278.00,0.0104
2277.00,0.0103
2276.00,0.0103
2275.00,0.0102
2274.00,0.0102
2273.00,0.0103
2272.00,0.0103
2271.00,0.0103
2270.00,0.0103
2269.00,0.0103
2268.00,0.0103
2267.00,0.0102
2266.00,0.0102
2265.00,0.0102
2264.00,0.0102
2263.00,0.0102
2262.00,0.0103
2261.00,0.0104
2260.00,0.0104
2259.00,0.0105
2258.00,0.0104
2257.00,0.0103
2256.00,0.0102
2255.00,0.0101
2254.00,0.0102
2253.00,0.0102
2252.00,0.0103
2251.00,0.0103
2250.00,0.0102
2249.00,0.0102
2248.00,0.0101
2247.00,0.0101
2246.00,0.0101
2245.00,0.0100
2244.00,0.0100
2243.00,0.0101
2242.00,0.0101
2241.00,0.0101
2240.00,0.0101
2239.00,0.0102
2238.00,0.0102
2237.00,0.0103
2236.00,0.0103
2235.00,0.0103
2234.00,0.0103
2233.00,0.0103
2232.00,0.0103
2231.00,0.0102
2230.00,0.0102
2229.00,0.0101
2228.00,0.0100
2227.00,0.0099
2226.00,0.0098
2225.00,0.0098
2224.00,0.0099
2223.00,0.0099
2222.00,0.0100
2221.00,0.0101
2220.00,0.0102
2219.00,0.0102
2218.00,0.0101
2217.00,0.0100
2216.00,0.0099
2215.00,0.0098
2214.00,0.0098
2213.00,0.0099
2212.00,0.0100
2211.00,0.0101
2210.00,0.0101
2209.00,0.0101
2208.00,0.0101
2207.00,0.0100
2206.00,0.0100
2205.00,0.0099
2204.00,0.0099
2203.00,0.0098
2202.00,0.0099
2201.00,0.0100
2200.00,0.0101
2199.00,0.0102
2198.00,0.0103
2197.00,0.0103
2196.00,0.0102
2195.00,0.0101
2194.00,0.0101
2193.00,0.0100
2192.00,0.0100
2191.00,0.0099
2190.00,0.0099
2189.00,0.0099
2188.00,0.0101
2187.00,0.0103
2186.00,0.0104
2185.00,0.0103
2184.00,0.0101
2183.00,0.0099
2182.00,0.0098
2181.00,0.0099
2180.00,0.0099
2179.00,0.0099
2178.00,0.0098
2177.00,0.0097
2176.00,0.0096
2175.00,0.0097
2174.00,0.0099
2173.00,0.0102
2172.00,0.0104
2171.00,0.0106
2170.00,0.0108
2169.00,0.0109
2168.00,0.0109
2167.00,0.0108
2166.00,0.0106
2165.00,0.0106
2164.00,0.0106
2163.00,0.0106
2162.00,0.0103
2161.00,0.0097
2160.00,0.0090
2159.00,0.0085
2158.00,0.0083
2157.00,0.0083
2156.00,0.0083
2155.00,0.0082
2154.00,0.0083
2153.00,0.0084
2152.00,0.0086
2151.00,0.0087
2150.00,0.0087
2149.00,0.0086
2148.00,0.0086
2147.00,0.0086
2146.00,0.0086
2145.00,0.0086
2144.00,0.0086
2143.00,0.0086
2142.00,0.0086
2141.00,0.0086
2140.00,0.0086
2139.00,0.0085
2138.00,0.0084
2137.00,0.0083
2136.00,0.0081
2135.00,0.0081
2134.00,0.0081
2133.00,0.0081
2132.00,0.0081
2131.00,0.0081
2130.00,0.0082
2129.00,0.0083
2128.00,0.0084
2127.00,0.0085
2126.00,0.0086
2125.00,0.0086
2124.00,0.0087
2123.00,0.0087
2122.00,0.0087
2121.00,0.0088
2120.00,0.0089
2119.00,0.0090
2118.00,0.0090
2117.00,0.0091
2116.00,0.0091
2115.00,0.0092
2114.00,0.0092
2113.00,0.0092
2112.00,0.0092
2111.00,0.0092
2110.00,0.0092
2109.00,0.0091
2108.00,0.0091
2107.00,0.0091
2106.00,0.0090
2105.00,0.0090
2104.00,0.0090
2103.00,0.0090
2102.00,0.0090
2101.00,0.0090
2100.00,0.0090
2099.00,0.0089
2098.00,0.0088
2097.00,0.0087
2096.00,0.0086
2095.00,0.0086
2094.00,0.0085
2093.00,0.0086
2092.00,0.0086
2091.00,0.0087
2090.00,0.0087
2089.00,0.0087
2088.00,0.0086
2087.00,0.0085
2086.00,0.0085
2085.00,0.0086
2084.00,0.0087
2083.00,0.0087
2082.00,0.0088
2081.00,0.0088
2080.00,0.0089
2079.00,0.0089
2078.00,0.0090
2077.00,0.0091
2076.00,0.0091
2075.00,0.0090
2074.00,0.0089
2073.00,0.0087
2072.00,0.0087
2071.00,0.0086
2070.00,0.0087
2069.00,0.0087
2068.00,0.0087
2067.00,0.0086
2066.00,0.0084
2065.00,0.0084
2064.00,0.0083
2063.00,0.0083
2062.00,0.0084
2061.00,0.0085
2060.00,0.0085
2059.00,0.0086
2058.00,0.0087
2057.00,0.0087
2056.00,0.0088
2055.00,0.0088
2054.00,0.0089
2053.00,0.0090
2052.00,0.0091
2051.00,0.0092
2050.00,0.0091
2049.00,0.0090
2048.00,0.0089
2047.00,0.0089
2046.00,0.0089
2045.00,0.0090
2044.00,0.0090
2043.00,0.0089
2042.00,0.0089
2041.00,0.0089
2040.00,0.0091
2039.00,0.0093
2038.00,0.0094
2037.00,0.0095
2036.00,0.0095
2035.00,0.0094
2034.00,0.0092
2033.00,0.0090
2032.00,0.0087
2031.00,0.0085
2030.00,0.0084
2029.00,0.0084
2028.00,0.0084
2027.00,0.0085
2026.00,0.0085
2025.00,0.0085
2024.00,0.0085
2023.00,0.0085
2022.00,0.0084
2021.00,0.0084
2020.00,0.0084
2019.00,0.0085
2018.00,0.0086
2017.00,0.0087
2016.00,0.0088
2015.00,0.0088
2014.00,0.0088
2013.00,0.0089
2012.00,0.0088
2011.00,0.0088
2010.00,0.0087
2009.00,0.0085
2008.00,0.0082
2007.00,0.0079
2006.00,0.0077
2005.00,0.0076
2004.00,0.0077
2003.00,0.0078
2002.00,0.0079
2001.00,0.0080
2000.00,0.0081
1999.00,0.0082
1998.00,0.0083
1997.00,0.0084
1996.00,0.0084
1995.00,0.0084
1994.00,0.0084
1993.00,0.0084
1992.00,0.0085
1991.00,0.0085
1990.00,0.0085
1989.00,0.0084
1988.00,0.0084
1987.00,0.0084
1986.00,0.0085
1985.00,0.0087
1984.00,0.0089
1983.00,0.0091
1982.00,0.0093
1981.00,0.0094
1980.00,0.0092
1979.00,0.0089
1978.00,0.0084
1977.00,0.0080
1976.00,0.0078
1975.00,0.0078
1974.00,0.0079
1973.00,0.0079
1972.00,0.0080
1971.00,0.0080
1970.00,0.0080
1969.00,0.0080
1968.00,0.0079
1967.00,0.0078
1966.00,0.0078
1965.00,0.0078
1964.00,0.0078
1963.00,0.0079
1962.00,0.0078
1961.00,0.0077
1960.00,0.0076
1959.00,0.0075
1958.00,0.0074
1957.00,0.0075
1956.00,0.0075
1955.00,0.0075
1954.00,0.0075
1953.00,0.0074
1952.00,0.0074
1951.00,0.0073
1950.00,0.0074
1949.00,0.0074
1948.00,0.0076
1947.00,0.0077
1946.00,0.0077
1945.00,0.0077
1944.00,0.0076
1943.00,0.0075
1942.00,0.0074
1941.00,0.0073
1940.00,0.0072
1939.00,0.0071
1938.00,0.0071
1937.00,0.0072
1936.00,0.0073
1935.00,0.0074
1934.00,0.0074
1933.00,0.0073
1932.00,0.0072
1931.00,0.0071
1930.00,0.0071
1929.00,0.0071
1928.00,0.0071
1927.00,0.0071
1926.00,0.0071
1925.00,0.0071
1924.00,0.0071
1923.00,0.0071
1922.00,0.0072
1921.00,0.0072
1920.00,0.0074
1919.00,0.0074
1918.00,0.0073
1917.00,0.0072
1916.00,0.0070
1915.00,0.0069
1914.00,0.0069
1913.00,0.0069
1912.00,0.0069
1911.00,0.0069
1910.00,0.0069
1909.00,0.0069
1908.00,0.0069
1907.00,0.0069
1906.00,0.0068
1905.00,0.0068
1904.00,0.0068
1903.00,0.0068
1902.00,0.0068
1901.00,0.0068
1900.00,0.0068
1899.00,0.0068
1898.00,0.0068
1897.00,0.0068
1896.00,0.0068
1895.00,0.0067
1894.00,0.0066
1893.00,0.0066
1892.00,0.0066
1891.00,0.0066
1890.00,0.0066
1889.00,0.0066
1888.00,0.0066
1887.00,0.0066
1886.00,0.0066
1885.00,0.0065
1884.00,0.0065
1883.00,0.0064
1882.00,0.0064
1881.00,0.0065
1880.00,0.0065
1879.00,0.0064
1878.00,0.0065
1877.00,0.0065
1876.00,0.0065
1875.00,0.0065
1874.00,0.0064
1873.00,0.0064
1872.00,0.0064
1871.00,0.0065
1870.00,0.0065
1869.00,0.0064
1868.00,0.0063
1867.00,0.0062
1866.00,0.0062
1865.00,0.0063
1864.00,0.0063
1863.00,0.0063
1862.00,0.0062
1861.00,0.0062
1860.00,0.0062
1859.00,0.0062
1858.00,0.0062
1857.00,0.0063
1856.00,0.0062
1855.00,0.0062
1854.00,0.0062
1853.00,0.0061
1852.00,0.0061
1851.00,0.0061
1850.00,0.0061
1849.00,0.0062
1848.00,0.0062
1847.00,0.0063
1846.00,0.0064
1845.00,0.0063
1844.00,0.0062
1843.00,0.0060
1842.00,0.0059
1841.00,0.0059
1840.00,0.0060
1839.00,0.0060
1838.00,0.0059
1837.00,0.0059
1836.00,0.0059
1835.00,0.0059
1834.00,0.0059
1833.00,0.0059
1832.00,0.0059
1831.00,0.0059
1830.00,0.0057
1829.00,0.0056
1828.00,0.0055
1827.00,0.0054
1826.00,0.0054
1825.00,0.0055
1824.00,0.0055
1823.00,0.0055
1822.00,0.0055
1821.00,0.0055
1820.00,0.0055
1819.00,0.0054
1818.00,0.0054
1817.00,0.0053
1816.00,0.0053
1815.00,0.0053
1814.00,0.0053
1813.00,0.0054
1812.00,0.0054
1811.00,0.0053
1810.00,0.0053
1809.00,0.0054
1808.00,0.0054
1807.00,0.0054
1806.00,0.0054
1805.00,0.0054
1804.00,0.0054
1803.00,0.0054
1802.00,0.0054
1801.00,0.0054
1800.00,0.0054
1799.00,0.0055
1798.00,0.0056
1797.00,0.0057
1796.00,0.0058
1795.00,0.0058
1794.00,0.0059
1793.00,0.0059
1792.00,0.0057
1791.00,0.0055
1790.00,0.0055
1789.00,0.0055
1788.00,0.0056
1787.00,0.0057
1786.00,0.0057
1785.00,0.0058
1784.00,0.0058
1783.00,0.0058
1782.00,0.0058
1781.00,0.0058
1780.00,0.0059
1779.00,0.0060
1778.00,0.0061
1777.00,0.0062
1776.00,0.0064
1775.00,0.0065
1774.00,0.0067
1773.00,0.0068
1772.00,0.0067
1771.00,0.0065
1770.00,0.0065
1769.00,0.0067
1768.00,0.0068
1767.00,0.0068
1766.00,0.0068
1765.00,0.0069
1764.00,0.0070
1763.00,0.0071
1762.00,0.0071
1761.00,0.0071
1760.00,0.0072
1759.00,0.0072
1758.00,0.0073
1757.00,0.0074
1756.00,0.0075
1755.00,0.0076
1754.00,0.0077
1753.00,0.0079
1752.00,0.0081
1751.00,0.0082
1750.00,0.0082
1749.00,0.0082
1748.00,0.0082
1747.00,0.0083
1746.00,0.0083
1745.00,0.0084
1744.00,0.0085
1743.00,0.0085
1742.00,0.0086
1741.00,0.0089
1740.00,0.0091
1739.00,0.0092
1738.00,0.0092
1737.00,0.0094
1736.00,0.0098
1735.00,0.0102
1734.00,0.0103
1733.00,0.0101
1732.00,0.0099
1731.00,0.0099
1730.00,0.0099
1729.00,0.0100
1728.00,0.0101
1727.00,0.0103
1726.00,0.0104
1725.00,0.0106
1724.00,0.0107
1723.00,0.0108
1722.00,0.0108
1721.00,0.0108
1720.00,0.0108
1719.00,0.0109
1718.00,0.0112
1717.00,0.0114
1716.00,0.0114
1715.00,0.0113
1714.00,0.0113
1713.00,0.0113
1712.00,0.0114
1711.00,0.0115
1710.00,0.0115
1709.00,0.0116
1708.00,0.0117
1707.00,0.0117
1706.00,0.0117
1705.00,0.0117
1704.00,0.0118
1703.00,0.0119
1702.00,0.0122
1701.00,0.0125
1700.00,0.0126
1699.00,0.0126
1698.00,0.0126
1697.00,0.0126
1696.00,0.0125
1695.00,0.0124
1694.00,0.0124
1693.00,0.0125
1692.00,0.0126
1691.00,0.0127
1690.00,0.0128
1689.00,0.0129
1688.00,0.0129
1687.00,0.0129
1686.00,0.0129
1685.00,0.0128
1684.00,0.0127
1683.00,0.0127
1682.00,0.0129
1681.00,0.0132
1680.00,0.0133
1679.00,0.0134
1678.00,0.0136
1677.00,0.0138
1676.00,0.0140
1675.00,0.0141
1674.00,0.0142
1673.00,0.0142
1672.00,0.0142
1671.00,0.0144
1670.00,0.0144
1669.00,0.0145
1668.00,0.0145
1667.00,0.0146
1666.00,0.0148
1665.00,0.0149
1664.00,0.0151
1663.00,0.0153
1662.00,0.0155
1661.00,0.0156
1660.00,0.0157
1659.00,0.0159
1658.00,0.0160
1657.00,0.0160
1656.00,0.0160
1655.00,0.0160
1654.00,0.0162
1653.00,0.0165
1652.00,0.0167
1651.00,0.0168
1650.00,0.0170
1649.00,0.0172
1648.00,0.0176
1647.00,0.0179
1646.00,0.0181
1645.00,0.0181
1644.00,0.0181
1643.00,0.0182
1642.00,0.0183
1641.00,0.0184
1640.00,0.0185
1639.00,0.0186
1638.00,0.0187
1637.00,0.0189
1636.00,0.0191
1635.00,0.0192
1634.00,0.0193
1633.00,0.0194
1632.00,0.0196
1631.00,0.0197
1630.00,0.0198
1629.00,0.0199
1628.00,0.0200
1627.00,0.0202
1626.00,0.0203
1625.00,0.0205
1624.00,0.0208
1623.00,0.0210
1622.00,0.0210
1621.00,0.0210
1620.00,0.0211
1619.00,0.0212
1618.00,0.0213
1617.00,0.0215
1616.00,0.0216
1615.00,0.0216
1614.00,0.0217
1613.00,0.0218
1612.00,0.0219
1611.00,0.0221
1610.00,0.0222
1609.00,0.0223
1608.00,0.0224
1607.00,0.0224
1606.00,0.0224
1605.00,0.0224
1604.00,0.0225
1603.00,0.0226
1602.00,0.0226
1601.00,0.0227
1600.00,0.0227
1599.00,0.0228
1598.00,0.0228
1597.00,0.0229
1596.00,0.0229
1595.00,0.0230
1594.00,0.0230
1593.00,0.0230
1592.00,0.0230
1591.00,0.0231
1590.00,0.0231
1589.00,0.0231
1588.00,0.0231
1587.00,0.0232
1586.00,0.0232
1585.00,0.0232
1584.00,0.0232
1583.00,0.0232
1582.00,0.0232
1581.00,0.0232
1580.00,0.0231
1579.00,0.0231
1578.00,0.0231
1577.00,0.0232
1576.00,0.0233
1575.00,0.0232
1574.00,0.0231
1573.00,0.0230
1572.00,0.0230
1571.00,0.0230
1570.00,0.0230
1569.00,0.0229
1568.00,0.0229
1567.00,0.0229
1566.00,0.0228
1565.00,0.0228
1564.00,0.0227
1563.00,0.0225
1562.00,0.0222
1561.00,0.0218
1560.00,0.0216
1559.00,0.0220
1558.00,0.0221
1557.00,0.0221
1556.00,0.0222
1555.00,0.0222
1554.00,0.0221
1553.00,0.0219
1552.00,0.0216
1551.00,0.0214
1550.00,0.0213
1549.00,0.0212
1548.00,0.0212
1547.00,0.0211
1546.00,0.0211
1545.00,0.0211
1544.00,0.0211
1543.00,0.0211
1542.00,0.0211
1541.00,0.0209
1540.00,0.0203
1539.00,0.0198
1538.00,0.0197
1537.00,0.0197
1536.00,0.0198
1535.00,0.0197
1534.00,0.0196
1533.00,0.0194
1532.00,0.0192
1531.00,0.0191
1530.00,0.0191
1529.00,0.0190
1528.00,0.0189
1527.00,0.0189
1526.00,0.0189
1525.00,0.0189
1524.00,0.0189
1523.00,0.0188
1522.00,0.0187
1521.00,0.0184
1520.00,0.0180
1519.00,0.0178
1518.00,0.0177
1517.00,0.0176
1516.00,0.0176
1515.00,0.0176
1514.00,0.0177
1513.00,0.0177
1512.00,0.0176
1511.00,0.0174
1510.00,0.0172
1509.00,0.0171
1508.00,0.0172
1507.00,0.0169
1506.00,0.0165
1505.00,0.0166
1504.00,0.0167
1503.00,0.0167
1502.00,0.0166
1501.00,0.0165
1500.00,0.0164
1499.00,0.0163
1498.00,0.0163
1497.00,0.0163
1496.00,0.0162
1495.00,0.0161
1494.00,0.0161
1493.00,0.0162
1492.00,0.0163
1491.00,0.0163
1490.00,0.0163
1489.00,0.0161
1488.00,0.0159
1487.00,0.0158
1486.00,0.0157
1485.00,0.0157
1484.00,0.0157
1483.00,0.0157
1482.00,0.0158
1481.00,0.0158
1480.00,0.0157
1479.00,0.0157
1478.00,0.0156
1477.00,0.0156
1476.00,0.0157
1475.00,0.0160
1474.00,0.0163
1473.00,0.0164
1472.00,0.0162
1471.00,0.0159
1470.00,0.0158
1469.00,0.0158
1468.00,0.0158
1467.00,0.0158
1466.00,0.0159
1465.00,0.0160
1464.00,0.0160
1463.00,0.0160
1462.00,0.0159
1461.00,0.0159
1460.00,0.0159
1459.00,0.0160
1458.00,0.0164
1457.00,0.0166
1456.00,0.0165
1455.00,0.0163
1454.00,0.0162
1453.00,0.0162
1452.00,0.0163
1451.00,0.0163
1450.00,0.0163
1449.00,0.0163
1448.00,0.0163
1447.00,0.0163
1446.00,0.0163
1445.00,0.0163
1444.00,0.0164
1443.00,0.0164
1442.00,0.0164
1441.00,0.0164
1440.00,0.0164
1439.00,0.0164
1438.00,0.0165
1437.00,0.0166
1436.00,0.0166
1435.00,0.0166
1434.00,0.0166
1433.00,0.0167
1432.00,0.0167
1431.00,0.0167
1430.00,0.0167
1429.00,0.0167
1428.00,0.0167
1427.00,0.0168
1426.00,0.0168
1425.00,0.0168
1424.00,0.0169
1423.00,0.0169
1422.00,0.0169
1421.00,0.0169
1420.00,0.0169
1419.00,0.0169
1418.00,0.0169
1417.00,0.0169
1416.00,0.0170
1415.00,0.0171
1414.00,0.0172
1413.00,0.0172
1412.00,0.0172
1411.00,0.0173
1410.00,0.0173
1409.00,0.0173
1408.00,0.0173
1407.00,0.0173
1406.00,0.0172
1405.00,0.0173
1404.00,0.0174
1403.00,0.0175
1402.00,0.0175
1401.00,0.0175
1400.00,0.0176
1399.00,0.0177
1398.00,0.0177
1397.00,0.0177
1396.00,0.0177
1395.00,0.0177
1394.00,0.0177
1393.00,0.0177
1392.00,0.0178
1391.00,0.0179
1390.00,0.0179
1389.00,0.0179
1388.00,0.0180
1387.00,0.0180
1386.00,0.0179
1385.00,0.0178
1384.00,0.0178
1383.00,0.0178
1382.00,0.0179
1381.00,0.0179
1380.00,0.0179
1379.00,0.0179
1378.00,0.0179
1377.00,0.0178
1376.00,0.0178
1375.00,0.0178
1374.00,0.0178
1373.00,0.0178
1372.00,0.0179
1371.00,0.0179
1370.00,0.0179
1369.00,0.0178
1368.00,0.0178
1367.00,0.0178
1366.00,0.0177
1365.00,0.0176
1364.00,0.0175
1363.00,0.0175
1362.00,0.0175
1361.00,0.0175
1360.00,0.0175
1359.00,0.0175
1358.00,0.0175
1357.00,0.0175
1356.00,0.0174
1355.00,0.0173
1354.00,0.0173
1353.00,0.0172
1352.00,0.0172
1351.00,0.0172
1350.00,0.0172
1349.00,0.0171
1348.00,0.0171
1347.00,0.0171
1346.00,0.0171
1345.00,0.0171
1344.00,0.0170
1343.00,0.0170
1342.00,0.0170
1341.00,0.0169
1340.00,0.0169
1339.00,0.0169
1338.00,0.0168
1337.00,0.0168
1336.00,0.0168
1335.00,0.0167
1334.00,0.0167
1333.00,0.0166
1332.00,0.0166
1331.00,0.0166
1330.00,0.0166
1329.00,0.0166
1328.00,0.0165
1327.00,0.0165
1326.00,0.0165
1325.00,0.0165
1324.00,0.0164
1323.00,0.0164
1322.00,0.0164
1321.00,0.0164
1320.00,0.0164
1319.00,0.0164
1318.00,0.0164
1317.00,0.0164
1316.00,0.0164
1315.00,0.0164
1314.00,0.0164
1313.00,0.0164
1312.00,0.0164
1311.00,0.0164
1310.00,0.0164
1309.00,0.0164
1308.00,0.0163
1307.00,0.0163
1306.00,0.0163
1305.00,0.0163
1304.00,0.0163
1303.00,0.0162
1302.00,0.0162
1301.00,0.0162
1300.00,0.0162
1299.00,0.0162
1298.00,0.0162
1297.00,0.0162
1296.00,0.0162
1295.00,0.0162
1294.00,0.0162
1293.00,0.0161
1292.00,0.0161
1291.00,0.0161
1290.00,0.0161
1289.00,0.0161
1288.00,0.0161
1287.00,0.0161
1286.00,0.0160
1285.00,0.0160
1284.00,0.0160
1283.00,0.0160
1282.00,0.0160
1281.00,0.0160
1280.00,0.0160
1279.00,0.0160
1278.00,0.0160
1277.00,0.0160
1276.00,0.0160
1275.00,0.0160
1274.00,0.0160
1273.00,0.0160
1272.00,0.0160
1271.00,0.0160
1270.00,0.0160
1269.00,0.0160
1268.00,0.0160
1267.00,0.0160
1266.00,0.0160
1265.00,0.0160
1264.00,0.0160
1263.00,0.0160
1262.00,0.0161
1261.00,0.0161
1260.00,0.0161
1259.00,0.0162
1258.00,0.0162
1257.00,0.0163
1256.00,0.0164
1255.00,0.0165
1254.00,0.0165
1253.00,0.0166
1252.00,0.0166
1251.00,0.0167
1250.00,0.0168
1249.00,0.0170
1248.00,0.0171
1247.00,0.0173
1246.00,0.0174
1245.00,0.0175
1244.00,0.0176
1243.00,0.0178
1242.00,0.0180
1241.00,0.0183
1240.00,0.0185
1239.00,0.0187
1238.00,0.0189
1237.00,0.0192
1236.00,0.0194
1235.00,0.0197
1234.00,0.0199
1233.00,0.0201
1232.00,0.0203
1231.00,0.0205
1230.00,0.0207
1229.00,0.0210
1228.00,0.0213
1227.00,0.0216
1226.00,0.0219
1225.00,0.0222
1224.00,0.0224
1223.00,0.0226
1222.00,0.0228
1221.00,0.0231
1220.00,0.0233
1219.00,0.0235
1218.00,0.0237
1217.00,0.0239
1216.00,0.0241
1215.00,0.0243
1214.00,0.0245
1213.00,0.0248
1212.00,0.0250
1211.00,0.0252
1210.00,0.0254
1209.00,0.0256
1208.00,0.0258
1207.00,0.0259
1206.00,0.0261
1205.00,0.0264
1204.00,0.0266
1203.00,0.0268
1202.00,0.0270
1201.00,0.0271
1200.00,0.0272
1199.00,0.0274
1198.00,0.0275
1197.00,0.0276
1196.00,0.0278
1195.00,0.0280
1194.00,0.0281
1193.00,0.0282
1192.00,0.0283
1191.00,0.0285
1190.00,0.0286
1189.00,0.0287
1188.00,0.0288
1187.00,0.0289
1186.00,0.0291
1185.00,0.0292
1184.00,0.0294
1183.00,0.0295
1182.00,0.0296
1181.00,0.0297
1180.00,0.0298
1179.00,0.0299
1178.00,0.0300
1177.00,0.0302
1176.00,0.0303
1175.00,0.0303
1174.00,0.0303
1173.00,0.0303
1172.00,0.0303
1171.00,0.0303
1170.00,0.0304
1169.00,0.0306
1168.00,0.0308
1167.00,0.0309
1166.00,0.0311
1165.00,0.0312
1164.00,0.0313
1163.00,0.0314
1162.00,0.0315
1161.00,0.0315
1160.00,0.0316
1159.00,0.0317
1158.00,0.0319
1157.00,0.0320
1156.00,0.0321
1155.00,0.0321
1154.00,0.0322
1153.00,0.0322
1152.00,0.0322
1151.00,0.0323
1150.00,0.0324
1149.00,0.0325
1148.00,0.0327
1147.00,0.0328
1146.00,0.0329
1145.00,0.0330
1144.00,0.0332
1143.00,0.0333
1142.00,0.0334
1141.00,0.0335
1140.00,0.0336
1139.00,0.0337
1138.00,0.0338
1137.00,0.0338
1136.00,0.0339
1135.00,0.0341
1134.00,0.0342
1133.00,0.0344
1132.00,0.0345
1131.00,0.0347
1130.00,0.0348
1129.00,0.0349
1128.00,0.0351
1127.00,0.0351
1126.00,0.0352
1125.00,0.0353
1124.00,0.0355
1123.00,0.0357
1122.00,0.0359
1121.00,0.0361
1120.00,0.0363
1119.00,0.0365
1118.00,0.0367
1117.00,0.0369
1116.00,0.0371
1115.00,0.0373
1114.00,0.0374
1113.00,0.0374
1112.00,0.0376
1111.00,0.0378
1110.00,0.0380
1109.00,0.0382
1108.00,0.0383
1107.00,0.0385
1106.00,0.0386
1105.00,0.0388
1104.00,0.0391
1103.00,0.0394
1102.00,0.0397
1101.00,0.0400
1100.00,0.0402
1099.00,0.0403
1098.00,0.0405
1097.00,0.0408
1096.00,0.0410
1095.00,0.0413
1094.00,0.0416
1093.00,0.0418
1092.00,0.0421
1091.00,0.0424
1090.00,0.0426
1089.00,0.0429
1088.00,0.0432
1087.00,0.0434
1086.00,0.0436
1085.00,0.0438
1084.00,0.0440
1083.00,0.0443
1082.00,0.0445
1081.00,0.0448
1080.00,0.0449
1079.00,0.0451
1078.00,0.0453
1077.00,0.0455
1076.00,0.0458
1075.00,0.0462
1074.00,0.0465
1073.00,0.0467
1072.00,0.0469
1071.00,0.0470
1070.00,0.0472
1069.00,0.0474
1068.00,0.0477
1067.00,0.0479
1066.00,0.0481
1065.00,0.0482
1064.00,0.0484
1063.00,0.0486
1062.00,0.0487
1061.00,0.0489
1060.00,0.0492
1059.00,0.0494
1058.00,0.0495
1057.00,0.0497
1056.00,0.0499
1055.00,0.0501
1054.00,0.0502
1053.00,0.0503
1052.00,0.0504
1051.00,0.0506
1050.00,0.0509
1049.00,0.0511
1048.00,0.0513
1047.00,0.0514
1046.00,0.0515
1045.00,0.0516
1044.00,0.0516
1043.00,0.0516
1042.00,0.0517
1041.00,0.0518
1040.00,0.0519
1039.00,0.0520
1038.00,0.0521
1037.00,0.0521
1036.00,0.0522
1035.00,0.0522
1034.00,0.0522
1033.00,0.0522
1032.00,0.0523
1031.00,0.0525
1030.00,0.0526
1029.00,0.0527
1028.00,0.0528
1027.00,0.0527
1026.00,0.0526
1025.00,0.0525
1024.00,0.0524
1023.00,0.0523
1022.00,0.0523
1021.00,0.0524
1020.00,0.0524
1019.00,0.0524
1018.00,0.0523
1017.00,0.0521
1016.00,0.0520
1015.00,0.0519
1014.00,0.0519
1013.00,0.0518
1012.00,0.0517
1011.00,0.0516
1010.00,0.0515
1009.00,0.0514
1008.00,0.0513
1007.00,0.0512
1006.00,0.0510
1005.00,0.0508
1004.00,0.0506
1003.00,0.0504
1002.00,0.0502
1001.00,0.0500
1000.00,0.0497
999.00,0.0495
998.00,0.0493
997.00,0.0491
996.00,0.0489
995.00,0.0487
994.00,0.0484
993.00,0.0482
992.00,0.0480
991.00,0.0478
990.00,0.0475
989.00,0.0472
988.00,0.0469
987.00,0.0466
986.00,0.0463
985.00,0.0460
984.00,0.0458
983.00,0.0456
982.00,0.0454
981.00,0.0452
980.00,0.0451
979.00,0.0448
978.00,0.0445
977.00,0.0441
976.00,0.0438
975.00,0.0434
974.00,0.0431
973.00,0.0428
972.00,0.0425
971.00,0.0422
970.00,0.0419
969.00,0.0416
968.00,0.0414
967.00,0.0412
966.00,0.0410
965.00,0.0408
964.00,0.0407
963.00,0.0405
962.00,0.0403
961.00,0.0402
960.00,0.0400
959.00,0.0399
958.00,0.0398
957.00,0.0396
956.00,0.0395
955.00,0.0394
954.00,0.0393
953.00,0.0392
952.00,0.0390
951.00,0.0389
950.00,0.0387
949.00,0.0386
948.00,0.0385
947.00,0.0384
946.00,0.0383
945.00,0.0383
944.00,0.0382
943.00,0.0381
942.00,0.0380
941.00,0.0379
940.00,0.0379
939.00,0.0378
938.00,0.0378
937.00,0.0378
936.00,0.0378
935.00,0.0378
934.00,0.0377
933.00,0.0376
932.00,0.0376
931.00,0.0375
930.00,0.0374
929.00,0.0373
928.00,0.0373
927.00,0.0372
926.00,0.0372
925.00,0.0372
924.00,0.0372
923.00,0.0371
922.00,0.0369
921.00,0.0367
920.00,0.0367
919.00,0.0367
918.00,0.0367
917.00,0.0369
916.00,0.0370
915.00,0.0371
914.00,0.0369
913.00,0.0368
912.00,0.0366
911.00,0.0366
910.00,0.0365
909.00,0.0365
908.00,0.0365
907.00,0.0366
906.00,0.0366
905.00,0.0366
904.00,0.0365
903.00,0.0364
902.00,0.0362
901.00,0.0360
900.00,0.0359
899.00,0.0359
898.00,0.0359
897.00,0.0358
896.00,0.0356
895.00,0.0354
894.00,0.0352
893.00,0.0351
892.00,0.0350
891.00,0.0350
890.00,0.0350
889.00,0.0350
888.00,0.0350
887.00,0.0350
886.00,0.0349
885.00,0.0347
884.00,0.0345
883.00,0.0344
882.00,0.0342
881.00,0.0341
880.00,0.0341
879.00,0.0342
878.00,0.0341
877.00,0.0340
876.00,0.0337
875.00,0.0335
874.00,0.0332
873.00,0.0331
872.00,0.0331
871.00,0.0331
870.00,0.0331
869.00,0.0330
868.00,0.0329
867.00,0.0328
866.00,0.0326
865.00,0.0324
864.00,0.0323
863.00,0.0323
862.00,0.0322
861.00,0.0322
860.00,0.0321
859.00,0.0321
858.00,0.0319
857.00,0.0318
856.00,0.0317
855.00,0.0316
854.00,0.0315
853.00,0.0314
852.00,0.0312
851.00,0.0312
850.00,0.0311
849.00,0.0311
848.00,0.0310
847.00,0.0309
846.00,0.0307
845.00,0.0307
844.00,0.0308
843.00,0.0310
842.00,0.0311
841.00,0.0311
840.00,0.0312
839.00,0.0313
838.00,0.0314
837.00,0.0314
836.00,0.0314
835.00,0.0314
834.00,0.0315
833.00,0.0315
832.00,0.0316
831.00,0.0318
830.00,0.0320
829.00,0.0321
828.00,0.0322
827.00,0.0322
826.00,0.0323
825.00,0.0323
824.00,0.0324
823.00,0.0326
822.00,0.0328
821.00,0.0330
820.00,0.0332
819.00,0.0333
818.00,0.0334
817.00,0.0335
816.00,0.0335
815.00,0.0336
814.00,0.0338
813.00,0.0340
812.00,0.0342
811.00,0.0343
810.00,0.0343
809.00,0.0344
808.00,0.0345
807.00,0.0346
806.00,0.0348
805.00,0.0350
804.00,0.0352
803.00,0.0353
802.00,0.0353
801.00,0.0353
800.00,0.0353
799.00,0.0352
798.00,0.0352
797.00,0.0352
796.00,0.0353
795.00,0.0353
794.00,0.0353
793.00,0.0354
792.00,0.0355
791.00,0.0356
790.00,0.0357
789.00,0.0358
788.00,0.0360
787.00,0.0361
786.00,0.0362
785.00,0.0361
784.00,0.0359
783.00,0.0358
782.00,0.0358
781.00,0.0359
780.00,0.0360
779.00,0.0361
778.00,0.0362
777.00,0.0362
776.00,0.0361
775.00,0.0360
774.00,0.0360
773.00,0.0360
772.00,0.0360
771.00,0.0359
770.00,0.0358
769.00,0.0357
768.00,0.0358
767.00,0.0359
766.00,0.0360
765.00,0.0360
764.00,0.0360
763.00,0.0359
762.00,0.0358
761.00,0.0359
760.00,0.0360
759.00,0.0362
758.00,0.0364
757.00,0.0365
756.00,0.0365
755.00,0.0365
754.00,0.0363
753.00,0.0361
752.00,0.0360
751.00,0.0359
750.00,0.0359
749.00,0.0361
748.00,0.0364
747.00,0.0366
746.00,0.0366
745.00,0.0365
744.00,0.0363
743.00,0.0362
742.00,0.0361
741.00,0.0360
740.00,0.0360
739.00,0.0360
738.00,0.0361
737.00,0.0362
736.00,0.0363
735.00,0.0364
734.00,0.0365
733.00,0.0365
732.00,0.0366
731.00,0.0366
730.00,0.0367
729.00,0.0368
728.00,0.0369
727.00,0.0370
726.00,0.0370
725.00,0.0369
724.00,0.0368
723.00,0.0368
722.00,0.0368
721.00,0.0369
720.00,0.0369
719.00,0.0370
718.00,0.0371
717.00,0.0372
716.00,0.0370
715.00,0.0368
714.00,0.0366
713.00,0.0366
712.00,0.0367
711.00,0.0368
710.00,0.0369
709.00,0.0368
708.00,0.0368
707.00,0.0368
706.00,0.0369
705.00,0.0371
704.00,0.0372
703.00,0.0373
702.00,0.0374
701.00,0.0376
700.00,0.0377
699.00,0.0377
698.00,0.0377
697.00,0.0377
696.00,0.0376
695.00,0.0376
694.00,0.0376
693.00,0.0376
692.00,0.0376
691.00,0.0376
690.00,0.0376
689.00,0.0376
688.00,0.0376
687.00,0.0377
686.00,0.0379
685.00,0.0380
684.00,0.0381
683.00,0.0379
682.00,0.0376
681.00,0.0375
680.00,0.0375
679.00,0.0376
678.00,0.0377
677.00,0.0377
676.00,0.0379
675.00,0.0381
674.00,0.0384
673.00,0.0387
672.00,0.0388
671.00,0.0387
670.00,0.0383
669.00,0.0378
668.00,0.0373
667.00,0.0373
666.00,0.0378
665.00,0.0381
664.00,0.0383
663.00,0.0384
662.00,0.0386
661.00,0.0388
660.00,0.0390
659.00,0.0394
658.00,0.0394
657.00,0.0394
656.00,0.0396
655.00,0.0401
654.00,0.0405
653.00,0.0408
652.00,0.0406
651.00,0.0400
650.00,0.0390
