Created as New Dataset,Monday, April 03 2023
cm-1,A
4000.00,0.0190
3999.00,0.0190
3998.00,0.0190
3997.00,0.0189
3996.00,0.0189
3995.00,0.0189
3994.00,0.0189
3993.00,0.0189
3992.00,0.0189
3991.00,0.0189
3990.00,0.0189
3989.00,0.0189
3988.00,0.0189
3987.00,0.0189
3986.00,0.0189
3985.00,0.0188
3984.00,0.0188
3983.00,0.0188
3982.00,0.0187
3981.00,0.0187
3980.00,0.0188
3979.00,0.0188
3978.00,0.0188
3977.00,0.0188
3976.00,0.0188
3975.00,0.0188
3974.00,0.0188
3973.00,0.0187
3972.00,0.0187
3971.00,0.0187
3970.00,0.0187
3969.00,0.0187
3968.00,0.0187
3967.00,0.0187
3966.00,0.0188
3965.00,0.0188
3964.00,0.0188
3963.00,0.0188
3962.00,0.0188
3961.00,0.0188
3960.00,0.0188
3959.00,0.0188
3958.00,0.0188
3957.00,0.0187
3956.00,0.0187
3955.00,0.0187
3954.00,0.0187
3953.00,0.0187
3952.00,0.0187
3951.00,0.0187
3950.00,0.0187
3949.00,0.0187
3948.00,0.0188
3947.00,0.0188
3946.00,0.0188
3945.00,0.0187
3944.00,0.0186
3943.00,0.0186
3942.00,0.0186
3941.00,0.0186
3940.00,0.0187
3939.00,0.0187
3938.00,0.0187
3937.00,0.0187
3936.00,0.0188
3935.00,0.0188
3934.00,0.0189
3933.00,0.0188
3932.00,0.0188
3931.00,0.0187
3930.00,0.0186
3929.00,0.0186
3928.00,0.0186
3927.00,0.0185
3926.00,0.0185
3925.00,0.0185
3924.00,0.0185
3923.00,0.0185
3922.00,0.0186
3921.00,0.0187
3920.00,0.0188
3919.00,0.0188
3918.00,0.0189
3917.00,0.0188
3916.00,0.0187
3915.00,0.0186
3914.00,0.0185
3913.00,0.0184
3912.00,0.0184
3911.00,0.0184
3910.00,0.0185
3909.00,0.0185
3908.00,0.0186
3907.00,0.0186
3906.00,0.0187
3905.00,0.0188
3904.00,0.0190
3903.00,0.0191
3902.00,0.0191
3901.00,0.0190
3900.00,0.0188
3899.00,0.0187
3898.00,0.0187
3897.00,0.0187
3896.00,0.0188
3895.00,0.0188
3894.00,0.0187
3893.00,0.0186
3892.00,0.0186
3891.00,0.0186
3890.00,0.0186
3889.00,0.0187
3888.00,0.0188
3887.00,0.0188
3886.00,0.0188
3885.00,0.0188
3884.00,0.0187
3883.00,0.0186
3882.00,0.0184
3881.00,0.0183
3880.00,0.0183
3879.00,0.0184
3878.00,0.0186
3877.00,0.0187
3876.00,0.0186
3875.00,0.0185
3874.00,0.0185
3873.00,0.0186
3872.00,0.0186
3871.00,0.0187
3870.00,0.0187
3869.00,0.0187
3868.00,0.0189
3867.00,0.0190
3866.00,0.0190
3865.00,0.0188
3864.00,0.0186
3863.00,0.0185
3862.00,0.0185
3861.00,0.0186
3860.00,0.0187
3859.00,0.0187
3858.00,0.0187
3857.00,0.0187
3856.00,0.0189
3855.00,0.0191
3854.00,0.0191
3853.00,0.0189
3852.00,0.0187
3851.00,0.0186
3850.00,0.0185
3849.00,0.0185
3848.00,0.0185
3847.00,0.0185
3846.00,0.0185
3845.00,0.0185
3844.00,0.0185
3843.00,0.0185
3842.00,0.0186
3841.00,0.0186
3840.00,0.0186
3839.00,0.0185
3838.00,0.0185
3837.00,0.0184
3836.00,0.0184
3835.00,0.0184
3834.00,0.0184
3833.00,0.0184
3832.00,0.0185
3831.00,0.0185
3830.00,0.0185
3829.00,0.0185
3828.00,0.0184
3827.00,0.0183
3826.00,0.0184
3825.00,0.0185
3824.00,0.0186
3823.00,0.0187
3822.00,0.0186
3821.00,0.0185
3820.00,0.0185
3819.00,0.0185
3818.00,0.0185
3817.00,0.0184
3816.00,0.0183
3815.00,0.0182
3814.00,0.0182
3813.00,0.0182
3812.00,0.0183
3811.00,0.0182
3810.00,0.0182
3809.00,0.0183
3808.00,0.0184
3807.00,0.0184
3806.00,0.0185
3805.00,0.0186
3804.00,0.0186
3803.00,0.0186
3802.00,0.0184
3801.00,0.0183
3800.00,0.0183
3799.00,0.0182
3798.00,0.0182
3797.00,0.0181
3796.00,0.0180
3795.00,0.0180
3794.00,0.0181
3793.00,0.0180
3792.00,0.0180
3791.00,0.0180
3790.00,0.0180
3789.00,0.0180
3788.00,0.0181
3787.00,0.0180
3786.00,0.0180
3785.00,0.0179
3784.00,0.0179
3783.00,0.0180
3782.00,0.0180
3781.00,0.0180
3780.00,0.0179
3779.00,0.0178
3778.00,0.0178
3777.00,0.0179
3776.00,0.0180
3775.00,0.0180
3774.00,0.0180
3773.00,0.0180
3772.00,0.0181
3771.00,0.0181
3770.00,0.0181
3769.00,0.0182
3768.00,0.0181
3767.00,0.0181
3766.00,0.0181
3765.00,0.0181
3764.00,0.0181
3763.00,0.0182
3762.00,0.0183
3761.00,0.0182
3760.00,0.0181
3759.00,0.0181
3758.00,0.0181
3757.00,0.0182
3756.00,0.0183
3755.00,0.0185
3754.00,0.0187
3753.00,0.0190
3752.00,0.0192
3751.00,0.0194
3750.00,0.0194
3749.00,0.0194
3748.00,0.0192
3747.00,0.0190
3746.00,0.0188
3745.00,0.0187
3744.00,0.0188
3743.00,0.0188
3742.00,0.0187
3741.00,0.0187
3740.00,0.0187
3739.00,0.0187
3738.00,0.0187
3737.00,0.0187
3736.00,0.0187
3735.00,0.0186
3734.00,0.0185
3733.00,0.0185
3732.00,0.0185
3731.00,0.0184
3730.00,0.0183
3729.00,0.0183
3728.00,0.0183
3727.00,0.0183
3726.00,0.0182
3725.00,0.0181
3724.00,0.0180
3723.00,0.0179
3722.00,0.0177
3721.00,0.0177
3720.00,0.0177
3719.00,0.0178
3718.00,0.0179
3717.00,0.0180
3716.00,0.0181
3715.00,0.0182
3714.00,0.0184
3713.00,0.0185
3712.00,0.0184
3711.00,0.0184
3710.00,0.0184
3709.00,0.0184
3708.00,0.0185
3707.00,0.0185
3706.00,0.0185
3705.00,0.0185
3704.00,0.0184
3703.00,0.0184
3702.00,0.0184
3701.00,0.0185
3700.00,0.0186
3699.00,0.0188
3698.00,0.0188
3697.00,0.0189
3696.00,0.0189
3695.00,0.0189
3694.00,0.0190
3693.00,0.0190
3692.00,0.0190
3691.00,0.0190
3690.00,0.0189
3689.00,0.0189
3688.00,0.0189
3687.00,0.0189
3686.00,0.0189
3685.00,0.0189
3684.00,0.0189
3683.00,0.0188
3682.00,0.0188
3681.00,0.0188
3680.00,0.0188
3679.00,0.0188
3678.00,0.0188
3677.00,0.0190
3676.00,0.0190
3675.00,0.0191
3674.00,0.0193
3673.00,0.0195
3672.00,0.0196
3671.00,0.0194
3670.00,0.0192
3669.00,0.0191
3668.00,0.0191
3667.00,0.0192
3666.00,0.0193
3665.00,0.0193
3664.00,0.0194
3663.00,0.0195
3662.00,0.0196
3661.00,0.0197
3660.00,0.0197
3659.00,0.0199
3658.00,0.0201
3657.00,0.0203
3656.00,0.0205
3655.00,0.0207
3654.00,0.0207
3653.00,0.0207
3652.00,0.0208
3651.00,0.0210
3650.00,0.0213
3649.00,0.0214
3648.00,0.0213
3647.00,0.0213
3646.00,0.0213
3645.00,0.0214
3644.00,0.0214
3643.00,0.0214
3642.00,0.0214
3641.00,0.0214
3640.00,0.0215
3639.00,0.0215
3638.00,0.0215
3637.00,0.0216
3636.00,0.0217
3635.00,0.0218
3634.00,0.0220
3633.00,0.0221
3632.00,0.0223
3631.00,0.0225
3630.00,0.0228
3629.00,0.0231
3628.00,0.0233
3627.00,0.0234
3626.00,0.0233
3625.00,0.0233
3624.00,0.0233
3623.00,0.0233
3622.00,0.0233
3621.00,0.0234
3620.00,0.0236
3619.00,0.0237
3618.00,0.0238
3617.00,0.0238
3616.00,0.0238
3615.00,0.0238
3614.00,0.0238
3613.00,0.0239
3612.00,0.0242
3611.00,0.0244
3610.00,0.0245
3609.00,0.0245
3608.00,0.0244
3607.00,0.0243
3606.00,0.0243
3605.00,0.0243
3604.00,0.0243
3603.00,0.0243
3602.00,0.0243
3601.00,0.0243
3600.00,0.0244
3599.00,0.0244
3598.00,0.0244
3597.00,0.0245
3596.00,0.0245
3595.00,0.0247
3594.00,0.0248
3593.00,0.0249
3592.00,0.0250
3591.00,0.0251
3590.00,0.0251
3589.00,0.0251
3588.00,0.0251
3587.00,0.0252
3586.00,0.0253
3585.00,0.0254
3584.00,0.0254
3583.00,0.0254
3582.00,0.0254
3581.00,0.0254
3580.00,0.0255
3579.00,0.0255
3578.00,0.0256
3577.00,0.0256
3576.00,0.0256
3575.00,0.0257
3574.00,0.0258
3573.00,0.0259
3572.00,0.0259
3571.00,0.0259
3570.00,0.0259
3569.00,0.0260
3568.00,0.0263
3567.00,0.0265
3566.00,0.0266
3565.00,0.0267
3564.00,0.0267
3563.00,0.0267
3562.00,0.0267
3561.00,0.0267
3560.00,0.0267
3559.00,0.0267
3558.00,0.0268
3557.00,0.0269
3556.00,0.0269
3555.00,0.0270
3554.00,0.0271
3553.00,0.0271
3552.00,0.0273
3551.00,0.0274
3550.00,0.0275
3549.00,0.0275
3548.00,0.0276
3547.00,0.0277
3546.00,0.0279
3545.00,0.0279
3544.00,0.0279
3543.00,0.0279
3542.00,0.0280
3541.00,0.0280
3540.00,0.0280
3539.00,0.0280
3538.00,0.0281
3537.00,0.0282
3536.00,0.0282
3535.00,0.0283
3534.00,0.0284
3533.00,0.0284
3532.00,0.0284
3531.00,0.0285
3530.00,0.0285
3529.00,0.0287
3528.00,0.0288
3527.00,0.0290
3526.00,0.0291
3525.00,0.0291
3524.00,0.0292
3523.00,0.0292
3522.00,0.0292
3521.00,0.0293
3520.00,0.0293
3519.00,0.0293
3518.00,0.0294
3517.00,0.0294
3516.00,0.0295
3515.00,0.0295
3514.00,0.0295
3513.00,0.0296
3512.00,0.0296
3511.00,0.0297
3510.00,0.0298
3509.00,0.0300
3508.00,0.0301
3507.00,0.0301
3506.00,0.0301
3505.00,0.0301
3504.00,0.0302
3503.00,0.0303
3502.00,0.0305
3501.00,0.0306
3500.00,0.0306
3499.00,0.0306
3498.00,0.0306
3497.00,0.0306
3496.00,0.0307
3495.00,0.0308
3494.00,0.0308
3493.00,0.0309
3492.00,0.0309
3491.00,0.0309
3490.00,0.0309
3489.00,0.0310
3488.00,0.0310
3487.00,0.0311
3486.00,0.0312
3485.00,0.0312
3484.00,0.0313
3483.00,0.0313
3482.00,0.0314
3481.00,0.0315
3480.00,0.0316
3479.00,0.0317
3478.00,0.0318
3477.00,0.0318
3476.00,0.0319
3475.00,0.0319
3474.00,0.0319
3473.00,0.0319
3472.00,0.0320
3471.00,0.0320
3470.00,0.0321
3469.00,0.0321
3468.00,0.0322
3467.00,0.0323
3466.00,0.0323
3465.00,0.0324
3464.00,0.0324
3463.00,0.0325
3462.00,0.0325
3461.00,0.0325
3460.00,0.0326
3459.00,0.0326
3458.00,0.0326
3457.00,0.0326
3456.00,0.0326
3455.00,0.0327
3454.00,0.0328
3453.00,0.0329
3452.00,0.0330
3451.00,0.0331
3450.00,0.0332
3449.00,0.0332
3448.00,0.0332
3447.00,0.0333
3446.00,0.0334
3445.00,0.0334
3444.00,0.0334
3443.00,0.0334
3442.00,0.0334
3441.00,0.0335
3440.00,0.0335
3439.00,0.0336
3438.00,0.0336
3437.00,0.0337
3436.00,0.0337
3435.00,0.0337
3434.00,0.0338
3433.00,0.0338
3432.00,0.0339
3431.00,0.0339
3430.00,0.0340
3429.00,0.0340
3428.00,0.0341
3427.00,0.0341
3426.00,0.0342
3425.00,0.0343
3424.00,0.0343
3423.00,0.0344
3422.00,0.0344
3421.00,0.0345
3420.00,0.0345
3419.00,0.0346
3418.00,0.0346
3417.00,0.0346
3416.00,0.0346
3415.00,0.0346
3414.00,0.0346
3413.00,0.0347
3412.00,0.0347
3411.00,0.0348
3410.00,0.0348
3409.00,0.0348
3408.00,0.0348
3407.00,0.0348
3406.00,0.0349
3405.00,0.0350
3404.00,0.0350
3403.00,0.0351
3402.00,0.0351
3401.00,0.0351
3400.00,0.0351
3399.00,0.0351
3398.00,0.0351
3397.00,0.0351
3396.00,0.0352
3395.00,0.0353
3394.00,0.0353
3393.00,0.0354
3392.00,0.0355
3391.00,0.0355
3390.00,0.0355
3389.00,0.0355
3388.00,0.0355
3387.00,0.0355
3386.00,0.0355
3385.00,0.0355
3384.00,0.0355
3383.00,0.0355
3382.00,0.0355
3381.00,0.0356
3380.00,0.0356
3379.00,0.0357
3378.00,0.0358
3377.00,0.0358
3376.00,0.0358
3375.00,0.0358
3374.00,0.0359
3373.00,0.0358
3372.00,0.0358
3371.00,0.0358
3370.00,0.0357
3369.00,0.0357
3368.00,0.0357
3367.00,0.0358
3366.00,0.0359
3365.00,0.0360
3364.00,0.0361
3363.00,0.0361
3362.00,0.0361
3361.00,0.0361
3360.00,0.0361
3359.00,0.0361
3358.00,0.0361
3357.00,0.0361
3356.00,0.0361
3355.00,0.0361
3354.00,0.0362
3353.00,0.0362
3352.00,0.0363
3351.00,0.0363
3350.00,0.0363
3349.00,0.0363
3348.00,0.0363
3347.00,0.0363
3346.00,0.0362
3345.00,0.0362
3344.00,0.0362
3343.00,0.0362
3342.00,0.0362
3341.00,0.0363
3340.00,0.0363
3339.00,0.0363
3338.00,0.0363
3337.00,0.0363
3336.00,0.0363
3335.00,0.0363
3334.00,0.0363
3333.00,0.0363
3332.00,0.0363
3331.00,0.0363
3330.00,0.0363
3329.00,0.0364
3328.00,0.0364
3327.00,0.0364
3326.00,0.0363
3325.00,0.0363
3324.00,0.0363
3323.00,0.0363
3322.00,0.0363
3321.00,0.0363
3320.00,0.0363
3319.00,0.0364
3318.00,0.0364
3317.00,0.0364
3316.00,0.0364
3315.00,0.0364
3314.00,0.0364
3313.00,0.0364
3312.00,0.0364
3311.00,0.0364
3310.00,0.0364
3309.00,0.0364
3308.00,0.0364
3307.00,0.0364
3306.00,0.0364
3305.00,0.0364
3304.00,0.0364
3303.00,0.0364
3302.00,0.0364
3301.00,0.0364
3300.00,0.0364
3299.00,0.0364
3298.00,0.0364
3297.00,0.0364
3296.00,0.0364
3295.00,0.0364
3294.00,0.0364
3293.00,0.0364
3292.00,0.0365
3291.00,0.0365
3290.00,0.0365
3289.00,0.0365
3288.00,0.0365
3287.00,0.0365
3286.00,0.0365
3285.00,0.0365
3284.00,0.0364
3283.00,0.0364
3282.00,0.0364
3281.00,0.0364
3280.00,0.0364
3279.00,0.0364
3278.00,0.0364
3277.00,0.0364
3276.00,0.0364
3275.00,0.0364
3274.00,0.0364
3273.00,0.0364
3272.00,0.0364
3271.00,0.0364
3270.00,0.0364
3269.00,0.0364
3268.00,0.0364
3267.00,0.0364
3266.00,0.0364
3265.00,0.0364
3264.00,0.0364
3263.00,0.0363
3262.00,0.0363
3261.00,0.0363
3260.00,0.0363
3259.00,0.0363
3258.00,0.0363
3257.00,0.0363
3256.00,0.0363
3255.00,0.0363
3254.00,0.0363
3253.00,0.0363
3252.00,0.0364
3251.00,0.0364
3250.00,0.0364
3249.00,0.0364
3248.00,0.0364
3247.00,0.0364
3246.00,0.0364
3245.00,0.0364
3244.00,0.0364
3243.00,0.0364
3242.00,0.0364
3241.00,0.0363
3240.00,0.0363
3239.00,0.0363
3238.00,0.0363
3237.00,0.0363
3236.00,0.0363
3235.00,0.0363
3234.00,0.0363
3233.00,0.0363
3232.00,0.0363
3231.00,0.0363
3230.00,0.0363
3229.00,0.0363
3228.00,0.0363
3227.00,0.0363
3226.00,0.0363
3225.00,0.0363
3224.00,0.0363
3223.00,0.0362
3222.00,0.0362
3221.00,0.0362
3220.00,0.0362
3219.00,0.0363
3218.00,0.0363
3217.00,0.0363
3216.00,0.0363
3215.00,0.0362
3214.00,0.0362
3213.00,0.0361
3212.00,0.0361
3211.00,0.0361
3210.00,0.0361
3209.00,0.0362
3208.00,0.0362
3207.00,0.0361
3206.00,0.0361
3205.00,0.0361
3204.00,0.0361
3203.00,0.0361
3202.00,0.0361
3201.00,0.0361
3200.00,0.0360
3199.00,0.0360
3198.00,0.0360
3197.00,0.0360
3196.00,0.0360
3195.00,0.0360
3194.00,0.0360
3193.00,0.0359
3192.00,0.0359
3191.00,0.0359
3190.00,0.0359
3189.00,0.0359
3188.00,0.0359
3187.00,0.0359
3186.00,0.0359
3185.00,0.0359
3184.00,0.0358
3183.00,0.0358
3182.00,0.0357
3181.00,0.0357
3180.00,0.0357
3179.00,0.0356
3178.00,0.0356
3177.00,0.0356
3176.00,0.0356
3175.00,0.0356
3174.00,0.0356
3173.00,0.0356
3172.00,0.0356
3171.00,0.0356
3170.00,0.0356
3169.00,0.0355
3168.00,0.0355
3167.00,0.0355
3166.00,0.0354
3165.00,0.0354
3164.00,0.0354
3163.00,0.0354
3162.00,0.0354
3161.00,0.0354
3160.00,0.0353
3159.00,0.0353
3158.00,0.0352
3157.00,0.0352
3156.00,0.0351
3155.00,0.0351
3154.00,0.0351
3153.00,0.0351
3152.00,0.0351
3151.00,0.0351
3150.00,0.0351
3149.00,0.0351
3148.00,0.0351
3147.00,0.0350
3146.00,0.0350
3145.00,0.0350
3144.00,0.0349
3143.00,0.0349
3142.00,0.0349
3141.00,0.0349
3140.00,0.0349
3139.00,0.0349
3138.00,0.0349
3137.00,0.0349
3136.00,0.0349
3135.00,0.0348
3134.00,0.0348
3133.00,0.0347
3132.00,0.0347
3131.00,0.0347
3130.00,0.0347
3129.00,0.0347
3128.00,0.0347
3127.00,0.0346
3126.00,0.0346
3125.00,0.0346
3124.00,0.0345
3123.00,0.0345
3122.00,0.0345
3121.00,0.0345
3120.00,0.0345
3119.00,0.0345
3118.00,0.0345
3117.00,0.0344
3116.00,0.0344
3115.00,0.0344
3114.00,0.0344
3113.00,0.0344
3112.00,0.0343
3111.00,0.0343
3110.00,0.0343
3109.00,0.0342
3108.00,0.0342
3107.00,0.0342
3106.00,0.0342
3105.00,0.0342
3104.00,0.0342
3103.00,0.0342
3102.00,0.0342
3101.00,0.0341
3100.00,0.0341
3099.00,0.0341
3098.00,0.0340
3097.00,0.0340
3096.00,0.0340
3095.00,0.0340
3094.00,0.0340
3093.00,0.0340
3092.00,0.0340
3091.00,0.0340
3090.00,0.0340
3089.00,0.0339
3088.00,0.0339
3087.00,0.0339
3086.00,0.0339
3085.00,0.0339
3084.00,0.0339
3083.00,0.0338
3082.00,0.0338
3081.00,0.0338
3080.00,0.0338
3079.00,0.0338
3078.00,0.0338
3077.00,0.0337
3076.00,0.0336
3075.00,0.0336
3074.00,0.0335
3073.00,0.0335
3072.00,0.0335
3071.00,0.0334
3070.00,0.0334
3069.00,0.0334
3068.00,0.0334
3067.00,0.0335
3066.00,0.0335
3065.00,0.0335
3064.00,0.0335
3063.00,0.0335
3062.00,0.0335
3061.00,0.0334
3060.00,0.0334
3059.00,0.0333
3058.00,0.0333
3057.00,0.0332
3056.00,0.0332
3055.00,0.0331
3054.00,0.0331
3053.00,0.0331
3052.00,0.0330
3051.00,0.0330
3050.00,0.0330
3049.00,0.0330
3048.00,0.0330
3047.00,0.0330
3046.00,0.0329
3045.00,0.0329
3044.00,0.0329
3043.00,0.0328
3042.00,0.0328
3041.00,0.0327
3040.00,0.0327
3039.00,0.0327
3038.00,0.0327
3037.00,0.0327
3036.00,0.0327
3035.00,0.0326
3034.00,0.0326
3033.00,0.0325
3032.00,0.0324
3031.00,0.0324
3030.00,0.0324
3029.00,0.0323
3028.00,0.0323
3027.00,0.0323
3026.00,0.0322
3025.00,0.0322
3024.00,0.0322
3023.00,0.0322
3022.00,0.0321
3021.00,0.0321
3020.00,0.0320
3019.00,0.0320
3018.00,0.0319
3017.00,0.0319
3016.00,0.0319
3015.00,0.0320
3014.00,0.0320
3013.00,0.0320
3012.00,0.0320
3011.00,0.0319
3010.00,0.0319
3009.00,0.0318
3008.00,0.0318
3007.00,0.0317
3006.00,0.0317
3005.00,0.0317
3004.00,0.0316
3003.00,0.0316
3002.00,0.0316
3001.00,0.0316
3000.00,0.0315
2999.00,0.0315
2998.00,0.0314
2997.00,0.0314
2996.00,0.0314
2995.00,0.0314
2994.00,0.0314
2993.00,0.0313
2992.00,0.0313
2991.00,0.0313
2990.00,0.0313
2989.00,0.0313
2988.00,0.0313
2987.00,0.0312
2986.00,0.0312
2985.00,0.0311
2984.00,0.0311
2983.00,0.0310
2982.00,0.0309
2981.00,0.0309
2980.00,0.0308
2979.00,0.0308
2978.00,0.0308
2977.00,0.0309
2976.00,0.0309
2975.00,0.0309
2974.00,0.0309
2973.00,0.0309
2972.00,0.0309
2971.00,0.0308
2970.00,0.0308
2969.00,0.0307
2968.00,0.0307
2967.00,0.0306
2966.00,0.0306
2965.00,0.0306
2964.00,0.0306
2963.00,0.0306
2962.00,0.0305
2961.00,0.0305
2960.00,0.0304
2959.00,0.0304
2958.00,0.0304
2957.00,0.0304
2956.00,0.0304
2955.00,0.0304
2954.00,0.0304
2953.00,0.0305
2952.00,0.0305
2951.00,0.0305
2950.00,0.0305
2949.00,0.0305
2948.00,0.0305
2947.00,0.0305
2946.00,0.0305
2945.00,0.0304
2944.00,0.0304
2943.00,0.0304
2942.00,0.0304
2941.00,0.0303
2940.00,0.0303
2939.00,0.0302
2938.00,0.0302
2937.00,0.0302
2936.00,0.0301
2935.00,0.0300
2934.00,0.0299
2933.00,0.0298
2932.00,0.0297
2931.00,0.0297
2930.00,0.0296
2929.00,0.0295
2928.00,0.0295
2927.00,0.0295
2926.00,0.0294
2925.00,0.0294
2924.00,0.0294
2923.00,0.0294
2922.00,0.0294
2921.00,0.0294
2920.00,0.0294
2919.00,0.0294
2918.00,0.0293
2917.00,0.0293
2916.00,0.0293
2915.00,0.0293
2914.00,0.0294
2913.00,0.0295
2912.00,0.0295
2911.00,0.0295
2910.00,0.0295
2909.00,0.0295
2908.00,0.0296
2907.00,0.0296
2906.00,0.0296
2905.00,0.0296
2904.00,0.0296
2903.00,0.0296
2902.00,0.0296
2901.00,0.0296
2900.00,0.0296
2899.00,0.0295
2898.00,0.0295
2897.00,0.0295
2896.00,0.0294
2895.00,0.0294
2894.00,0.0295
2893.00,0.0295
2892.00,0.0295
2891.00,0.0295
2890.00,0.0294
2889.00,0.0294
2888.00,0.0294
2887.00,0.0294
2886.00,0.0294
2885.00,0.0293
2884.00,0.0293
2883.00,0.0293
2882.00,0.0293
2881.00,0.0293
2880.00,0.0293
2879.00,0.0293
2878.00,0.0292
2877.00,0.0292
2876.00,0.0291
2875.00,0.0291
2874.00,0.0290
2873.00,0.0290
2872.00,0.0289
2871.00,0.0289
2870.00,0.0288
2869.00,0.0288
2868.00,0.0288
2867.00,0.0287
2866.00,0.0287
2865.00,0.0286
2864.00,0.0286
2863.00,0.0286
2862.00,0.0286
2861.00,0.0285
2860.00,0.0285
2859.00,0.0284
2858.00,0.0284
2857.00,0.0283
2856.00,0.0282
2855.00,0.0282
2854.00,0.0281
2853.00,0.0281
2852.00,0.0280
2851.00,0.0281
2850.00,0.0281
2849.00,0.0281
2848.00,0.0282
2847.00,0.0282
2846.00,0.0283
2845.00,0.0283
2844.00,0.0283
2843.00,0.0283
2842.00,0.0283
2841.00,0.0283
2840.00,0.0283
2839.00,0.0282
2838.00,0.0282
2837.00,0.0282
2836.00,0.0282
2835.00,0.0282
2834.00,0.0282
2833.00,0.0282
2832.00,0.0281
2831.00,0.0281
2830.00,0.0281
2829.00,0.0281
2828.00,0.0281
2827.00,0.0280
2826.00,0.0280
2825.00,0.0280
2824.00,0.0280
2823.00,0.0280
2822.00,0.0280
2821.00,0.0280
2820.00,0.0280
2819.00,0.0280
2818.00,0.0279
2817.00,0.0279
2816.00,0.0279
2815.00,0.0279
2814.00,0.0279
2813.00,0.0278
2812.00,0.0278
2811.00,0.0278
2810.00,0.0277
2809.00,0.0277
2808.00,0.0277
2807.00,0.0277
2806.00,0.0276
2805.00,0.0276
2804.00,0.0276
2803.00,0.0276
2802.00,0.0276
2801.00,0.0276
2800.00,0.0275
2799.00,0.0275
2798.00,0.0274
2797.00,0.0274
2796.00,0.0274
2795.00,0.0273
2794.00,0.0273
2793.00,0.0273
2792.00,0.0273
2791.00,0.0273
2790.00,0.0273
2789.00,0.0273
2788.00,0.0273
2787.00,0.0273
2786.00,0.0273
2785.00,0.0272
2784.00,0.0272
2783.00,0.0272
2782.00,0.0272
2781.00,0.0271
2780.00,0.0271
2779.00,0.0270
2778.00,0.0270
2777.00,0.0270
2776.00,0.0270
2775.00,0.0270
2774.00,0.0270
2773.00,0.0270
2772.00,0.0270
2771.00,0.0270
2770.00,0.0269
2769.00,0.0269
2768.00,0.0269
2767.00,0.0268
2766.00,0.0268
2765.00,0.0268
2764.00,0.0268
2763.00,0.0268
2762.00,0.0268
2761.00,0.0267
2760.00,0.0267
2759.00,0.0267
2758.00,0.0267
2757.00,0.0266
2756.00,0.0267
2755.00,0.0267
2754.00,0.0267
2753.00,0.0266
2752.00,0.0266
2751.00,0.0265
2750.00,0.0265
2749.00,0.0265
2748.00,0.0265
2747.00,0.0265
2746.00,0.0265
2745.00,0.0264
2744.00,0.0264
2743.00,0.0264
2742.00,0.0264
2741.00,0.0264
2740.00,0.0264
2739.00,0.0263
2738.00,0.0263
2737.00,0.0263
2736.00,0.0263
2735.00,0.0263
2734.00,0.0263
2733.00,0.0262
2732.00,0.0262
2731.00,0.0262
2730.00,0.0262
2729.00,0.0261
2728.00,0.0261
2727.00,0.0261
2726.00,0.0261
2725.00,0.0261
2724.00,0.0261
2723.00,0.0261
2722.00,0.0260
2721.00,0.0260
2720.00,0.0260
2719.00,0.0261
2718.00,0.0261
2717.00,0.0261
2716.00,0.0261
2715.00,0.0261
2714.00,0.0260
2713.00,0.0260
2712.00,0.0259
2711.00,0.0259
2710.00,0.0259
2709.00,0.0258
2708.00,0.0258
2707.00,0.0258
2706.00,0.0258
2705.00,0.0258
2704.00,0.0257
2703.00,0.0257
2702.00,0.0257
2701.00,0.0257
2700.00,0.0257
2699.00,0.0257
2698.00,0.0257
2697.00,0.0257
2696.00,0.0257
2695.00,0.0257
2694.00,0.0256
2693.00,0.0256
2692.00,0.0256
2691.00,0.0256
2690.00,0.0256
2689.00,0.0256
2688.00,0.0256
2687.00,0.0256
2686.00,0.0256
2685.00,0.0256
2684.00,0.0256
2683.00,0.0255
2682.00,0.0255
2681.00,0.0255
2680.00,0.0255
2679.00,0.0254
2678.00,0.0254
2677.00,0.0254
2676.00,0.0254
2675.00,0.0254
2674.00,0.0254
2673.00,0.0254
2672.00,0.0254
2671.00,0.0254
2670.00,0.0254
2669.00,0.0254
2668.00,0.0254
2667.00,0.0254
2666.00,0.0254
2665.00,0.0254
2664.00,0.0254
2663.00,0.0254
2662.00,0.0255
2661.00,0.0255
2660.00,0.0255
2659.00,0.0255
2658.00,0.0254
2657.00,0.0255
2656.00,0.0255
2655.00,0.0255
2654.00,0.0256
2653.00,0.0256
2652.00,0.0256
2651.00,0.0256
2650.00,0.0255
2649.00,0.0255
2648.00,0.0255
2647.00,0.0255
2646.00,0.0255
2645.00,0.0255
2644.00,0.0255
2643.00,0.0255
2642.00,0.0255
2641.00,0.0255
2640.00,0.0255
2639.00,0.0255
2638.00,0.0255
2637.00,0.0255
2636.00,0.0254
2635.00,0.0255
2634.00,0.0255
2633.00,0.0255
2632.00,0.0255
2631.00,0.0255
2630.00,0.0255
2629.00,0.0256
2628.00,0.0256
2627.00,0.0256
2626.00,0.0256
2625.00,0.0255
2624.00,0.0255
2623.00,0.0255
2622.00,0.0255
2621.00,0.0255
2620.00,0.0254
2619.00,0.0254
2618.00,0.0254
2617.00,0.0255
2616.00,0.0255
2615.00,0.0255
2614.00,0.0255
2613.00,0.0255
2612.00,0.0255
2611.00,0.0255
2610.00,0.0255
2609.00,0.0255
2608.00,0.0255
2607.00,0.0255
2606.00,0.0255
2605.00,0.0255
2604.00,0.0255
2603.00,0.0255
2602.00,0.0255
2601.00,0.0254
2600.00,0.0254
2599.00,0.0254
2598.00,0.0254
2597.00,0.0254
2596.00,0.0254
2595.00,0.0254
2594.00,0.0254
2593.00,0.0254
2592.00,0.0254
2591.00,0.0254
2590.00,0.0254
2589.00,0.0254
2588.00,0.0254
2587.00,0.0253
2586.00,0.0253
2585.00,0.0253
2584.00,0.0253
2583.00,0.0253
2582.00,0.0254
2581.00,0.0255
2580.00,0.0255
2579.00,0.0255
2578.00,0.0255
2577.00,0.0255
2576.00,0.0254
2575.00,0.0254
2574.00,0.0254
2573.00,0.0254
2572.00,0.0254
2571.00,0.0254
2570.00,0.0254
2569.00,0.0253
2568.00,0.0253
2567.00,0.0253
2566.00,0.0253
2565.00,0.0253
2564.00,0.0253
2563.00,0.0253
2562.00,0.0252
2561.00,0.0252
2560.00,0.0252
2559.00,0.0252
2558.00,0.0252
2557.00,0.0253
2556.00,0.0253
2555.00,0.0253
2554.00,0.0253
2553.00,0.0253
2552.00,0.0253
2551.00,0.0253
2550.00,0.0253
2549.00,0.0253
2548.00,0.0253
2547.00,0.0252
2546.00,0.0252
2545.00,0.0252
2544.00,0.0252
2543.00,0.0251
2542.00,0.0251
2541.00,0.0251
2540.00,0.0252
2539.00,0.0251
2538.00,0.0251
2537.00,0.0251
2536.00,0.0250
2535.00,0.0250
2534.00,0.0250
2533.00,0.0250
2532.00,0.0250
2531.00,0.0250
2530.00,0.0250
2529.00,0.0250
2528.00,0.0250
2527.00,0.0251
2526.00,0.0251
2525.00,0.0251
2524.00,0.0251
2523.00,0.0251
2522.00,0.0251
2521.00,0.0251
2520.00,0.0251
2519.00,0.0251
2518.00,0.0250
2517.00,0.0250
2516.00,0.0250
2515.00,0.0251
2514.00,0.0251
2513.00,0.0251
2512.00,0.0250
2511.00,0.0249
2510.00,0.0248
2509.00,0.0248
2508.00,0.0248
2507.00,0.0248
2506.00,0.0249
2505.00,0.0249
2504.00,0.0249
2503.00,0.0249
2502.00,0.0249
2501.00,0.0249
2500.00,0.0249
2499.00,0.0249
2498.00,0.0249
2497.00,0.0249
2496.00,0.0249
2495.00,0.0249
2494.00,0.0249
2493.00,0.0249
2492.00,0.0249
2491.00,0.0249
2490.00,0.0249
2489.00,0.0249
2488.00,0.0248
2487.00,0.0248
2486.00,0.0248
2485.00,0.0247
2484.00,0.0247
2483.00,0.0247
2482.00,0.0247
2481.00,0.0248
2480.00,0.0248
2479.00,0.0247
2478.00,0.0247
2477.00,0.0247
2476.00,0.0247
2475.00,0.0247
2474.00,0.0247
2473.00,0.0247
2472.00,0.0247
2471.00,0.0247
2470.00,0.0247
2469.00,0.0247
2468.00,0.0247
2467.00,0.0247
2466.00,0.0247
2465.00,0.0246
2464.00,0.0246
2463.00,0.0247
2462.00,0.0247
2461.00,0.0247
2460.00,0.0246
2459.00,0.0246
2458.00,0.0246
2457.00,0.0246
2456.00,0.0245
2455.00,0.0246
2454.00,0.0246
2453.00,0.0247
2452.00,0.0247
2451.00,0.0247
2450.00,0.0247
2449.00,0.0246
2448.00,0.0246
2447.00,0.0246
2446.00,0.0246
2445.00,0.0245
2444.00,0.0245
2443.00,0.0245
2442.00,0.0245
2441.00,0.0245
2440.00,0.0245
2439.00,0.0245
2438.00,0.0245
2437.00,0.0245
2436.00,0.0245
2435.00,0.0245
2434.00,0.0245
2433.00,0.0244
2432.00,0.0244
2431.00,0.0243
2430.00,0.0243
2429.00,0.0243
2428.00,0.0243
2427.00,0.0243
2426.00,0.0244
2425.00,0.0244
2424.00,0.0244
2423.00,0.0243
2422.00,0.0243
2421.00,0.0242
2420.00,0.0242
2419.00,0.0241
2418.00,0.0241
2417.00,0.0240
2416.00,0.0240
2415.00,0.0240
2414.00,0.0241
2413.00,0.0241
2412.00,0.0241
2411.00,0.0241
2410.00,0.0240
2409.00,0.0240
2408.00,0.0239
2407.00,0.0239
2406.00,0.0239
2405.00,0.0239
2404.00,0.0239
2403.00,0.0239
2402.00,0.0239
2401.00,0.0239
2400.00,0.0239
2399.00,0.0238
2398.00,0.0238
2397.00,0.0238
2396.00,0.0239
2395.00,0.0238
2394.00,0.0238
2393.00,0.0237
2392.00,0.0237
2391.00,0.0236
2390.00,0.0236
2389.00,0.0236
2388.00,0.0236
2387.00,0.0236
2386.00,0.0236
2385.00,0.0236
2384.00,0.0236
2383.00,0.0235
2382.00,0.0235
2381.00,0.0233
2380.00,0.0232
2379.00,0.0229
2378.00,0.0227
2377.00,0.0226
2376.00,0.0225
2375.00,0.0224
2374.00,0.0223
2373.00,0.0223
2372.00,0.0224
2371.00,0.0224
2370.00,0.0225
2369.00,0.0226
2368.00,0.0226
2367.00,0.0225
2366.00,0.0225
2365.00,0.0224
2364.00,0.0224
2363.00,0.0223
2362.00,0.0222
2361.00,0.0222
2360.00,0.0223
2359.00,0.0223
2358.00,0.0223
2357.00,0.0222
2356.00,0.0222
2355.00,0.0223
2354.00,0.0225
2353.00,0.0227
2352.00,0.0227
2351.00,0.0224
2350.00,0.0220
2349.00,0.0218
2348.00,0.0218
2347.00,0.0221
2346.00,0.0223
2345.00,0.0224
2344.00,0.0221
2343.00,0.0218
2342.00,0.0218
2341.00,0.0220
2340.00,0.0221
2339.00,0.0223
2338.00,0.0223
2337.00,0.0224
2336.00,0.0223
2335.00,0.0223
2334.00,0.0223
2333.00,0.0223
2332.00,0.0223
2331.00,0.0223
2330.00,0.0223
2329.00,0.0224
2328.00,0.0226
2327.00,0.0229
2326.00,0.0231
2325.00,0.0232
2324.00,0.0232
2323.00,0.0231
2322.00,0.0230
2321.00,0.0230
2320.00,0.0230
2319.00,0.0231
2318.00,0.0231
2317.00,0.0231
2316.00,0.0231
2315.00,0.0231
2314.00,0.0231
2313.00,0.0231
2312.00,0.0230
2311.00,0.0229
2310.00,0.0229
2309.00,0.0228
2308.00,0.0228
2307.00,0.0228
2306.00,0.0228
2305.00,0.0228
2304.00,0.0228
2303.00,0.0228
2302.00,0.0228
2301.00,0.0229
2300.00,0.0229
2299.00,0.0229
2298.00,0.0229
2297.00,0.0230
2296.00,0.0230
2295.00,0.0231
2294.00,0.0231
2293.00,0.0232
2292.00,0.0233
2291.00,0.0234
2290.00,0.0235
2289.00,0.0236
2288.00,0.0236
2287.00,0.0236
2286.00,0.0236
2285.00,0.0236
2284.00,0.0236
2283.00,0.0235
2282.00,0.0235
2281.00,0.0235
2280.00,0.0235
2279.00,0.0235
2278.00,0.0234
2277.00,0.0234
2276.00,0.0234
2275.00,0.0234
2274.00,0.0234
2273.00,0.0234
2272.00,0.0234
2271.00,0.0234
2270.00,0.0234
2269.00,0.0234
2268.00,0.0234
2267.00,0.0233
2266.00,0.0233
2265.00,0.0234
2264.00,0.0234
2263.00,0.0235
2262.00,0.0236
2261.00,0.0236
2260.00,0.0236
2259.00,0.0235
2258.00,0.0235
2257.00,0.0235
2256.00,0.0234
2255.00,0.0233
2254.00,0.0232
2253.00,0.0232
2252.00,0.0233
2251.00,0.0233
2250.00,0.0233
2249.00,0.0233
2248.00,0.0233
2247.00,0.0233
2246.00,0.0234
2245.00,0.0234
2244.00,0.0235
2243.00,0.0236
2242.00,0.0236
2241.00,0.0236
2240.00,0.0235
2239.00,0.0235
2238.00,0.0235
2237.00,0.0235
2236.00,0.0235
2235.00,0.0235
2234.00,0.0235
2233.00,0.0236
2232.00,0.0236
2231.00,0.0236
2230.00,0.0236
2229.00,0.0236
2228.00,0.0236
2227.00,0.0236
2226.00,0.0236
2225.00,0.0236
2224.00,0.0236
2223.00,0.0235
2222.00,0.0235
2221.00,0.0235
2220.00,0.0235
2219.00,0.0235
2218.00,0.0235
2217.00,0.0235
2216.00,0.0235
2215.00,0.0236
2214.00,0.0237
2213.00,0.0237
2212.00,0.0237
2211.00,0.0237
2210.00,0.0235
2209.00,0.0234
2208.00,0.0233
2207.00,0.0232
2206.00,0.0231
2205.00,0.0231
2204.00,0.0231
2203.00,0.0231
2202.00,0.0231
2201.00,0.0233
2200.00,0.0234
2199.00,0.0236
2198.00,0.0237
2197.00,0.0237
2196.00,0.0236
2195.00,0.0234
2194.00,0.0233
2193.00,0.0232
2192.00,0.0233
2191.00,0.0233
2190.00,0.0234
2189.00,0.0235
2188.00,0.0236
2187.00,0.0237
2186.00,0.0238
2185.00,0.0238
2184.00,0.0236
2183.00,0.0234
2182.00,0.0233
2181.00,0.0233
2180.00,0.0233
2179.00,0.0232
2178.00,0.0232
2177.00,0.0231
2176.00,0.0230
2175.00,0.0230
2174.00,0.0231
2173.00,0.0233
2172.00,0.0234
2171.00,0.0237
2170.00,0.0239
2169.00,0.0240
2168.00,0.0240
2167.00,0.0238
2166.00,0.0237
2165.00,0.0238
2164.00,0.0240
2163.00,0.0241
2162.00,0.0239
2161.00,0.0235
2160.00,0.0228
2159.00,0.0223
2158.00,0.0221
2157.00,0.0221
2156.00,0.0221
2155.00,0.0220
2154.00,0.0219
2153.00,0.0218
2152.00,0.0217
2151.00,0.0217
2150.00,0.0216
2149.00,0.0216
2148.00,0.0215
2147.00,0.0215
2146.00,0.0215
2145.00,0.0215
2144.00,0.0216
2143.00,0.0217
2142.00,0.0217
2141.00,0.0217
2140.00,0.0217
2139.00,0.0217
2138.00,0.0216
2137.00,0.0215
2136.00,0.0213
2135.00,0.0211
2134.00,0.0210
2133.00,0.0211
2132.00,0.0212
2131.00,0.0213
2130.00,0.0214
2129.00,0.0214
2128.00,0.0214
2127.00,0.0214
2126.00,0.0214
2125.00,0.0214
2124.00,0.0214
2123.00,0.0215
2122.00,0.0215
2121.00,0.0215
2120.00,0.0215
2119.00,0.0216
2118.00,0.0217
2117.00,0.0218
2116.00,0.0217
2115.00,0.0216
2114.00,0.0216
2113.00,0.0216
2112.00,0.0216
2111.00,0.0216
2110.00,0.0216
2109.00,0.0215
2108.00,0.0214
2107.00,0.0213
2106.00,0.0213
2105.00,0.0213
2104.00,0.0213
2103.00,0.0213
2102.00,0.0213
2101.00,0.0214
2100.00,0.0213
2099.00,0.0213
2098.00,0.0212
2097.00,0.0212
2096.00,0.0211
2095.00,0.0211
2094.00,0.0211
2093.00,0.0212
2092.00,0.0212
2091.00,0.0212
2090.00,0.0212
2089.00,0.0212
2088.00,0.0211
2087.00,0.0211
2086.00,0.0211
2085.00,0.0212
2084.00,0.0212
2083.00,0.0212
2082.00,0.0211
2081.00,0.0210
2080.00,0.0209
2079.00,0.0210
2078.00,0.0211
2077.00,0.0211
2076.00,0.0211
2075.00,0.0211
2074.00,0.0210
2073.00,0.0210
2072.00,0.0210
2071.00,0.0209
2070.00,0.0209
2069.00,0.0209
2068.00,0.0208
2067.00,0.0208
2066.00,0.0208
2065.00,0.0208
2064.00,0.0208
2063.00,0.0207
2062.00,0.0207
2061.00,0.0207
2060.00,0.0208
2059.00,0.0208
2058.00,0.0209
2057.00,0.0209
2056.00,0.0209
2055.00,0.0209
2054.00,0.0210
2053.00,0.0211
2052.00,0.0212
2051.00,0.0213
2050.00,0.0213
2049.00,0.0213
2048.00,0.0212
2047.00,0.0212
2046.00,0.0212
2045.00,0.0212
2044.00,0.0213
2043.00,0.0213
2042.00,0.0212
2041.00,0.0212
2040.00,0.0212
2039.00,0.0213
2038.00,0.0214
2037.00,0.0216
2036.00,0.0218
2035.00,0.0219
2034.00,0.0218
2033.00,0.0215
2032.00,0.0213
2031.00,0.0210
2030.00,0.0210
2029.00,0.0210
2028.00,0.0210
2027.00,0.0209
2026.00,0.0208
2025.00,0.0207
2024.00,0.0206
2023.00,0.0206
2022.00,0.0206
2021.00,0.0206
2020.00,0.0207
2019.00,0.0206
2018.00,0.0205
2017.00,0.0204
2016.00,0.0204
2015.00,0.0205
2014.00,0.0206
2013.00,0.0207
2012.00,0.0207
2011.00,0.0207
2010.00,0.0206
2009.00,0.0204
2008.00,0.0202
2007.00,0.0201
2006.00,0.0201
2005.00,0.0202
2004.00,0.0202
2003.00,0.0203
2002.00,0.0204
2001.00,0.0203
2000.00,0.0203
1999.00,0.0202
1998.00,0.0203
1997.00,0.0204
1996.00,0.0204
1995.00,0.0205
1994.00,0.0204
1993.00,0.0204
1992.00,0.0203
1991.00,0.0202
1990.00,0.0201
1989.00,0.0201
1988.00,0.0201
1987.00,0.0201
1986.00,0.0202
1985.00,0.0204
1984.00,0.0206
1983.00,0.0207
1982.00,0.0208
1981.00,0.0209
1980.00,0.0208
1979.00,0.0206
1978.00,0.0203
1977.00,0.0200
1976.00,0.0199
1975.00,0.0198
1974.00,0.0198
1973.00,0.0199
1972.00,0.0200
1971.00,0.0201
1970.00,0.0201
1969.00,0.0200
1968.00,0.0199
1967.00,0.0196
1966.00,0.0195
1965.00,0.0194
1964.00,0.0195
1963.00,0.0194
1962.00,0.0193
1961.00,0.0192
1960.00,0.0192
1959.00,0.0191
1958.00,0.0191
1957.00,0.0190
1956.00,0.0190
1955.00,0.0190
1954.00,0.0190
1953.00,0.0190
1952.00,0.0189
1951.00,0.0188
1950.00,0.0188
1949.00,0.0188
1948.00,0.0188
1947.00,0.0189
1946.00,0.0189
1945.00,0.0190
1944.00,0.0190
1943.00,0.0189
1942.00,0.0187
1941.00,0.0185
1940.00,0.0185
1939.00,0.0184
1938.00,0.0183
1937.00,0.0183
1936.00,0.0183
1935.00,0.0184
1934.00,0.0184
1933.00,0.0184
1932.00,0.0183
1931.00,0.0182
1930.00,0.0182
1929.00,0.0182
1928.00,0.0181
1927.00,0.0181
1926.00,0.0182
1925.00,0.0182
1924.00,0.0181
1923.00,0.0180
1922.00,0.0179
1921.00,0.0180
1920.00,0.0180
1919.00,0.0179
1918.00,0.0178
1917.00,0.0176
1916.00,0.0176
1915.00,0.0177
1914.00,0.0177
1913.00,0.0177
1912.00,0.0177
1911.00,0.0176
1910.00,0.0175
1909.00,0.0174
1908.00,0.0173
1907.00,0.0173
1906.00,0.0173
1905.00,0.0173
1904.00,0.0173
1903.00,0.0172
1902.00,0.0172
1901.00,0.0172
1900.00,0.0172
1899.00,0.0172
1898.00,0.0172
1897.00,0.0172
1896.00,0.0171
1895.00,0.0170
1894.00,0.0169
1893.00,0.0170
1892.00,0.0170
1891.00,0.0170
1890.00,0.0168
1889.00,0.0167
1888.00,0.0166
1887.00,0.0166
1886.00,0.0166
1885.00,0.0166
1884.00,0.0165
1883.00,0.0164
1882.00,0.0164
1881.00,0.0165
1880.00,0.0165
1879.00,0.0165
1878.00,0.0164
1877.00,0.0164
1876.00,0.0163
1875.00,0.0163
1874.00,0.0163
1873.00,0.0163
1872.00,0.0164
1871.00,0.0164
1870.00,0.0164
1869.00,0.0161
1868.00,0.0158
1867.00,0.0156
1866.00,0.0157
1865.00,0.0158
1864.00,0.0159
1863.00,0.0159
1862.00,0.0158
1861.00,0.0157
1860.00,0.0157
1859.00,0.0156
1858.00,0.0155
1857.00,0.0155
1856.00,0.0154
1855.00,0.0154
1854.00,0.0154
1853.00,0.0154
1852.00,0.0154
1851.00,0.0155
1850.00,0.0155
1849.00,0.0155
1848.00,0.0154
1847.00,0.0154
1846.00,0.0154
1845.00,0.0153
1844.00,0.0150
1843.00,0.0148
1842.00,0.0147
1841.00,0.0149
1840.00,0.0150
1839.00,0.0150
1838.00,0.0150
1837.00,0.0148
1836.00,0.0148
1835.00,0.0148
1834.00,0.0148
1833.00,0.0150
1832.00,0.0151
1831.00,0.0149
1830.00,0.0145
1829.00,0.0142
1828.00,0.0141
1827.00,0.0142
1826.00,0.0142
1825.00,0.0141
1824.00,0.0140
1823.00,0.0140
1822.00,0.0141
1821.00,0.0142
1820.00,0.0142
1819.00,0.0141
1818.00,0.0140
1817.00,0.0139
1816.00,0.0138
1815.00,0.0138
1814.00,0.0139
1813.00,0.0139
1812.00,0.0139
1811.00,0.0138
1810.00,0.0137
1809.00,0.0137
1808.00,0.0137
1807.00,0.0137
1806.00,0.0137
1805.00,0.0137
1804.00,0.0138
1803.00,0.0138
1802.00,0.0137
1801.00,0.0137
1800.00,0.0136
1799.00,0.0136
1798.00,0.0138
1797.00,0.0140
1796.00,0.0141
1795.00,0.0142
1794.00,0.0142
1793.00,0.0141
1792.00,0.0138
1791.00,0.0135
1790.00,0.0135
1789.00,0.0138
1788.00,0.0141
1787.00,0.0143
1786.00,0.0144
1785.00,0.0145
1784.00,0.0145
1783.00,0.0145
1782.00,0.0146
1781.00,0.0146
1780.00,0.0146
1779.00,0.0147
1778.00,0.0150
1777.00,0.0153
1776.00,0.0156
1775.00,0.0158
1774.00,0.0160
1773.00,0.0160
1772.00,0.0158
1771.00,0.0156
1770.00,0.0156
1769.00,0.0159
1768.00,0.0161
1767.00,0.0162
1766.00,0.0164
1765.00,0.0167
1764.00,0.0169
1763.00,0.0170
1762.00,0.0169
1761.00,0.0169
1760.00,0.0170
1759.00,0.0173
1758.00,0.0174
1757.00,0.0176
1756.00,0.0177
1755.00,0.0179
1754.00,0.0182
1753.00,0.0186
1752.00,0.0190
1751.00,0.0193
1750.00,0.0193
1749.00,0.0193
1748.00,0.0193
1747.00,0.0195
1746.00,0.0197
1745.00,0.0200
1744.00,0.0202
1743.00,0.0204
1742.00,0.0207
1741.00,0.0210
1740.00,0.0214
1739.00,0.0216
1738.00,0.0219
1737.00,0.0223
1736.00,0.0228
1735.00,0.0234
1734.00,0.0236
1733.00,0.0235
1732.00,0.0234
1731.00,0.0234
1730.00,0.0236
1729.00,0.0238
1728.00,0.0242
1727.00,0.0247
1726.00,0.0251
1725.00,0.0254
1724.00,0.0257
1723.00,0.0259
1722.00,0.0261
1721.00,0.0263
1720.00,0.0264
1719.00,0.0266
1718.00,0.0270
1717.00,0.0272
1716.00,0.0272
1715.00,0.0272
1714.00,0.0273
1713.00,0.0276
1712.00,0.0279
1711.00,0.0281
1710.00,0.0283
1709.00,0.0285
1708.00,0.0286
1707.00,0.0287
1706.00,0.0288
1705.00,0.0288
1704.00,0.0289
1703.00,0.0290
1702.00,0.0292
1701.00,0.0297
1700.00,0.0302
1699.00,0.0303
1698.00,0.0303
1697.00,0.0303
1696.00,0.0302
1695.00,0.0301
1694.00,0.0303
1693.00,0.0305
1692.00,0.0306
1691.00,0.0307
1690.00,0.0309
1689.00,0.0310
1688.00,0.0311
1687.00,0.0311
1686.00,0.0311
1685.00,0.0312
1684.00,0.0310
1683.00,0.0310
1682.00,0.0314
1681.00,0.0317
1680.00,0.0320
1679.00,0.0322
1678.00,0.0325
1677.00,0.0328
1676.00,0.0332
1675.00,0.0335
1674.00,0.0336
1673.00,0.0337
1672.00,0.0338
1671.00,0.0340
1670.00,0.0342
1669.00,0.0343
1668.00,0.0345
1667.00,0.0347
1666.00,0.0350
1665.00,0.0352
1664.00,0.0355
1663.00,0.0357
1662.00,0.0360
1661.00,0.0362
1660.00,0.0365
1659.00,0.0367
1658.00,0.0369
1657.00,0.0370
1656.00,0.0369
1655.00,0.0369
1654.00,0.0373
1653.00,0.0378
1652.00,0.0382
1651.00,0.0386
1650.00,0.0386
1649.00,0.0387
1648.00,0.0390
1647.00,0.0395
1646.00,0.0398
1645.00,0.0401
1644.00,0.0403
1643.00,0.0405
1642.00,0.0407
1641.00,0.0410
1640.00,0.0411
1639.00,0.0412
1638.00,0.0412
1637.00,0.0415
1636.00,0.0419
1635.00,0.0423
1634.00,0.0426
1633.00,0.0429
1632.00,0.0431
1631.00,0.0433
1630.00,0.0435
1629.00,0.0437
1628.00,0.0439
1627.00,0.0442
1626.00,0.0444
1625.00,0.0447
1624.00,0.0451
1623.00,0.0455
1622.00,0.0457
1621.00,0.0458
1620.00,0.0459
1619.00,0.0461
1618.00,0.0465
1617.00,0.0470
1616.00,0.0473
1615.00,0.0474
1614.00,0.0474
1613.00,0.0475
1612.00,0.0476
1611.00,0.0479
1610.00,0.0482
1609.00,0.0484
1608.00,0.0485
1607.00,0.0487
1606.00,0.0489
1605.00,0.0490
1604.00,0.0492
1603.00,0.0494
1602.00,0.0496
1601.00,0.0498
1600.00,0.0499
1599.00,0.0501
1598.00,0.0502
1597.00,0.0503
1596.00,0.0504
1595.00,0.0505
1594.00,0.0506
1593.00,0.0508
1592.00,0.0509
1591.00,0.0510
1590.00,0.0512
1589.00,0.0513
1588.00,0.0514
1587.00,0.0515
1586.00,0.0516
1585.00,0.0516
1584.00,0.0517
1583.00,0.0518
1582.00,0.0520
1581.00,0.0520
1580.00,0.0519
1579.00,0.0518
1578.00,0.0519
1577.00,0.0521
1576.00,0.0525
1575.00,0.0526
1574.00,0.0525
1573.00,0.0522
1572.00,0.0520
1571.00,0.0520
1570.00,0.0521
1569.00,0.0522
1568.00,0.0522
1567.00,0.0522
1566.00,0.0522
1565.00,0.0521
1564.00,0.0520
1563.00,0.0517
1562.00,0.0511
1561.00,0.0503
1560.00,0.0504
1559.00,0.0514
1558.00,0.0516
1557.00,0.0517
1556.00,0.0516
1555.00,0.0515
1554.00,0.0513
1553.00,0.0510
1552.00,0.0507
1551.00,0.0504
1550.00,0.0502
1549.00,0.0500
1548.00,0.0499
1547.00,0.0498
1546.00,0.0497
1545.00,0.0496
1544.00,0.0494
1543.00,0.0492
1542.00,0.0490
1541.00,0.0488
1540.00,0.0482
1539.00,0.0477
1538.00,0.0476
1537.00,0.0475
1536.00,0.0472
1535.00,0.0468
1534.00,0.0466
1533.00,0.0463
1532.00,0.0460
1531.00,0.0458
1530.00,0.0457
1529.00,0.0455
1528.00,0.0453
1527.00,0.0451
1526.00,0.0450
1525.00,0.0448
1524.00,0.0446
1523.00,0.0444
1522.00,0.0442
1521.00,0.0439
1520.00,0.0435
1519.00,0.0431
1518.00,0.0428
1517.00,0.0426
1516.00,0.0424
1515.00,0.0423
1514.00,0.0423
1513.00,0.0423
1512.00,0.0422
1511.00,0.0420
1510.00,0.0417
1509.00,0.0414
1508.00,0.0414
1507.00,0.0410
1506.00,0.0405
1505.00,0.0406
1504.00,0.0408
1503.00,0.0406
1502.00,0.0404
1501.00,0.0403
1500.00,0.0401
1499.00,0.0399
1498.00,0.0398
1497.00,0.0397
1496.00,0.0398
1495.00,0.0398
1494.00,0.0398
1493.00,0.0399
1492.00,0.0399
1491.00,0.0400
1490.00,0.0399
1489.00,0.0395
1488.00,0.0392
1487.00,0.0391
1486.00,0.0391
1485.00,0.0392
1484.00,0.0392
1483.00,0.0393
1482.00,0.0393
1481.00,0.0394
1480.00,0.0394
1479.00,0.0393
1478.00,0.0392
1477.00,0.0392
1476.00,0.0394
1475.00,0.0396
1474.00,0.0399
1473.00,0.0401
1472.00,0.0401
1471.00,0.0399
1470.00,0.0399
1469.00,0.0399
1468.00,0.0399
1467.00,0.0400
1466.00,0.0401
1465.00,0.0403
1464.00,0.0404
1463.00,0.0405
1462.00,0.0405
1461.00,0.0404
1460.00,0.0404
1459.00,0.0406
1458.00,0.0410
1457.00,0.0413
1456.00,0.0414
1455.00,0.0413
1454.00,0.0412
1453.00,0.0412
1452.00,0.0412
1451.00,0.0414
1450.00,0.0415
1449.00,0.0416
1448.00,0.0418
1447.00,0.0419
1446.00,0.0419
1445.00,0.0419
1444.00,0.0420
1443.00,0.0421
1442.00,0.0422
1441.00,0.0422
1440.00,0.0423
1439.00,0.0424
1438.00,0.0425
1437.00,0.0428
1436.00,0.0430
1435.00,0.0430
1434.00,0.0430
1433.00,0.0430
1432.00,0.0431
1431.00,0.0432
1430.00,0.0432
1429.00,0.0433
1428.00,0.0434
1427.00,0.0435
1426.00,0.0435
1425.00,0.0435
1424.00,0.0437
1423.00,0.0437
1422.00,0.0437
1421.00,0.0438
1420.00,0.0440
1419.00,0.0442
1418.00,0.0443
1417.00,0.0444
1416.00,0.0445
1415.00,0.0447
1414.00,0.0447
1413.00,0.0448
1412.00,0.0448
1411.00,0.0449
1410.00,0.0449
1409.00,0.0450
1408.00,0.0450
1407.00,0.0451
1406.00,0.0451
1405.00,0.0453
1404.00,0.0455
1403.00,0.0457
1402.00,0.0458
1401.00,0.0459
1400.00,0.0461
1399.00,0.0463
1398.00,0.0464
1397.00,0.0465
1396.00,0.0465
1395.00,0.0466
1394.00,0.0467
1393.00,0.0468
1392.00,0.0470
1391.00,0.0471
1390.00,0.0471
1389.00,0.0472
1388.00,0.0474
1387.00,0.0475
1386.00,0.0476
1385.00,0.0476
1384.00,0.0477
1383.00,0.0478
1382.00,0.0479
1381.00,0.0480
1380.00,0.0481
1379.00,0.0481
1378.00,0.0481
1377.00,0.0480
1376.00,0.0480
1375.00,0.0481
1374.00,0.0481
1373.00,0.0481
1372.00,0.0482
1371.00,0.0483
1370.00,0.0483
1369.00,0.0482
1368.00,0.0482
1367.00,0.0482
1366.00,0.0481
1365.00,0.0480
1364.00,0.0479
1363.00,0.0479
1362.00,0.0479
1361.00,0.0479
1360.00,0.0479
1359.00,0.0479
1358.00,0.0478
1357.00,0.0478
1356.00,0.0477
1355.00,0.0476
1354.00,0.0476
1353.00,0.0475
1352.00,0.0475
1351.00,0.0474
1350.00,0.0473
1349.00,0.0473
1348.00,0.0473
1347.00,0.0472
1346.00,0.0472
1345.00,0.0471
1344.00,0.0470
1343.00,0.0470
1342.00,0.0469
1341.00,0.0469
1340.00,0.0468
1339.00,0.0467
1338.00,0.0466
1337.00,0.0465
1336.00,0.0465
1335.00,0.0465
1334.00,0.0465
1333.00,0.0464
1332.00,0.0464
1331.00,0.0463
1330.00,0.0463
1329.00,0.0463
1328.00,0.0463
1327.00,0.0463
1326.00,0.0462
1325.00,0.0461
1324.00,0.0461
1323.00,0.0462
1322.00,0.0462
1321.00,0.0462
1320.00,0.0463
1319.00,0.0463
1318.00,0.0462
1317.00,0.0463
1316.00,0.0463
1315.00,0.0463
1314.00,0.0463
1313.00,0.0464
1312.00,0.0464
1311.00,0.0464
1310.00,0.0464
1309.00,0.0464
1308.00,0.0464
1307.00,0.0464
1306.00,0.0463
1305.00,0.0463
1304.00,0.0464
1303.00,0.0464
1302.00,0.0465
1301.00,0.0465
1300.00,0.0465
1299.00,0.0465
1298.00,0.0466
1297.00,0.0466
1296.00,0.0467
1295.00,0.0467
1294.00,0.0467
1293.00,0.0468
1292.00,0.0468
1291.00,0.0469
1290.00,0.0469
1289.00,0.0469
1288.00,0.0470
1287.00,0.0470
1286.00,0.0471
1285.00,0.0471
1284.00,0.0471
1283.00,0.0472
1282.00,0.0472
1281.00,0.0473
1280.00,0.0474
1279.00,0.0474
1278.00,0.0474
1277.00,0.0475
1276.00,0.0475
1275.00,0.0476
1274.00,0.0477
1273.00,0.0477
1272.00,0.0478
1271.00,0.0479
1270.00,0.0480
1269.00,0.0480
1268.00,0.0481
1267.00,0.0482
1266.00,0.0483
1265.00,0.0484
1264.00,0.0485
1263.00,0.0486
1262.00,0.0486
1261.00,0.0487
1260.00,0.0488
1259.00,0.0489
1258.00,0.0490
1257.00,0.0492
1256.00,0.0493
1255.00,0.0494
1254.00,0.0495
1253.00,0.0496
1252.00,0.0497
1251.00,0.0498
1250.00,0.0499
1249.00,0.0500
1248.00,0.0502
1247.00,0.0503
1246.00,0.0504
1245.00,0.0505
1244.00,0.0506
1243.00,0.0507
1242.00,0.0509
1241.00,0.0511
1240.00,0.0512
1239.00,0.0513
1238.00,0.0513
1237.00,0.0514
1236.00,0.0515
1235.00,0.0516
1234.00,0.0518
1233.00,0.0519
1232.00,0.0520
1231.00,0.0521
1230.00,0.0522
1229.00,0.0524
1228.00,0.0525
1227.00,0.0526
1226.00,0.0526
1225.00,0.0527
1224.00,0.0527
1223.00,0.0528
1222.00,0.0528
1221.00,0.0528
1220.00,0.0528
1219.00,0.0528
1218.00,0.0528
1217.00,0.0529
1216.00,0.0530
1215.00,0.0531
1214.00,0.0532
1213.00,0.0533
1212.00,0.0533
1211.00,0.0534
1210.00,0.0534
1209.00,0.0535
1208.00,0.0536
1207.00,0.0536
1206.00,0.0537
1205.00,0.0537
1204.00,0.0538
1203.00,0.0539
1202.00,0.0540
1201.00,0.0540
1200.00,0.0541
1199.00,0.0541
1198.00,0.0541
1197.00,0.0541
1196.00,0.0542
1195.00,0.0543
1194.00,0.0543
1193.00,0.0544
1192.00,0.0545
1191.00,0.0545
1190.00,0.0546
1189.00,0.0546
1188.00,0.0547
1187.00,0.0547
1186.00,0.0548
1185.00,0.0549
1184.00,0.0550
1183.00,0.0551
1182.00,0.0551
1181.00,0.0551
1180.00,0.0551
1179.00,0.0553
1178.00,0.0554
1177.00,0.0556
1176.00,0.0557
1175.00,0.0558
1174.00,0.0558
1173.00,0.0558
1172.00,0.0559
1171.00,0.0559
1170.00,0.0559
1169.00,0.0560
1168.00,0.0560
1167.00,0.0561
1166.00,0.0562
1165.00,0.0563
1164.00,0.0564
1163.00,0.0564
1162.00,0.0564
1161.00,0.0564
1160.00,0.0564
1159.00,0.0565
1158.00,0.0565
1157.00,0.0565
1156.00,0.0566
1155.00,0.0566
1154.00,0.0566
1153.00,0.0566
1152.00,0.0567
1151.00,0.0568
1150.00,0.0568
1149.00,0.0569
1148.00,0.0570
1147.00,0.0570
1146.00,0.0571
1145.00,0.0572
1144.00,0.0573
1143.00,0.0574
1142.00,0.0574
1141.00,0.0574
1140.00,0.0575
1139.00,0.0575
1138.00,0.0575
1137.00,0.0576
1136.00,0.0577
1135.00,0.0579
1134.00,0.0581
1133.00,0.0582
1132.00,0.0583
1131.00,0.0584
1130.00,0.0585
1129.00,0.0586
1128.00,0.0587
1127.00,0.0589
1126.00,0.0590
1125.00,0.0593
1124.00,0.0595
1123.00,0.0598
1122.00,0.0601
1121.00,0.0603
1120.00,0.0606
1119.00,0.0609
1118.00,0.0612
1117.00,0.0615
1116.00,0.0619
1115.00,0.0622
1114.00,0.0624
1113.00,0.0626
1112.00,0.0628
1111.00,0.0632
1110.00,0.0635
1109.00,0.0638
1108.00,0.0641
1107.00,0.0644
1106.00,0.0648
1105.00,0.0651
1104.00,0.0654
1103.00,0.0657
1102.00,0.0659
1101.00,0.0661
1100.00,0.0663
1099.00,0.0665
1098.00,0.0667
1097.00,0.0669
1096.00,0.0671
1095.00,0.0674
1094.00,0.0675
1093.00,0.0678
1092.00,0.0680
1091.00,0.0682
1090.00,0.0685
1089.00,0.0686
1088.00,0.0688
1087.00,0.0689
1086.00,0.0689
1085.00,0.0690
1084.00,0.0690
1083.00,0.0691
1082.00,0.0691
1081.00,0.0692
1080.00,0.0693
1079.00,0.0695
1078.00,0.0696
1077.00,0.0697
1076.00,0.0698
1075.00,0.0699
1074.00,0.0701
1073.00,0.0701
1072.00,0.0702
1071.00,0.0701
1070.00,0.0701
1069.00,0.0701
1068.00,0.0702
1067.00,0.0702
1066.00,0.0701
1065.00,0.0701
1064.00,0.0702
1063.00,0.0703
1062.00,0.0704
1061.00,0.0704
1060.00,0.0704
1059.00,0.0703
1058.00,0.0702
1057.00,0.0702
1056.00,0.0702
1055.00,0.0704
1054.00,0.0705
1053.00,0.0706
1052.00,0.0707
1051.00,0.0707
1050.00,0.0707
1049.00,0.0706
1048.00,0.0706
1047.00,0.0705
1046.00,0.0705
1045.00,0.0705
1044.00,0.0704
1043.00,0.0703
1042.00,0.0703
1041.00,0.0702
1040.00,0.0701
1039.00,0.0700
1038.00,0.0699
1037.00,0.0699
1036.00,0.0698
1035.00,0.0697
1034.00,0.0696
1033.00,0.0694
1032.00,0.0693
1031.00,0.0691
1030.00,0.0689
1029.00,0.0687
1028.00,0.0685
1027.00,0.0682
1026.00,0.0679
1025.00,0.0675
1024.00,0.0672
1023.00,0.0668
1022.00,0.0665
1021.00,0.0662
1020.00,0.0660
1019.00,0.0658
1018.00,0.0656
1017.00,0.0654
1016.00,0.0652
1015.00,0.0651
1014.00,0.0649
1013.00,0.0647
1012.00,0.0645
1011.00,0.0643
1010.00,0.0640
1009.00,0.0637
1008.00,0.0635
1007.00,0.0633
1006.00,0.0630
1005.00,0.0627
1004.00,0.0624
1003.00,0.0621
1002.00,0.0618
1001.00,0.0615
1000.00,0.0613
999.00,0.0609
998.00,0.0606
997.00,0.0603
996.00,0.0600
995.00,0.0596
994.00,0.0593
993.00,0.0590
992.00,0.0587
991.00,0.0585
990.00,0.0582
989.00,0.0579
988.00,0.0575
987.00,0.0573
986.00,0.0570
985.00,0.0568
984.00,0.0566
983.00,0.0564
982.00,0.0562
981.00,0.0560
980.00,0.0559
979.00,0.0557
978.00,0.0556
977.00,0.0554
976.00,0.0553
975.00,0.0551
974.00,0.0549
973.00,0.0547
972.00,0.0545
971.00,0.0544
970.00,0.0542
969.00,0.0540
968.00,0.0539
967.00,0.0537
966.00,0.0536
965.00,0.0536
964.00,0.0535
963.00,0.0533
962.00,0.0531
961.00,0.0529
960.00,0.0529
959.00,0.0528
958.00,0.0527
957.00,0.0526
956.00,0.0525
955.00,0.0524
954.00,0.0522
953.00,0.0521
952.00,0.0520
951.00,0.0520
950.00,0.0520
949.00,0.0520
948.00,0.0520
947.00,0.0521
946.00,0.0521
945.00,0.0520
944.00,0.0520
943.00,0.0519
942.00,0.0519
941.00,0.0519
940.00,0.0518
939.00,0.0518
938.00,0.0517
937.00,0.0517
936.00,0.0518
935.00,0.0519
934.00,0.0518
933.00,0.0517
932.00,0.0516
931.00,0.0515
930.00,0.0515
929.00,0.0514
928.00,0.0514
927.00,0.0514
926.00,0.0515
925.00,0.0515
924.00,0.0516
923.00,0.0516
922.00,0.0516
921.00,0.0516
920.00,0.0516
919.00,0.0517
918.00,0.0519
917.00,0.0521
916.00,0.0523
915.00,0.0524
914.00,0.0523
913.00,0.0522
912.00,0.0521
911.00,0.0520
910.00,0.0520
909.00,0.0519
908.00,0.0518
907.00,0.0517
906.00,0.0516
905.00,0.0516
904.00,0.0516
903.00,0.0516
902.00,0.0516
901.00,0.0515
900.00,0.0514
899.00,0.0514
898.00,0.0513
897.00,0.0513
896.00,0.0512
895.00,0.0511
894.00,0.0510
893.00,0.0509
892.00,0.0508
891.00,0.0507
890.00,0.0507
889.00,0.0507
888.00,0.0507
887.00,0.0507
886.00,0.0507
885.00,0.0506
884.00,0.0506
883.00,0.0504
882.00,0.0503
881.00,0.0503
880.00,0.0503
879.00,0.0503
878.00,0.0502
877.00,0.0501
876.00,0.0499
875.00,0.0498
874.00,0.0498
873.00,0.0500
872.00,0.0502
871.00,0.0504
870.00,0.0504
869.00,0.0504
868.00,0.0502
867.00,0.0501
866.00,0.0499
865.00,0.0499
864.00,0.0499
863.00,0.0500
862.00,0.0501
861.00,0.0502
860.00,0.0502
859.00,0.0502
858.00,0.0502
857.00,0.0502
856.00,0.0502
855.00,0.0501
854.00,0.0501
853.00,0.0501
852.00,0.0501
851.00,0.0503
850.00,0.0504
849.00,0.0505
848.00,0.0506
847.00,0.0507
846.00,0.0507
845.00,0.0509
844.00,0.0511
843.00,0.0512
842.00,0.0513
841.00,0.0513
840.00,0.0514
839.00,0.0516
838.00,0.0518
837.00,0.0520
836.00,0.0521
835.00,0.0520
834.00,0.0520
833.00,0.0520
832.00,0.0523
831.00,0.0526
830.00,0.0529
829.00,0.0532
828.00,0.0534
827.00,0.0535
826.00,0.0536
825.00,0.0537
824.00,0.0540
823.00,0.0543
822.00,0.0547
821.00,0.0549
820.00,0.0549
819.00,0.0549
818.00,0.0550
817.00,0.0551
816.00,0.0553
815.00,0.0554
814.00,0.0556
813.00,0.0558
812.00,0.0559
811.00,0.0560
810.00,0.0559
809.00,0.0559
808.00,0.0561
807.00,0.0562
806.00,0.0564
805.00,0.0566
804.00,0.0570
803.00,0.0573
802.00,0.0576
801.00,0.0577
800.00,0.0578
799.00,0.0578
798.00,0.0579
797.00,0.0580
796.00,0.0581
795.00,0.0581
794.00,0.0580
793.00,0.0579
792.00,0.0579
791.00,0.0581
790.00,0.0582
789.00,0.0583
788.00,0.0583
787.00,0.0583
786.00,0.0583
785.00,0.0583
784.00,0.0584
783.00,0.0585
782.00,0.0587
781.00,0.0590
780.00,0.0593
779.00,0.0596
778.00,0.0597
777.00,0.0597
776.00,0.0596
775.00,0.0594
774.00,0.0594
773.00,0.0593
772.00,0.0593
771.00,0.0592
770.00,0.0592
769.00,0.0592
768.00,0.0594
767.00,0.0597
766.00,0.0599
765.00,0.0601
764.00,0.0601
763.00,0.0600
762.00,0.0600
761.00,0.0600
760.00,0.0602
759.00,0.0604
758.00,0.0606
757.00,0.0607
756.00,0.0609
755.00,0.0609
754.00,0.0609
753.00,0.0607
752.00,0.0605
751.00,0.0605
750.00,0.0606
749.00,0.0608
748.00,0.0609
747.00,0.0610
746.00,0.0610
745.00,0.0610
744.00,0.0611
743.00,0.0612
742.00,0.0614
741.00,0.0615
740.00,0.0614
739.00,0.0614
738.00,0.0613
737.00,0.0613
736.00,0.0614
735.00,0.0615
734.00,0.0615
733.00,0.0615
732.00,0.0614
731.00,0.0615
730.00,0.0618
729.00,0.0621
728.00,0.0623
727.00,0.0623
726.00,0.0621
725.00,0.0618
724.00,0.0616
723.00,0.0617
722.00,0.0619
721.00,0.0622
720.00,0.0624
719.00,0.0626
718.00,0.0627
717.00,0.0628
716.00,0.0629
715.00,0.0630
714.00,0.0630
713.00,0.0630
712.00,0.0630
711.00,0.0631
710.00,0.0632
709.00,0.0633
708.00,0.0635
707.00,0.0636
706.00,0.0638
705.00,0.0639
704.00,0.0641
703.00,0.0644
702.00,0.0646
701.00,0.0647
700.00,0.0647
699.00,0.0647
698.00,0.0647
697.00,0.0647
696.00,0.0648
695.00,0.0650
694.00,0.0651
693.00,0.0652
692.00,0.0653
691.00,0.0654
690.00,0.0655
689.00,0.0656
688.00,0.0658
687.00,0.0662
686.00,0.0666
685.00,0.0670
684.00,0.0672
683.00,0.0671
682.00,0.0670
681.00,0.0669
680.00,0.0668
679.00,0.0666
678.00,0.0664
677.00,0.0664
676.00,0.0667
675.00,0.0671
674.00,0.0674
673.00,0.0677
672.00,0.0678
671.00,0.0676
670.00,0.0675
669.00,0.0677
668.00,0.0682
667.00,0.0686
666.00,0.0687
665.00,0.0684
664.00,0.0681
663.00,0.0681
662.00,0.0683
661.00,0.0685
660.00,0.0686
659.00,0.0689
658.00,0.0690
657.00,0.0690
656.00,0.0690
655.00,0.0691
654.00,0.0694
653.00,0.0699
652.00,0.0702
651.00,0.0710
650.00,0.0708
