Created as New Dataset,Monday, April 03 2023
cm-1,A
4000.00,0.0130
3999.00,0.0130
3998.00,0.0130
3997.00,0.0130
3996.00,0.0130
3995.00,0.0130
3994.00,0.0130
3993.00,0.0130
3992.00,0.0130
3991.00,0.0130
3990.00,0.0130
3989.00,0.0130
3988.00,0.0130
3987.00,0.0130
3986.00,0.0130
3985.00,0.0130
3984.00,0.0130
3983.00,0.0130
3982.00,0.0130
3981.00,0.0130
3980.00,0.0130
3979.00,0.0130
3978.00,0.0130
3977.00,0.0130
3976.00,0.0130
3975.00,0.0130
3974.00,0.0130
3973.00,0.0131
3972.00,0.0131
3971.00,0.0131
3970.00,0.0131
3969.00,0.0130
3968.00,0.0130
3967.00,0.0130
3966.00,0.0130
3965.00,0.0130
3964.00,0.0130
3963.00,0.0130
3962.00,0.0130
3961.00,0.0131
3960.00,0.0131
3959.00,0.0131
3958.00,0.0131
3957.00,0.0131
3956.00,0.0130
3955.00,0.0130
3954.00,0.0130
3953.00,0.0130
3952.00,0.0131
3951.00,0.0131
3950.00,0.0132
3949.00,0.0132
3948.00,0.0132
3947.00,0.0133
3946.00,0.0133
3945.00,0.0133
3944.00,0.0133
3943.00,0.0133
3942.00,0.0132
3941.00,0.0132
3940.00,0.0132
3939.00,0.0132
3938.00,0.0131
3937.00,0.0131
3936.00,0.0131
3935.00,0.0132
3934.00,0.0133
3933.00,0.0133
3932.00,0.0133
3931.00,0.0133
3930.00,0.0133
3929.00,0.0132
3928.00,0.0132
3927.00,0.0132
3926.00,0.0132
3925.00,0.0132
3924.00,0.0132
3923.00,0.0133
3922.00,0.0133
3921.00,0.0133
3920.00,0.0133
3919.00,0.0133
3918.00,0.0133
3917.00,0.0133
3916.00,0.0133
3915.00,0.0132
3914.00,0.0132
3913.00,0.0131
3912.00,0.0130
3911.00,0.0130
3910.00,0.0130
3909.00,0.0130
3908.00,0.0131
3907.00,0.0133
3906.00,0.0134
3905.00,0.0134
3904.00,0.0135
3903.00,0.0136
3902.00,0.0138
3901.00,0.0139
3900.00,0.0138
3899.00,0.0136
3898.00,0.0135
3897.00,0.0134
3896.00,0.0133
3895.00,0.0133
3894.00,0.0133
3893.00,0.0133
3892.00,0.0133
3891.00,0.0132
3890.00,0.0132
3889.00,0.0133
3888.00,0.0135
3887.00,0.0135
3886.00,0.0133
3885.00,0.0132
3884.00,0.0133
3883.00,0.0136
3882.00,0.0138
3881.00,0.0137
3880.00,0.0135
3879.00,0.0133
3878.00,0.0133
3877.00,0.0134
3876.00,0.0134
3875.00,0.0133
3874.00,0.0132
3873.00,0.0133
3872.00,0.0135
3871.00,0.0135
3870.00,0.0133
3869.00,0.0132
3868.00,0.0133
3867.00,0.0135
3866.00,0.0135
3865.00,0.0134
3864.00,0.0133
3863.00,0.0134
3862.00,0.0134
3861.00,0.0134
3860.00,0.0133
3859.00,0.0132
3858.00,0.0132
3857.00,0.0132
3856.00,0.0133
3855.00,0.0133
3854.00,0.0131
3853.00,0.0131
3852.00,0.0132
3851.00,0.0133
3850.00,0.0134
3849.00,0.0134
3848.00,0.0133
3847.00,0.0132
3846.00,0.0132
3845.00,0.0132
3844.00,0.0132
3843.00,0.0132
3842.00,0.0133
3841.00,0.0134
3840.00,0.0134
3839.00,0.0134
3838.00,0.0133
3837.00,0.0133
3836.00,0.0134
3835.00,0.0134
3834.00,0.0134
3833.00,0.0134
3832.00,0.0133
3831.00,0.0132
3830.00,0.0132
3829.00,0.0132
3828.00,0.0132
3827.00,0.0132
3826.00,0.0131
3825.00,0.0131
3824.00,0.0133
3823.00,0.0135
3822.00,0.0134
3821.00,0.0132
3820.00,0.0131
3819.00,0.0132
3818.00,0.0134
3817.00,0.0132
3816.00,0.0130
3815.00,0.0128
3814.00,0.0129
3813.00,0.0130
3812.00,0.0130
3811.00,0.0129
3810.00,0.0128
3809.00,0.0128
3808.00,0.0128
3807.00,0.0127
3806.00,0.0127
3805.00,0.0129
3804.00,0.0131
3803.00,0.0133
3802.00,0.0131
3801.00,0.0130
3800.00,0.0131
3799.00,0.0133
3798.00,0.0134
3797.00,0.0133
3796.00,0.0132
3795.00,0.0131
3794.00,0.0130
3793.00,0.0130
3792.00,0.0129
3791.00,0.0128
3790.00,0.0128
3789.00,0.0128
3788.00,0.0128
3787.00,0.0128
3786.00,0.0128
3785.00,0.0128
3784.00,0.0128
3783.00,0.0129
3782.00,0.0129
3781.00,0.0130
3780.00,0.0129
3779.00,0.0129
3778.00,0.0128
3777.00,0.0128
3776.00,0.0128
3775.00,0.0127
3774.00,0.0127
3773.00,0.0127
3772.00,0.0128
3771.00,0.0128
3770.00,0.0128
3769.00,0.0128
3768.00,0.0129
3767.00,0.0130
3766.00,0.0130
3765.00,0.0129
3764.00,0.0129
3763.00,0.0130
3762.00,0.0130
3761.00,0.0130
3760.00,0.0130
3759.00,0.0130
3758.00,0.0130
3757.00,0.0130
3756.00,0.0129
3755.00,0.0129
3754.00,0.0128
3753.00,0.0127
3752.00,0.0126
3751.00,0.0126
3750.00,0.0127
3749.00,0.0128
3748.00,0.0130
3747.00,0.0132
3746.00,0.0134
3745.00,0.0132
3744.00,0.0129
3743.00,0.0128
3742.00,0.0130
3741.00,0.0132
3740.00,0.0132
3739.00,0.0131
3738.00,0.0132
3737.00,0.0132
3736.00,0.0134
3735.00,0.0135
3734.00,0.0137
3733.00,0.0136
3732.00,0.0133
3731.00,0.0130
3730.00,0.0129
3729.00,0.0130
3728.00,0.0130
3727.00,0.0130
3726.00,0.0130
3725.00,0.0131
3724.00,0.0132
3723.00,0.0133
3722.00,0.0133
3721.00,0.0133
3720.00,0.0133
3719.00,0.0133
3718.00,0.0132
3717.00,0.0132
3716.00,0.0133
3715.00,0.0133
3714.00,0.0134
3713.00,0.0134
3712.00,0.0135
3711.00,0.0137
3710.00,0.0139
3709.00,0.0140
3708.00,0.0141
3707.00,0.0141
3706.00,0.0141
3705.00,0.0142
3704.00,0.0144
3703.00,0.0145
3702.00,0.0147
3701.00,0.0148
3700.00,0.0149
3699.00,0.0151
3698.00,0.0151
3697.00,0.0151
3696.00,0.0150
3695.00,0.0150
3694.00,0.0150
3693.00,0.0150
3692.00,0.0149
3691.00,0.0149
3690.00,0.0150
3689.00,0.0151
3688.00,0.0150
3687.00,0.0149
3686.00,0.0148
3685.00,0.0148
3684.00,0.0147
3683.00,0.0145
3682.00,0.0144
3681.00,0.0144
3680.00,0.0143
3679.00,0.0142
3678.00,0.0144
3677.00,0.0145
3676.00,0.0146
3675.00,0.0147
3674.00,0.0148
3673.00,0.0150
3672.00,0.0152
3671.00,0.0151
3670.00,0.0149
3669.00,0.0149
3668.00,0.0149
3667.00,0.0149
3666.00,0.0148
3665.00,0.0148
3664.00,0.0148
3663.00,0.0148
3662.00,0.0149
3661.00,0.0149
3660.00,0.0150
3659.00,0.0151
3658.00,0.0153
3657.00,0.0155
3656.00,0.0156
3655.00,0.0157
3654.00,0.0159
3653.00,0.0160
3652.00,0.0161
3651.00,0.0162
3650.00,0.0165
3649.00,0.0170
3648.00,0.0173
3647.00,0.0172
3646.00,0.0171
3645.00,0.0169
3644.00,0.0167
3643.00,0.0166
3642.00,0.0164
3641.00,0.0164
3640.00,0.0163
3639.00,0.0163
3638.00,0.0163
3637.00,0.0163
3636.00,0.0163
3635.00,0.0164
3634.00,0.0164
3633.00,0.0164
3632.00,0.0166
3631.00,0.0168
3630.00,0.0171
3629.00,0.0173
3628.00,0.0175
3627.00,0.0177
3626.00,0.0178
3625.00,0.0179
3624.00,0.0179
3623.00,0.0179
3622.00,0.0181
3621.00,0.0184
3620.00,0.0186
3619.00,0.0187
3618.00,0.0187
3617.00,0.0186
3616.00,0.0185
3615.00,0.0184
3614.00,0.0183
3613.00,0.0182
3612.00,0.0182
3611.00,0.0182
3610.00,0.0181
3609.00,0.0181
3608.00,0.0181
3607.00,0.0181
3606.00,0.0181
3605.00,0.0180
3604.00,0.0180
3603.00,0.0179
3602.00,0.0179
3601.00,0.0180
3600.00,0.0180
3599.00,0.0181
3598.00,0.0181
3597.00,0.0182
3596.00,0.0183
3595.00,0.0184
3594.00,0.0185
3593.00,0.0185
3592.00,0.0185
3591.00,0.0185
3590.00,0.0185
3589.00,0.0186
3588.00,0.0186
3587.00,0.0188
3586.00,0.0188
3585.00,0.0188
3584.00,0.0187
3583.00,0.0186
3582.00,0.0185
3581.00,0.0185
3580.00,0.0184
3579.00,0.0185
3578.00,0.0185
3577.00,0.0186
3576.00,0.0186
3575.00,0.0187
3574.00,0.0187
3573.00,0.0187
3572.00,0.0188
3571.00,0.0188
3570.00,0.0189
3569.00,0.0191
3568.00,0.0194
3567.00,0.0197
3566.00,0.0199
3565.00,0.0199
3564.00,0.0197
3563.00,0.0195
3562.00,0.0193
3561.00,0.0193
3560.00,0.0192
3559.00,0.0193
3558.00,0.0193
3557.00,0.0193
3556.00,0.0193
3555.00,0.0193
3554.00,0.0194
3553.00,0.0195
3552.00,0.0196
3551.00,0.0196
3550.00,0.0196
3549.00,0.0196
3548.00,0.0196
3547.00,0.0197
3546.00,0.0199
3545.00,0.0200
3544.00,0.0201
3543.00,0.0201
3542.00,0.0200
3541.00,0.0199
3540.00,0.0198
3539.00,0.0198
3538.00,0.0199
3537.00,0.0200
3536.00,0.0201
3535.00,0.0201
3534.00,0.0201
3533.00,0.0201
3532.00,0.0201
3531.00,0.0201
3530.00,0.0201
3529.00,0.0202
3528.00,0.0203
3527.00,0.0204
3526.00,0.0205
3525.00,0.0206
3524.00,0.0207
3523.00,0.0207
3522.00,0.0207
3521.00,0.0206
3520.00,0.0206
3519.00,0.0205
3518.00,0.0205
3517.00,0.0205
3516.00,0.0206
3515.00,0.0206
3514.00,0.0206
3513.00,0.0206
3512.00,0.0207
3511.00,0.0208
3510.00,0.0209
3509.00,0.0210
3508.00,0.0210
3507.00,0.0210
3506.00,0.0209
3505.00,0.0209
3504.00,0.0209
3503.00,0.0210
3502.00,0.0212
3501.00,0.0212
3500.00,0.0212
3499.00,0.0212
3498.00,0.0212
3497.00,0.0212
3496.00,0.0213
3495.00,0.0213
3494.00,0.0213
3493.00,0.0213
3492.00,0.0213
3491.00,0.0213
3490.00,0.0214
3489.00,0.0214
3488.00,0.0215
3487.00,0.0215
3486.00,0.0215
3485.00,0.0215
3484.00,0.0215
3483.00,0.0215
3482.00,0.0215
3481.00,0.0216
3480.00,0.0217
3479.00,0.0218
3478.00,0.0218
3477.00,0.0218
3476.00,0.0218
3475.00,0.0218
3474.00,0.0219
3473.00,0.0219
3472.00,0.0220
3471.00,0.0219
3470.00,0.0219
3469.00,0.0220
3468.00,0.0220
3467.00,0.0220
3466.00,0.0220
3465.00,0.0221
3464.00,0.0221
3463.00,0.0221
3462.00,0.0222
3461.00,0.0223
3460.00,0.0223
3459.00,0.0223
3458.00,0.0222
3457.00,0.0222
3456.00,0.0222
3455.00,0.0222
3454.00,0.0223
3453.00,0.0223
3452.00,0.0224
3451.00,0.0225
3450.00,0.0226
3449.00,0.0226
3448.00,0.0227
3447.00,0.0227
3446.00,0.0227
3445.00,0.0228
3444.00,0.0228
3443.00,0.0228
3442.00,0.0228
3441.00,0.0228
3440.00,0.0228
3439.00,0.0228
3438.00,0.0228
3437.00,0.0228
3436.00,0.0228
3435.00,0.0228
3434.00,0.0228
3433.00,0.0229
3432.00,0.0229
3431.00,0.0230
3430.00,0.0230
3429.00,0.0230
3428.00,0.0230
3427.00,0.0230
3426.00,0.0231
3425.00,0.0231
3424.00,0.0231
3423.00,0.0232
3422.00,0.0232
3421.00,0.0233
3420.00,0.0233
3419.00,0.0233
3418.00,0.0233
3417.00,0.0233
3416.00,0.0233
3415.00,0.0233
3414.00,0.0233
3413.00,0.0234
3412.00,0.0234
3411.00,0.0234
3410.00,0.0234
3409.00,0.0233
3408.00,0.0233
3407.00,0.0234
3406.00,0.0234
3405.00,0.0234
3404.00,0.0235
3403.00,0.0235
3402.00,0.0235
3401.00,0.0235
3400.00,0.0235
3399.00,0.0234
3398.00,0.0235
3397.00,0.0235
3396.00,0.0235
3395.00,0.0236
3394.00,0.0237
3393.00,0.0237
3392.00,0.0238
3391.00,0.0238
3390.00,0.0237
3389.00,0.0237
3388.00,0.0237
3387.00,0.0237
3386.00,0.0237
3385.00,0.0238
3384.00,0.0238
3383.00,0.0238
3382.00,0.0238
3381.00,0.0238
3380.00,0.0239
3379.00,0.0240
3378.00,0.0240
3377.00,0.0240
3376.00,0.0240
3375.00,0.0239
3374.00,0.0239
3373.00,0.0239
3372.00,0.0239
3371.00,0.0239
3370.00,0.0239
3369.00,0.0239
3368.00,0.0239
3367.00,0.0239
3366.00,0.0240
3365.00,0.0240
3364.00,0.0240
3363.00,0.0241
3362.00,0.0241
3361.00,0.0241
3360.00,0.0241
3359.00,0.0241
3358.00,0.0241
3357.00,0.0242
3356.00,0.0242
3355.00,0.0242
3354.00,0.0242
3353.00,0.0243
3352.00,0.0243
3351.00,0.0244
3350.00,0.0244
3349.00,0.0244
3348.00,0.0243
3347.00,0.0242
3346.00,0.0242
3345.00,0.0242
3344.00,0.0242
3343.00,0.0242
3342.00,0.0242
3341.00,0.0242
3340.00,0.0242
3339.00,0.0242
3338.00,0.0243
3337.00,0.0243
3336.00,0.0243
3335.00,0.0243
3334.00,0.0243
3333.00,0.0243
3332.00,0.0243
3331.00,0.0243
3330.00,0.0243
3329.00,0.0243
3328.00,0.0243
3327.00,0.0244
3326.00,0.0244
3325.00,0.0245
3324.00,0.0245
3323.00,0.0244
3322.00,0.0244
3321.00,0.0244
3320.00,0.0244
3319.00,0.0244
3318.00,0.0244
3317.00,0.0245
3316.00,0.0245
3315.00,0.0245
3314.00,0.0245
3313.00,0.0244
3312.00,0.0244
3311.00,0.0244
3310.00,0.0244
3309.00,0.0245
3308.00,0.0245
3307.00,0.0245
3306.00,0.0244
3305.00,0.0244
3304.00,0.0244
3303.00,0.0244
3302.00,0.0244
3301.00,0.0245
3300.00,0.0245
3299.00,0.0245
3298.00,0.0245
3297.00,0.0245
3296.00,0.0245
3295.00,0.0245
3294.00,0.0245
3293.00,0.0246
3292.00,0.0246
3291.00,0.0247
3290.00,0.0247
3289.00,0.0246
3288.00,0.0246
3287.00,0.0245
3286.00,0.0245
3285.00,0.0245
3284.00,0.0245
3283.00,0.0245
3282.00,0.0245
3281.00,0.0244
3280.00,0.0245
3279.00,0.0245
3278.00,0.0245
3277.00,0.0246
3276.00,0.0246
3275.00,0.0247
3274.00,0.0247
3273.00,0.0247
3272.00,0.0247
3271.00,0.0247
3270.00,0.0247
3269.00,0.0246
3268.00,0.0246
3267.00,0.0246
3266.00,0.0247
3265.00,0.0247
3264.00,0.0247
3263.00,0.0246
3262.00,0.0246
3261.00,0.0245
3260.00,0.0245
3259.00,0.0246
3258.00,0.0246
3257.00,0.0246
3256.00,0.0246
3255.00,0.0246
3254.00,0.0246
3253.00,0.0247
3252.00,0.0247
3251.00,0.0247
3250.00,0.0246
3249.00,0.0246
3248.00,0.0246
3247.00,0.0246
3246.00,0.0246
3245.00,0.0246
3244.00,0.0246
3243.00,0.0245
3242.00,0.0245
3241.00,0.0245
3240.00,0.0246
3239.00,0.0246
3238.00,0.0247
3237.00,0.0247
3236.00,0.0247
3235.00,0.0247
3234.00,0.0247
3233.00,0.0247
3232.00,0.0247
3231.00,0.0247
3230.00,0.0247
3229.00,0.0247
3228.00,0.0247
3227.00,0.0247
3226.00,0.0247
3225.00,0.0247
3224.00,0.0246
3223.00,0.0245
3222.00,0.0245
3221.00,0.0246
3220.00,0.0246
3219.00,0.0247
3218.00,0.0247
3217.00,0.0247
3216.00,0.0246
3215.00,0.0246
3214.00,0.0246
3213.00,0.0246
3212.00,0.0246
3211.00,0.0246
3210.00,0.0246
3209.00,0.0246
3208.00,0.0246
3207.00,0.0247
3206.00,0.0247
3205.00,0.0247
3204.00,0.0246
3203.00,0.0246
3202.00,0.0246
3201.00,0.0246
3200.00,0.0246
3199.00,0.0246
3198.00,0.0245
3197.00,0.0245
3196.00,0.0245
3195.00,0.0245
3194.00,0.0245
3193.00,0.0245
3192.00,0.0245
3191.00,0.0244
3190.00,0.0244
3189.00,0.0244
3188.00,0.0244
3187.00,0.0244
3186.00,0.0244
3185.00,0.0245
3184.00,0.0245
3183.00,0.0244
3182.00,0.0244
3181.00,0.0244
3180.00,0.0244
3179.00,0.0244
3178.00,0.0244
3177.00,0.0243
3176.00,0.0243
3175.00,0.0243
3174.00,0.0243
3173.00,0.0243
3172.00,0.0243
3171.00,0.0243
3170.00,0.0244
3169.00,0.0243
3168.00,0.0243
3167.00,0.0243
3166.00,0.0242
3165.00,0.0242
3164.00,0.0241
3163.00,0.0241
3162.00,0.0241
3161.00,0.0241
3160.00,0.0241
3159.00,0.0241
3158.00,0.0241
3157.00,0.0241
3156.00,0.0241
3155.00,0.0241
3154.00,0.0240
3153.00,0.0240
3152.00,0.0240
3151.00,0.0239
3150.00,0.0239
3149.00,0.0239
3148.00,0.0239
3147.00,0.0239
3146.00,0.0239
3145.00,0.0239
3144.00,0.0239
3143.00,0.0239
3142.00,0.0239
3141.00,0.0239
3140.00,0.0239
3139.00,0.0239
3138.00,0.0239
3137.00,0.0239
3136.00,0.0238
3135.00,0.0238
3134.00,0.0237
3133.00,0.0237
3132.00,0.0237
3131.00,0.0237
3130.00,0.0237
3129.00,0.0237
3128.00,0.0237
3127.00,0.0237
3126.00,0.0236
3125.00,0.0236
3124.00,0.0236
3123.00,0.0235
3122.00,0.0235
3121.00,0.0235
3120.00,0.0236
3119.00,0.0236
3118.00,0.0236
3117.00,0.0236
3116.00,0.0235
3115.00,0.0235
3114.00,0.0235
3113.00,0.0234
3112.00,0.0234
3111.00,0.0234
3110.00,0.0234
3109.00,0.0233
3108.00,0.0233
3107.00,0.0233
3106.00,0.0233
3105.00,0.0233
3104.00,0.0233
3103.00,0.0233
3102.00,0.0233
3101.00,0.0233
3100.00,0.0233
3099.00,0.0232
3098.00,0.0232
3097.00,0.0232
3096.00,0.0232
3095.00,0.0232
3094.00,0.0232
3093.00,0.0232
3092.00,0.0231
3091.00,0.0231
3090.00,0.0231
3089.00,0.0232
3088.00,0.0232
3087.00,0.0232
3086.00,0.0232
3085.00,0.0231
3084.00,0.0231
3083.00,0.0231
3082.00,0.0231
3081.00,0.0231
3080.00,0.0231
3079.00,0.0231
3078.00,0.0231
3077.00,0.0230
3076.00,0.0230
3075.00,0.0230
3074.00,0.0229
3073.00,0.0229
3072.00,0.0229
3071.00,0.0228
3070.00,0.0228
3069.00,0.0228
3068.00,0.0228
3067.00,0.0228
3066.00,0.0228
3065.00,0.0228
3064.00,0.0228
3063.00,0.0228
3062.00,0.0228
3061.00,0.0228
3060.00,0.0227
3059.00,0.0227
3058.00,0.0227
3057.00,0.0226
3056.00,0.0226
3055.00,0.0226
3054.00,0.0226
3053.00,0.0226
3052.00,0.0225
3051.00,0.0225
3050.00,0.0225
3049.00,0.0225
3048.00,0.0225
3047.00,0.0225
3046.00,0.0225
3045.00,0.0225
3044.00,0.0224
3043.00,0.0224
3042.00,0.0224
3041.00,0.0223
3040.00,0.0223
3039.00,0.0223
3038.00,0.0223
3037.00,0.0223
3036.00,0.0223
3035.00,0.0223
3034.00,0.0222
3033.00,0.0221
3032.00,0.0220
3031.00,0.0220
3030.00,0.0220
3029.00,0.0220
3028.00,0.0220
3027.00,0.0220
3026.00,0.0220
3025.00,0.0220
3024.00,0.0220
3023.00,0.0219
3022.00,0.0219
3021.00,0.0218
3020.00,0.0218
3019.00,0.0218
3018.00,0.0217
3017.00,0.0217
3016.00,0.0217
3015.00,0.0217
3014.00,0.0217
3013.00,0.0217
3012.00,0.0217
3011.00,0.0216
3010.00,0.0216
3009.00,0.0215
3008.00,0.0215
3007.00,0.0215
3006.00,0.0215
3005.00,0.0215
3004.00,0.0215
3003.00,0.0215
3002.00,0.0215
3001.00,0.0214
3000.00,0.0214
2999.00,0.0214
2998.00,0.0213
2997.00,0.0212
2996.00,0.0212
2995.00,0.0212
2994.00,0.0212
2993.00,0.0212
2992.00,0.0212
2991.00,0.0212
2990.00,0.0211
2989.00,0.0211
2988.00,0.0210
2987.00,0.0210
2986.00,0.0210
2985.00,0.0210
2984.00,0.0209
2983.00,0.0209
2982.00,0.0208
2981.00,0.0207
2980.00,0.0207
2979.00,0.0207
2978.00,0.0207
2977.00,0.0206
2976.00,0.0206
2975.00,0.0206
2974.00,0.0206
2973.00,0.0206
2972.00,0.0205
2971.00,0.0204
2970.00,0.0204
2969.00,0.0203
2968.00,0.0203
2967.00,0.0202
2966.00,0.0202
2965.00,0.0201
2964.00,0.0201
2963.00,0.0200
2962.00,0.0200
2961.00,0.0199
2960.00,0.0198
2959.00,0.0198
2958.00,0.0198
2957.00,0.0198
2956.00,0.0198
2955.00,0.0198
2954.00,0.0198
2953.00,0.0198
2952.00,0.0198
2951.00,0.0197
2950.00,0.0197
2949.00,0.0197
2948.00,0.0197
2947.00,0.0197
2946.00,0.0197
2945.00,0.0196
2944.00,0.0196
2943.00,0.0195
2942.00,0.0194
2941.00,0.0194
2940.00,0.0193
2939.00,0.0192
2938.00,0.0192
2937.00,0.0191
2936.00,0.0190
2935.00,0.0188
2934.00,0.0187
2933.00,0.0186
2932.00,0.0185
2931.00,0.0184
2930.00,0.0182
2929.00,0.0181
2928.00,0.0180
2927.00,0.0179
2926.00,0.0178
2925.00,0.0178
2924.00,0.0177
2923.00,0.0177
2922.00,0.0177
2921.00,0.0177
2920.00,0.0177
2919.00,0.0177
2918.00,0.0177
2917.00,0.0177
2916.00,0.0178
2915.00,0.0179
2914.00,0.0180
2913.00,0.0182
2912.00,0.0184
2911.00,0.0185
2910.00,0.0186
2909.00,0.0187
2908.00,0.0187
2907.00,0.0187
2906.00,0.0188
2905.00,0.0188
2904.00,0.0188
2903.00,0.0189
2902.00,0.0189
2901.00,0.0189
2900.00,0.0189
2899.00,0.0189
2898.00,0.0189
2897.00,0.0189
2896.00,0.0189
2895.00,0.0189
2894.00,0.0189
2893.00,0.0189
2892.00,0.0189
2891.00,0.0190
2890.00,0.0190
2889.00,0.0190
2888.00,0.0190
2887.00,0.0190
2886.00,0.0190
2885.00,0.0189
2884.00,0.0189
2883.00,0.0189
2882.00,0.0189
2881.00,0.0189
2880.00,0.0189
2879.00,0.0189
2878.00,0.0189
2877.00,0.0189
2876.00,0.0188
2875.00,0.0188
2874.00,0.0187
2873.00,0.0187
2872.00,0.0186
2871.00,0.0186
2870.00,0.0186
2869.00,0.0185
2868.00,0.0185
2867.00,0.0184
2866.00,0.0184
2865.00,0.0183
2864.00,0.0183
2863.00,0.0182
2862.00,0.0182
2861.00,0.0181
2860.00,0.0181
2859.00,0.0180
2858.00,0.0178
2857.00,0.0177
2856.00,0.0176
2855.00,0.0175
2854.00,0.0175
2853.00,0.0175
2852.00,0.0175
2851.00,0.0175
2850.00,0.0176
2849.00,0.0177
2848.00,0.0177
2847.00,0.0178
2846.00,0.0179
2845.00,0.0180
2844.00,0.0181
2843.00,0.0182
2842.00,0.0183
2841.00,0.0183
2840.00,0.0184
2839.00,0.0184
2838.00,0.0184
2837.00,0.0184
2836.00,0.0184
2835.00,0.0184
2834.00,0.0184
2833.00,0.0184
2832.00,0.0184
2831.00,0.0183
2830.00,0.0183
2829.00,0.0183
2828.00,0.0183
2827.00,0.0183
2826.00,0.0183
2825.00,0.0183
2824.00,0.0183
2823.00,0.0183
2822.00,0.0183
2821.00,0.0183
2820.00,0.0184
2819.00,0.0184
2818.00,0.0184
2817.00,0.0184
2816.00,0.0184
2815.00,0.0184
2814.00,0.0183
2813.00,0.0183
2812.00,0.0183
2811.00,0.0182
2810.00,0.0182
2809.00,0.0182
2808.00,0.0182
2807.00,0.0181
2806.00,0.0181
2805.00,0.0181
2804.00,0.0181
2803.00,0.0181
2802.00,0.0181
2801.00,0.0181
2800.00,0.0181
2799.00,0.0181
2798.00,0.0181
2797.00,0.0181
2796.00,0.0180
2795.00,0.0180
2794.00,0.0180
2793.00,0.0179
2792.00,0.0179
2791.00,0.0179
2790.00,0.0179
2789.00,0.0179
2788.00,0.0179
2787.00,0.0179
2786.00,0.0179
2785.00,0.0179
2784.00,0.0178
2783.00,0.0178
2782.00,0.0178
2781.00,0.0178
2780.00,0.0178
2779.00,0.0177
2778.00,0.0177
2777.00,0.0177
2776.00,0.0177
2775.00,0.0177
2774.00,0.0177
2773.00,0.0177
2772.00,0.0177
2771.00,0.0177
2770.00,0.0177
2769.00,0.0177
2768.00,0.0176
2767.00,0.0176
2766.00,0.0176
2765.00,0.0176
2764.00,0.0176
2763.00,0.0176
2762.00,0.0176
2761.00,0.0176
2760.00,0.0176
2759.00,0.0176
2758.00,0.0176
2757.00,0.0176
2756.00,0.0175
2755.00,0.0175
2754.00,0.0175
2753.00,0.0175
2752.00,0.0175
2751.00,0.0175
2750.00,0.0174
2749.00,0.0174
2748.00,0.0174
2747.00,0.0174
2746.00,0.0174
2745.00,0.0173
2744.00,0.0173
2743.00,0.0173
2742.00,0.0173
2741.00,0.0173
2740.00,0.0173
2739.00,0.0173
2738.00,0.0173
2737.00,0.0173
2736.00,0.0172
2735.00,0.0172
2734.00,0.0172
2733.00,0.0172
2732.00,0.0172
2731.00,0.0172
2730.00,0.0172
2729.00,0.0172
2728.00,0.0172
2727.00,0.0172
2726.00,0.0172
2725.00,0.0171
2724.00,0.0171
2723.00,0.0171
2722.00,0.0171
2721.00,0.0171
2720.00,0.0171
2719.00,0.0171
2718.00,0.0171
2717.00,0.0171
2716.00,0.0171
2715.00,0.0170
2714.00,0.0170
2713.00,0.0170
2712.00,0.0170
2711.00,0.0170
2710.00,0.0169
2709.00,0.0169
2708.00,0.0169
2707.00,0.0169
2706.00,0.0169
2705.00,0.0169
2704.00,0.0168
2703.00,0.0168
2702.00,0.0168
2701.00,0.0168
2700.00,0.0169
2699.00,0.0169
2698.00,0.0169
2697.00,0.0168
2696.00,0.0168
2695.00,0.0168
2694.00,0.0168
2693.00,0.0168
2692.00,0.0168
2691.00,0.0168
2690.00,0.0167
2689.00,0.0167
2688.00,0.0167
2687.00,0.0167
2686.00,0.0167
2685.00,0.0167
2684.00,0.0167
2683.00,0.0167
2682.00,0.0167
2681.00,0.0167
2680.00,0.0167
2679.00,0.0167
2678.00,0.0167
2677.00,0.0166
2676.00,0.0166
2675.00,0.0166
2674.00,0.0166
2673.00,0.0166
2672.00,0.0166
2671.00,0.0166
2670.00,0.0166
2669.00,0.0166
2668.00,0.0166
2667.00,0.0166
2666.00,0.0166
2665.00,0.0166
2664.00,0.0166
2663.00,0.0166
2662.00,0.0166
2661.00,0.0166
2660.00,0.0166
2659.00,0.0165
2658.00,0.0165
2657.00,0.0166
2656.00,0.0166
2655.00,0.0166
2654.00,0.0167
2653.00,0.0167
2652.00,0.0167
2651.00,0.0166
2650.00,0.0166
2649.00,0.0165
2648.00,0.0165
2647.00,0.0165
2646.00,0.0165
2645.00,0.0165
2644.00,0.0165
2643.00,0.0166
2642.00,0.0166
2641.00,0.0166
2640.00,0.0166
2639.00,0.0166
2638.00,0.0166
2637.00,0.0165
2636.00,0.0165
2635.00,0.0165
2634.00,0.0165
2633.00,0.0165
2632.00,0.0165
2631.00,0.0165
2630.00,0.0166
2629.00,0.0166
2628.00,0.0166
2627.00,0.0166
2626.00,0.0166
2625.00,0.0165
2624.00,0.0165
2623.00,0.0165
2622.00,0.0166
2621.00,0.0166
2620.00,0.0166
2619.00,0.0165
2618.00,0.0165
2617.00,0.0164
2616.00,0.0164
2615.00,0.0164
2614.00,0.0164
2613.00,0.0165
2612.00,0.0165
2611.00,0.0165
2610.00,0.0166
2609.00,0.0166
2608.00,0.0166
2607.00,0.0166
2606.00,0.0166
2605.00,0.0166
2604.00,0.0166
2603.00,0.0166
2602.00,0.0165
2601.00,0.0165
2600.00,0.0165
2599.00,0.0165
2598.00,0.0165
2597.00,0.0165
2596.00,0.0165
2595.00,0.0165
2594.00,0.0165
2593.00,0.0165
2592.00,0.0165
2591.00,0.0165
2590.00,0.0165
2589.00,0.0164
2588.00,0.0164
2587.00,0.0164
2586.00,0.0164
2585.00,0.0164
2584.00,0.0164
2583.00,0.0164
2582.00,0.0164
2581.00,0.0165
2580.00,0.0165
2579.00,0.0166
2578.00,0.0166
2577.00,0.0165
2576.00,0.0165
2575.00,0.0164
2574.00,0.0164
2573.00,0.0164
2572.00,0.0164
2571.00,0.0164
2570.00,0.0164
2569.00,0.0164
2568.00,0.0164
2567.00,0.0164
2566.00,0.0164
2565.00,0.0164
2564.00,0.0164
2563.00,0.0164
2562.00,0.0163
2561.00,0.0163
2560.00,0.0163
2559.00,0.0163
2558.00,0.0163
2557.00,0.0163
2556.00,0.0163
2555.00,0.0163
2554.00,0.0163
2553.00,0.0163
2552.00,0.0164
2551.00,0.0164
2550.00,0.0164
2549.00,0.0163
2548.00,0.0162
2547.00,0.0162
2546.00,0.0161
2545.00,0.0161
2544.00,0.0161
2543.00,0.0161
2542.00,0.0161
2541.00,0.0161
2540.00,0.0161
2539.00,0.0161
2538.00,0.0161
2537.00,0.0161
2536.00,0.0161
2535.00,0.0161
2534.00,0.0160
2533.00,0.0160
2532.00,0.0160
2531.00,0.0160
2530.00,0.0161
2529.00,0.0161
2528.00,0.0161
2527.00,0.0161
2526.00,0.0161
2525.00,0.0161
2524.00,0.0161
2523.00,0.0161
2522.00,0.0160
2521.00,0.0160
2520.00,0.0160
2519.00,0.0160
2518.00,0.0160
2517.00,0.0160
2516.00,0.0160
2515.00,0.0160
2514.00,0.0160
2513.00,0.0159
2512.00,0.0159
2511.00,0.0159
2510.00,0.0160
2509.00,0.0160
2508.00,0.0159
2507.00,0.0159
2506.00,0.0158
2505.00,0.0158
2504.00,0.0159
2503.00,0.0159
2502.00,0.0159
2501.00,0.0159
2500.00,0.0159
2499.00,0.0159
2498.00,0.0159
2497.00,0.0159
2496.00,0.0159
2495.00,0.0159
2494.00,0.0159
2493.00,0.0159
2492.00,0.0158
2491.00,0.0158
2490.00,0.0158
2489.00,0.0158
2488.00,0.0158
2487.00,0.0158
2486.00,0.0157
2485.00,0.0157
2484.00,0.0157
2483.00,0.0157
2482.00,0.0157
2481.00,0.0158
2480.00,0.0158
2479.00,0.0159
2478.00,0.0158
2477.00,0.0158
2476.00,0.0157
2475.00,0.0157
2474.00,0.0157
2473.00,0.0157
2472.00,0.0157
2471.00,0.0157
2470.00,0.0156
2469.00,0.0156
2468.00,0.0155
2467.00,0.0155
2466.00,0.0155
2465.00,0.0156
2464.00,0.0156
2463.00,0.0157
2462.00,0.0157
2461.00,0.0158
2460.00,0.0158
2459.00,0.0157
2458.00,0.0156
2457.00,0.0156
2456.00,0.0155
2455.00,0.0155
2454.00,0.0155
2453.00,0.0155
2452.00,0.0155
2451.00,0.0155
2450.00,0.0155
2449.00,0.0155
2448.00,0.0155
2447.00,0.0155
2446.00,0.0154
2445.00,0.0154
2444.00,0.0154
2443.00,0.0154
2442.00,0.0154
2441.00,0.0154
2440.00,0.0154
2439.00,0.0154
2438.00,0.0154
2437.00,0.0154
2436.00,0.0154
2435.00,0.0153
2434.00,0.0153
2433.00,0.0153
2432.00,0.0153
2431.00,0.0153
2430.00,0.0153
2429.00,0.0153
2428.00,0.0153
2427.00,0.0153
2426.00,0.0153
2425.00,0.0153
2424.00,0.0153
2423.00,0.0152
2422.00,0.0152
2421.00,0.0151
2420.00,0.0151
2419.00,0.0151
2418.00,0.0152
2417.00,0.0151
2416.00,0.0151
2415.00,0.0151
2414.00,0.0151
2413.00,0.0150
2412.00,0.0150
2411.00,0.0150
2410.00,0.0149
2409.00,0.0149
2408.00,0.0149
2407.00,0.0149
2406.00,0.0148
2405.00,0.0148
2404.00,0.0149
2403.00,0.0149
2402.00,0.0149
2401.00,0.0149
2400.00,0.0148
2399.00,0.0147
2398.00,0.0147
2397.00,0.0147
2396.00,0.0147
2395.00,0.0148
2394.00,0.0147
2393.00,0.0147
2392.00,0.0147
2391.00,0.0146
2390.00,0.0146
2389.00,0.0146
2388.00,0.0146
2387.00,0.0145
2386.00,0.0145
2385.00,0.0145
2384.00,0.0145
2383.00,0.0145
2382.00,0.0144
2381.00,0.0143
2380.00,0.0141
2379.00,0.0140
2378.00,0.0139
2377.00,0.0140
2376.00,0.0140
2375.00,0.0141
2374.00,0.0142
2373.00,0.0141
2372.00,0.0141
2371.00,0.0142
2370.00,0.0144
2369.00,0.0146
2368.00,0.0147
2367.00,0.0148
2366.00,0.0147
2365.00,0.0146
2364.00,0.0145
2363.00,0.0145
2362.00,0.0145
2361.00,0.0147
2360.00,0.0150
2359.00,0.0153
2358.00,0.0155
2357.00,0.0155
2356.00,0.0154
2355.00,0.0154
2354.00,0.0153
2353.00,0.0154
2352.00,0.0157
2351.00,0.0159
2350.00,0.0159
2349.00,0.0154
2348.00,0.0146
2347.00,0.0139
2346.00,0.0136
2345.00,0.0138
2344.00,0.0141
2343.00,0.0143
2342.00,0.0144
2341.00,0.0145
2340.00,0.0146
2339.00,0.0147
2338.00,0.0148
2337.00,0.0148
2336.00,0.0147
2335.00,0.0146
2334.00,0.0145
2333.00,0.0145
2332.00,0.0146
2331.00,0.0146
2330.00,0.0147
2329.00,0.0147
2328.00,0.0148
2327.00,0.0148
2326.00,0.0148
2325.00,0.0146
2324.00,0.0145
2323.00,0.0145
2322.00,0.0146
2321.00,0.0146
2320.00,0.0146
2319.00,0.0147
2318.00,0.0147
2317.00,0.0146
2316.00,0.0145
2315.00,0.0144
2314.00,0.0143
2313.00,0.0143
2312.00,0.0143
2311.00,0.0144
2310.00,0.0144
2309.00,0.0144
2308.00,0.0144
2307.00,0.0144
2306.00,0.0143
2305.00,0.0142
2304.00,0.0142
2303.00,0.0141
2302.00,0.0140
2301.00,0.0139
2300.00,0.0139
2299.00,0.0139
2298.00,0.0139
2297.00,0.0139
2296.00,0.0139
2295.00,0.0139
2294.00,0.0140
2293.00,0.0140
2292.00,0.0141
2291.00,0.0142
2290.00,0.0142
2289.00,0.0142
2288.00,0.0142
2287.00,0.0142
2286.00,0.0142
2285.00,0.0141
2284.00,0.0140
2283.00,0.0139
2282.00,0.0139
2281.00,0.0139
2280.00,0.0139
2279.00,0.0138
2278.00,0.0138
2277.00,0.0138
2276.00,0.0137
2275.00,0.0137
2274.00,0.0137
2273.00,0.0137
2272.00,0.0137
2271.00,0.0137
2270.00,0.0137
2269.00,0.0137
2268.00,0.0136
2267.00,0.0136
2266.00,0.0137
2265.00,0.0139
2264.00,0.0140
2263.00,0.0141
2262.00,0.0141
2261.00,0.0141
2260.00,0.0140
2259.00,0.0139
2258.00,0.0138
2257.00,0.0136
2256.00,0.0135
2255.00,0.0135
2254.00,0.0136
2253.00,0.0137
2252.00,0.0138
2251.00,0.0138
2250.00,0.0137
2249.00,0.0137
2248.00,0.0136
2247.00,0.0136
2246.00,0.0136
2245.00,0.0136
2244.00,0.0136
2243.00,0.0137
2242.00,0.0136
2241.00,0.0136
2240.00,0.0136
2239.00,0.0137
2238.00,0.0138
2237.00,0.0138
2236.00,0.0138
2235.00,0.0137
2234.00,0.0137
2233.00,0.0138
2232.00,0.0139
2231.00,0.0139
2230.00,0.0139
2229.00,0.0140
2228.00,0.0139
2227.00,0.0139
2226.00,0.0138
2225.00,0.0137
2224.00,0.0137
2223.00,0.0137
2222.00,0.0137
2221.00,0.0137
2220.00,0.0137
2219.00,0.0137
2218.00,0.0136
2217.00,0.0136
2216.00,0.0137
2215.00,0.0138
2214.00,0.0139
2213.00,0.0139
2212.00,0.0139
2211.00,0.0138
2210.00,0.0137
2209.00,0.0136
2208.00,0.0135
2207.00,0.0135
2206.00,0.0134
2205.00,0.0134
2204.00,0.0134
2203.00,0.0134
2202.00,0.0135
2201.00,0.0136
2200.00,0.0137
2199.00,0.0138
2198.00,0.0139
2197.00,0.0138
2196.00,0.0136
2195.00,0.0134
2194.00,0.0134
2193.00,0.0134
2192.00,0.0134
2191.00,0.0134
2190.00,0.0135
2189.00,0.0136
2188.00,0.0138
2187.00,0.0139
2186.00,0.0139
2185.00,0.0138
2184.00,0.0136
2183.00,0.0136
2182.00,0.0136
2181.00,0.0137
2180.00,0.0137
2179.00,0.0135
2178.00,0.0133
2177.00,0.0132
2176.00,0.0131
2175.00,0.0131
2174.00,0.0133
2173.00,0.0135
2172.00,0.0137
2171.00,0.0139
2170.00,0.0139
2169.00,0.0139
2168.00,0.0137
2167.00,0.0135
2166.00,0.0135
2165.00,0.0135
2164.00,0.0137
2163.00,0.0138
2162.00,0.0137
2161.00,0.0134
2160.00,0.0130
2159.00,0.0128
2158.00,0.0127
2157.00,0.0129
2156.00,0.0131
2155.00,0.0132
2154.00,0.0132
2153.00,0.0133
2152.00,0.0133
2151.00,0.0131
2150.00,0.0129
2149.00,0.0127
2148.00,0.0126
2147.00,0.0127
2146.00,0.0127
2145.00,0.0128
2144.00,0.0128
2143.00,0.0128
2142.00,0.0128
2141.00,0.0128
2140.00,0.0128
2139.00,0.0127
2138.00,0.0126
2137.00,0.0125
2136.00,0.0124
2135.00,0.0124
2134.00,0.0124
2133.00,0.0125
2132.00,0.0126
2131.00,0.0126
2130.00,0.0126
2129.00,0.0126
2128.00,0.0126
2127.00,0.0126
2126.00,0.0126
2125.00,0.0126
2124.00,0.0125
2123.00,0.0125
2122.00,0.0126
2121.00,0.0127
2120.00,0.0128
2119.00,0.0128
2118.00,0.0128
2117.00,0.0127
2116.00,0.0126
2115.00,0.0126
2114.00,0.0126
2113.00,0.0126
2112.00,0.0127
2111.00,0.0127
2110.00,0.0127
2109.00,0.0127
2108.00,0.0126
2107.00,0.0126
2106.00,0.0125
2105.00,0.0125
2104.00,0.0125
2103.00,0.0125
2102.00,0.0125
2101.00,0.0126
2100.00,0.0126
2099.00,0.0125
2098.00,0.0124
2097.00,0.0124
2096.00,0.0124
2095.00,0.0124
2094.00,0.0124
2093.00,0.0124
2092.00,0.0124
2091.00,0.0124
2090.00,0.0123
2089.00,0.0122
2088.00,0.0122
2087.00,0.0122
2086.00,0.0122
2085.00,0.0122
2084.00,0.0122
2083.00,0.0122
2082.00,0.0122
2081.00,0.0121
2080.00,0.0121
2079.00,0.0121
2078.00,0.0122
2077.00,0.0123
2076.00,0.0124
2075.00,0.0125
2074.00,0.0124
2073.00,0.0123
2072.00,0.0122
2071.00,0.0122
2070.00,0.0121
2069.00,0.0121
2068.00,0.0120
2067.00,0.0121
2066.00,0.0122
2065.00,0.0123
2064.00,0.0123
2063.00,0.0123
2062.00,0.0122
2061.00,0.0121
2060.00,0.0121
2059.00,0.0120
2058.00,0.0120
2057.00,0.0120
2056.00,0.0120
2055.00,0.0120
2054.00,0.0121
2053.00,0.0122
2052.00,0.0123
2051.00,0.0124
2050.00,0.0124
2049.00,0.0123
2048.00,0.0121
2047.00,0.0120
2046.00,0.0120
2045.00,0.0121
2044.00,0.0120
2043.00,0.0119
2042.00,0.0119
2041.00,0.0120
2040.00,0.0121
2039.00,0.0122
2038.00,0.0123
2037.00,0.0124
2036.00,0.0125
2035.00,0.0125
2034.00,0.0124
2033.00,0.0123
2032.00,0.0121
2031.00,0.0120
2030.00,0.0120
2029.00,0.0121
2028.00,0.0122
2027.00,0.0122
2026.00,0.0122
2025.00,0.0122
2024.00,0.0122
2023.00,0.0122
2022.00,0.0123
2021.00,0.0124
2020.00,0.0124
2019.00,0.0124
2018.00,0.0123
2017.00,0.0122
2016.00,0.0122
2015.00,0.0121
2014.00,0.0120
2013.00,0.0120
2012.00,0.0120
2011.00,0.0119
2010.00,0.0118
2009.00,0.0118
2008.00,0.0117
2007.00,0.0117
2006.00,0.0117
2005.00,0.0117
2004.00,0.0117
2003.00,0.0117
2002.00,0.0117
2001.00,0.0118
2000.00,0.0118
1999.00,0.0118
1998.00,0.0119
1997.00,0.0119
1996.00,0.0118
1995.00,0.0118
1994.00,0.0118
1993.00,0.0118
1992.00,0.0119
1991.00,0.0120
1990.00,0.0120
1989.00,0.0120
1988.00,0.0119
1987.00,0.0118
1986.00,0.0117
1985.00,0.0117
1984.00,0.0117
1983.00,0.0117
1982.00,0.0118
1981.00,0.0118
1980.00,0.0118
1979.00,0.0117
1978.00,0.0115
1977.00,0.0114
1976.00,0.0114
1975.00,0.0114
1974.00,0.0113
1973.00,0.0114
1972.00,0.0114
1971.00,0.0114
1970.00,0.0114
1969.00,0.0114
1968.00,0.0113
1967.00,0.0112
1966.00,0.0113
1965.00,0.0114
1964.00,0.0115
1963.00,0.0115
1962.00,0.0113
1961.00,0.0111
1960.00,0.0110
1959.00,0.0109
1958.00,0.0110
1957.00,0.0110
1956.00,0.0110
1955.00,0.0110
1954.00,0.0110
1953.00,0.0109
1952.00,0.0107
1951.00,0.0105
1950.00,0.0104
1949.00,0.0105
1948.00,0.0107
1947.00,0.0108
1946.00,0.0110
1945.00,0.0111
1944.00,0.0111
1943.00,0.0110
1942.00,0.0107
1941.00,0.0104
1940.00,0.0103
1939.00,0.0102
1938.00,0.0102
1937.00,0.0103
1936.00,0.0104
1935.00,0.0104
1934.00,0.0105
1933.00,0.0105
1932.00,0.0105
1931.00,0.0104
1930.00,0.0103
1929.00,0.0102
1928.00,0.0101
1927.00,0.0100
1926.00,0.0100
1925.00,0.0101
1924.00,0.0102
1923.00,0.0102
1922.00,0.0102
1921.00,0.0102
1920.00,0.0103
1919.00,0.0103
1918.00,0.0102
1917.00,0.0101
1916.00,0.0100
1915.00,0.0100
1914.00,0.0100
1913.00,0.0099
1912.00,0.0099
1911.00,0.0098
1910.00,0.0098
1909.00,0.0098
1908.00,0.0097
1907.00,0.0097
1906.00,0.0096
1905.00,0.0096
1904.00,0.0096
1903.00,0.0096
1902.00,0.0096
1901.00,0.0096
1900.00,0.0095
1899.00,0.0095
1898.00,0.0095
1897.00,0.0095
1896.00,0.0095
1895.00,0.0094
1894.00,0.0094
1893.00,0.0095
1892.00,0.0095
1891.00,0.0095
1890.00,0.0094
1889.00,0.0093
1888.00,0.0092
1887.00,0.0091
1886.00,0.0091
1885.00,0.0091
1884.00,0.0091
1883.00,0.0090
1882.00,0.0090
1881.00,0.0089
1880.00,0.0089
1879.00,0.0088
1878.00,0.0088
1877.00,0.0088
1876.00,0.0089
1875.00,0.0089
1874.00,0.0088
1873.00,0.0089
1872.00,0.0089
1871.00,0.0090
1870.00,0.0089
1869.00,0.0089
1868.00,0.0088
1867.00,0.0087
1866.00,0.0087
1865.00,0.0087
1864.00,0.0086
1863.00,0.0085
1862.00,0.0085
1861.00,0.0084
1860.00,0.0084
1859.00,0.0083
1858.00,0.0083
1857.00,0.0083
1856.00,0.0083
1855.00,0.0082
1854.00,0.0081
1853.00,0.0081
1852.00,0.0081
1851.00,0.0082
1850.00,0.0082
1849.00,0.0082
1848.00,0.0083
1847.00,0.0084
1846.00,0.0084
1845.00,0.0082
1844.00,0.0079
1843.00,0.0078
1842.00,0.0078
1841.00,0.0078
1840.00,0.0079
1839.00,0.0079
1838.00,0.0078
1837.00,0.0078
1836.00,0.0077
1835.00,0.0077
1834.00,0.0078
1833.00,0.0079
1832.00,0.0080
1831.00,0.0080
1830.00,0.0078
1829.00,0.0076
1828.00,0.0076
1827.00,0.0076
1826.00,0.0076
1825.00,0.0075
1824.00,0.0074
1823.00,0.0073
1822.00,0.0073
1821.00,0.0073
1820.00,0.0073
1819.00,0.0073
1818.00,0.0073
1817.00,0.0072
1816.00,0.0071
1815.00,0.0071
1814.00,0.0071
1813.00,0.0072
1812.00,0.0072
1811.00,0.0072
1810.00,0.0071
1809.00,0.0070
1808.00,0.0070
1807.00,0.0070
1806.00,0.0071
1805.00,0.0071
1804.00,0.0072
1803.00,0.0073
1802.00,0.0073
1801.00,0.0072
1800.00,0.0071
1799.00,0.0070
1798.00,0.0071
1797.00,0.0072
1796.00,0.0073
1795.00,0.0074
1794.00,0.0074
1793.00,0.0073
1792.00,0.0072
1791.00,0.0071
1790.00,0.0071
1789.00,0.0072
1788.00,0.0074
1787.00,0.0075
1786.00,0.0075
1785.00,0.0076
1784.00,0.0076
1783.00,0.0077
1782.00,0.0078
1781.00,0.0079
1780.00,0.0079
1779.00,0.0080
1778.00,0.0082
1777.00,0.0084
1776.00,0.0086
1775.00,0.0089
1774.00,0.0090
1773.00,0.0090
1772.00,0.0089
1771.00,0.0089
1770.00,0.0090
1769.00,0.0092
1768.00,0.0093
1767.00,0.0093
1766.00,0.0094
1765.00,0.0095
1764.00,0.0097
1763.00,0.0098
1762.00,0.0098
1761.00,0.0098
1760.00,0.0099
1759.00,0.0101
1758.00,0.0102
1757.00,0.0102
1756.00,0.0102
1755.00,0.0103
1754.00,0.0105
1753.00,0.0107
1752.00,0.0108
1751.00,0.0109
1750.00,0.0110
1749.00,0.0112
1748.00,0.0113
1747.00,0.0115
1746.00,0.0116
1745.00,0.0118
1744.00,0.0119
1743.00,0.0121
1742.00,0.0123
1741.00,0.0125
1740.00,0.0126
1739.00,0.0127
1738.00,0.0130
1737.00,0.0133
1736.00,0.0136
1735.00,0.0138
1734.00,0.0139
1733.00,0.0141
1732.00,0.0143
1731.00,0.0146
1730.00,0.0149
1729.00,0.0151
1728.00,0.0152
1727.00,0.0154
1726.00,0.0156
1725.00,0.0158
1724.00,0.0160
1723.00,0.0162
1722.00,0.0165
1721.00,0.0167
1720.00,0.0169
1719.00,0.0169
1718.00,0.0169
1717.00,0.0170
1716.00,0.0172
1715.00,0.0174
1714.00,0.0175
1713.00,0.0177
1712.00,0.0178
1711.00,0.0179
1710.00,0.0180
1709.00,0.0181
1708.00,0.0183
1707.00,0.0185
1706.00,0.0186
1705.00,0.0187
1704.00,0.0188
1703.00,0.0190
1702.00,0.0191
1701.00,0.0190
1700.00,0.0189
1699.00,0.0189
1698.00,0.0191
1697.00,0.0193
1696.00,0.0193
1695.00,0.0191
1694.00,0.0190
1693.00,0.0192
1692.00,0.0195
1691.00,0.0196
1690.00,0.0197
1689.00,0.0198
1688.00,0.0199
1687.00,0.0200
1686.00,0.0200
1685.00,0.0199
1684.00,0.0201
1683.00,0.0203
1682.00,0.0205
1681.00,0.0207
1680.00,0.0209
1679.00,0.0210
1678.00,0.0211
1677.00,0.0212
1676.00,0.0213
1675.00,0.0214
1674.00,0.0215
1673.00,0.0216
1672.00,0.0218
1671.00,0.0220
1670.00,0.0222
1669.00,0.0224
1668.00,0.0225
1667.00,0.0226
1666.00,0.0227
1665.00,0.0229
1664.00,0.0229
1663.00,0.0231
1662.00,0.0232
1661.00,0.0234
1660.00,0.0236
1659.00,0.0237
1658.00,0.0239
1657.00,0.0241
1656.00,0.0243
1655.00,0.0243
1654.00,0.0244
1653.00,0.0247
1652.00,0.0248
1651.00,0.0249
1650.00,0.0252
1649.00,0.0255
1648.00,0.0257
1647.00,0.0260
1646.00,0.0262
1645.00,0.0263
1644.00,0.0263
1643.00,0.0263
1642.00,0.0264
1641.00,0.0265
1640.00,0.0267
1639.00,0.0269
1638.00,0.0271
1637.00,0.0273
1636.00,0.0277
1635.00,0.0280
1634.00,0.0281
1633.00,0.0282
1632.00,0.0283
1631.00,0.0284
1630.00,0.0285
1629.00,0.0287
1628.00,0.0289
1627.00,0.0291
1626.00,0.0294
1625.00,0.0295
1624.00,0.0298
1623.00,0.0300
1622.00,0.0302
1621.00,0.0303
1620.00,0.0304
1619.00,0.0305
1618.00,0.0306
1617.00,0.0308
1616.00,0.0310
1615.00,0.0312
1614.00,0.0314
1613.00,0.0315
1612.00,0.0316
1611.00,0.0317
1610.00,0.0319
1609.00,0.0321
1608.00,0.0323
1607.00,0.0324
1606.00,0.0325
1605.00,0.0326
1604.00,0.0327
1603.00,0.0328
1602.00,0.0329
1601.00,0.0330
1600.00,0.0330
1599.00,0.0331
1598.00,0.0332
1597.00,0.0333
1596.00,0.0335
1595.00,0.0336
1594.00,0.0337
1593.00,0.0338
1592.00,0.0338
1591.00,0.0338
1590.00,0.0338
1589.00,0.0339
1588.00,0.0339
1587.00,0.0340
1586.00,0.0340
1585.00,0.0340
1584.00,0.0339
1583.00,0.0340
1582.00,0.0340
1581.00,0.0340
1580.00,0.0340
1579.00,0.0340
1578.00,0.0339
1577.00,0.0340
1576.00,0.0341
1575.00,0.0342
1574.00,0.0342
1573.00,0.0341
1572.00,0.0340
1571.00,0.0339
1570.00,0.0339
1569.00,0.0340
1568.00,0.0340
1567.00,0.0340
1566.00,0.0339
1565.00,0.0338
1564.00,0.0337
1563.00,0.0336
1562.00,0.0335
1561.00,0.0331
1560.00,0.0327
1559.00,0.0332
1558.00,0.0336
1557.00,0.0334
1556.00,0.0331
1555.00,0.0329
1554.00,0.0327
1553.00,0.0325
1552.00,0.0324
1551.00,0.0323
1550.00,0.0322
1549.00,0.0321
1548.00,0.0319
1547.00,0.0316
1546.00,0.0314
1545.00,0.0312
1544.00,0.0311
1543.00,0.0310
1542.00,0.0307
1541.00,0.0304
1540.00,0.0304
1539.00,0.0303
1538.00,0.0302
1537.00,0.0301
1536.00,0.0300
1535.00,0.0298
1534.00,0.0297
1533.00,0.0296
1532.00,0.0295
1531.00,0.0294
1530.00,0.0293
1529.00,0.0292
1528.00,0.0290
1527.00,0.0289
1526.00,0.0288
1525.00,0.0287
1524.00,0.0286
1523.00,0.0284
1522.00,0.0282
1521.00,0.0280
1520.00,0.0279
1519.00,0.0279
1518.00,0.0278
1517.00,0.0277
1516.00,0.0276
1515.00,0.0275
1514.00,0.0273
1513.00,0.0272
1512.00,0.0271
1511.00,0.0270
1510.00,0.0269
1509.00,0.0268
1508.00,0.0267
1507.00,0.0267
1506.00,0.0265
1505.00,0.0261
1504.00,0.0259
1503.00,0.0259
1502.00,0.0258
1501.00,0.0257
1500.00,0.0256
1499.00,0.0255
1498.00,0.0254
1497.00,0.0253
1496.00,0.0253
1495.00,0.0253
1494.00,0.0254
1493.00,0.0254
1492.00,0.0254
1491.00,0.0255
1490.00,0.0255
1489.00,0.0256
1488.00,0.0256
1487.00,0.0255
1486.00,0.0253
1485.00,0.0252
1484.00,0.0251
1483.00,0.0251
1482.00,0.0251
1481.00,0.0251
1480.00,0.0251
1479.00,0.0251
1478.00,0.0252
1477.00,0.0252
1476.00,0.0253
1475.00,0.0254
1474.00,0.0254
1473.00,0.0254
1472.00,0.0254
1471.00,0.0253
1470.00,0.0252
1469.00,0.0252
1468.00,0.0252
1467.00,0.0251
1466.00,0.0251
1465.00,0.0251
1464.00,0.0252
1463.00,0.0252
1462.00,0.0252
1461.00,0.0253
1460.00,0.0253
1459.00,0.0253
1458.00,0.0254
1457.00,0.0256
1456.00,0.0258
1455.00,0.0258
1454.00,0.0259
1453.00,0.0259
1452.00,0.0259
1451.00,0.0260
1450.00,0.0261
1449.00,0.0262
1448.00,0.0264
1447.00,0.0265
1446.00,0.0265
1445.00,0.0264
1444.00,0.0264
1443.00,0.0264
1442.00,0.0264
1441.00,0.0265
1440.00,0.0266
1439.00,0.0267
1438.00,0.0268
1437.00,0.0268
1436.00,0.0270
1435.00,0.0270
1434.00,0.0271
1433.00,0.0271
1432.00,0.0272
1431.00,0.0273
1430.00,0.0274
1429.00,0.0275
1428.00,0.0276
1427.00,0.0276
1426.00,0.0276
1425.00,0.0276
1424.00,0.0277
1423.00,0.0277
1422.00,0.0277
1421.00,0.0276
1420.00,0.0277
1419.00,0.0279
1418.00,0.0282
1417.00,0.0283
1416.00,0.0284
1415.00,0.0284
1414.00,0.0283
1413.00,0.0283
1412.00,0.0283
1411.00,0.0283
1410.00,0.0284
1409.00,0.0284
1408.00,0.0284
1407.00,0.0285
1406.00,0.0286
1405.00,0.0286
1404.00,0.0287
1403.00,0.0288
1402.00,0.0289
1401.00,0.0289
1400.00,0.0291
1399.00,0.0292
1398.00,0.0294
1397.00,0.0294
1396.00,0.0295
1395.00,0.0295
1394.00,0.0296
1393.00,0.0296
1392.00,0.0297
1391.00,0.0297
1390.00,0.0298
1389.00,0.0298
1388.00,0.0299
1387.00,0.0301
1386.00,0.0302
1385.00,0.0302
1384.00,0.0302
1383.00,0.0303
1382.00,0.0303
1381.00,0.0303
1380.00,0.0304
1379.00,0.0304
1378.00,0.0305
1377.00,0.0305
1376.00,0.0305
1375.00,0.0306
1374.00,0.0308
1373.00,0.0309
1372.00,0.0308
1371.00,0.0307
1370.00,0.0307
1369.00,0.0307
1368.00,0.0307
1367.00,0.0307
1366.00,0.0307
1365.00,0.0307
1364.00,0.0307
1363.00,0.0307
1362.00,0.0308
1361.00,0.0307
1360.00,0.0307
1359.00,0.0305
1358.00,0.0304
1357.00,0.0303
1356.00,0.0303
1355.00,0.0302
1354.00,0.0302
1353.00,0.0301
1352.00,0.0301
1351.00,0.0300
1350.00,0.0300
1349.00,0.0299
1348.00,0.0299
1347.00,0.0298
1346.00,0.0297
1345.00,0.0296
1344.00,0.0296
1343.00,0.0295
1342.00,0.0295
1341.00,0.0295
1340.00,0.0295
1339.00,0.0296
1338.00,0.0295
1337.00,0.0294
1336.00,0.0293
1335.00,0.0292
1334.00,0.0291
1333.00,0.0291
1332.00,0.0290
1331.00,0.0290
1330.00,0.0289
1329.00,0.0289
1328.00,0.0288
1327.00,0.0288
1326.00,0.0287
1325.00,0.0286
1324.00,0.0286
1323.00,0.0286
1322.00,0.0286
1321.00,0.0286
1320.00,0.0286
1319.00,0.0286
1318.00,0.0285
1317.00,0.0285
1316.00,0.0285
1315.00,0.0285
1314.00,0.0285
1313.00,0.0285
1312.00,0.0285
1311.00,0.0284
1310.00,0.0283
1309.00,0.0283
1308.00,0.0283
1307.00,0.0283
1306.00,0.0283
1305.00,0.0283
1304.00,0.0284
1303.00,0.0284
1302.00,0.0284
1301.00,0.0284
1300.00,0.0283
1299.00,0.0283
1298.00,0.0284
1297.00,0.0284
1296.00,0.0285
1295.00,0.0285
1294.00,0.0285
1293.00,0.0285
1292.00,0.0285
1291.00,0.0285
1290.00,0.0285
1289.00,0.0286
1288.00,0.0286
1287.00,0.0287
1286.00,0.0287
1285.00,0.0286
1284.00,0.0286
1283.00,0.0287
1282.00,0.0288
1281.00,0.0288
1280.00,0.0289
1279.00,0.0289
1278.00,0.0289
1277.00,0.0290
1276.00,0.0290
1275.00,0.0290
1274.00,0.0290
1273.00,0.0290
1272.00,0.0291
1271.00,0.0291
1270.00,0.0292
1269.00,0.0292
1268.00,0.0293
1267.00,0.0293
1266.00,0.0293
1265.00,0.0293
1264.00,0.0293
1263.00,0.0293
1262.00,0.0293
1261.00,0.0294
1260.00,0.0294
1259.00,0.0295
1258.00,0.0295
1257.00,0.0296
1256.00,0.0296
1255.00,0.0296
1254.00,0.0296
1253.00,0.0296
1252.00,0.0296
1251.00,0.0296
1250.00,0.0297
1249.00,0.0298
1248.00,0.0299
1247.00,0.0299
1246.00,0.0299
1245.00,0.0299
1244.00,0.0299
1243.00,0.0299
1242.00,0.0299
1241.00,0.0299
1240.00,0.0299
1239.00,0.0299
1238.00,0.0299
1237.00,0.0299
1236.00,0.0300
1235.00,0.0300
1234.00,0.0301
1233.00,0.0301
1232.00,0.0301
1231.00,0.0301
1230.00,0.0301
1229.00,0.0301
1228.00,0.0301
1227.00,0.0302
1226.00,0.0302
1225.00,0.0302
1224.00,0.0302
1223.00,0.0301
1222.00,0.0301
1221.00,0.0301
1220.00,0.0301
1219.00,0.0301
1218.00,0.0301
1217.00,0.0301
1216.00,0.0300
1215.00,0.0299
1214.00,0.0299
1213.00,0.0298
1212.00,0.0298
1211.00,0.0298
1210.00,0.0298
1209.00,0.0298
1208.00,0.0298
1207.00,0.0298
1206.00,0.0298
1205.00,0.0298
1204.00,0.0298
1203.00,0.0298
1202.00,0.0299
1201.00,0.0299
1200.00,0.0300
1199.00,0.0300
1198.00,0.0300
1197.00,0.0299
1196.00,0.0299
1195.00,0.0298
1194.00,0.0298
1193.00,0.0298
1192.00,0.0298
1191.00,0.0299
1190.00,0.0299
1189.00,0.0299
1188.00,0.0298
1187.00,0.0298
1186.00,0.0298
1185.00,0.0299
1184.00,0.0299
1183.00,0.0299
1182.00,0.0299
1181.00,0.0299
1180.00,0.0298
1179.00,0.0298
1178.00,0.0299
1177.00,0.0299
1176.00,0.0301
1175.00,0.0302
1174.00,0.0302
1173.00,0.0301
1172.00,0.0301
1171.00,0.0300
1170.00,0.0300
1169.00,0.0301
1168.00,0.0302
1167.00,0.0302
1166.00,0.0302
1165.00,0.0302
1164.00,0.0303
1163.00,0.0303
1162.00,0.0303
1161.00,0.0303
1160.00,0.0302
1159.00,0.0302
1158.00,0.0302
1157.00,0.0302
1156.00,0.0302
1155.00,0.0302
1154.00,0.0302
1153.00,0.0302
1152.00,0.0302
1151.00,0.0302
1150.00,0.0303
1149.00,0.0304
1148.00,0.0304
1147.00,0.0305
1146.00,0.0306
1145.00,0.0307
1144.00,0.0308
1143.00,0.0307
1142.00,0.0307
1141.00,0.0308
1140.00,0.0310
1139.00,0.0312
1138.00,0.0314
1137.00,0.0314
1136.00,0.0314
1135.00,0.0314
1134.00,0.0315
1133.00,0.0316
1132.00,0.0318
1131.00,0.0320
1130.00,0.0322
1129.00,0.0324
1128.00,0.0326
1127.00,0.0327
1126.00,0.0328
1125.00,0.0329
1124.00,0.0331
1123.00,0.0333
1122.00,0.0337
1121.00,0.0341
1120.00,0.0346
1119.00,0.0351
1118.00,0.0354
1117.00,0.0356
1116.00,0.0358
1115.00,0.0358
1114.00,0.0358
1113.00,0.0358
1112.00,0.0359
1111.00,0.0360
1110.00,0.0361
1109.00,0.0363
1108.00,0.0364
1107.00,0.0366
1106.00,0.0367
1105.00,0.0369
1104.00,0.0371
1103.00,0.0374
1102.00,0.0377
1101.00,0.0378
1100.00,0.0380
1099.00,0.0380
1098.00,0.0381
1097.00,0.0381
1096.00,0.0382
1095.00,0.0382
1094.00,0.0382
1093.00,0.0382
1092.00,0.0384
1091.00,0.0386
1090.00,0.0388
1089.00,0.0389
1088.00,0.0388
1087.00,0.0387
1086.00,0.0386
1085.00,0.0385
1084.00,0.0386
1083.00,0.0388
1082.00,0.0388
1081.00,0.0388
1080.00,0.0388
1079.00,0.0388
1078.00,0.0389
1077.00,0.0391
1076.00,0.0392
1075.00,0.0393
1074.00,0.0393
1073.00,0.0393
1072.00,0.0393
1071.00,0.0395
1070.00,0.0397
1069.00,0.0399
1068.00,0.0400
1067.00,0.0401
1066.00,0.0401
1065.00,0.0401
1064.00,0.0402
1063.00,0.0404
1062.00,0.0406
1061.00,0.0409
1060.00,0.0412
1059.00,0.0414
1058.00,0.0416
1057.00,0.0417
1056.00,0.0417
1055.00,0.0418
1054.00,0.0420
1053.00,0.0422
1052.00,0.0425
1051.00,0.0428
1050.00,0.0430
1049.00,0.0433
1048.00,0.0436
1047.00,0.0438
1046.00,0.0440
1045.00,0.0441
1044.00,0.0443
1043.00,0.0445
1042.00,0.0448
1041.00,0.0451
1040.00,0.0454
1039.00,0.0457
1038.00,0.0460
1037.00,0.0462
1036.00,0.0464
1035.00,0.0466
1034.00,0.0467
1033.00,0.0467
1032.00,0.0467
1031.00,0.0465
1030.00,0.0462
1029.00,0.0460
1028.00,0.0457
1027.00,0.0454
1026.00,0.0451
1025.00,0.0446
1024.00,0.0443
1023.00,0.0440
1022.00,0.0438
1021.00,0.0438
1020.00,0.0438
1019.00,0.0439
1018.00,0.0439
1017.00,0.0439
1016.00,0.0439
1015.00,0.0440
1014.00,0.0441
1013.00,0.0442
1012.00,0.0443
1011.00,0.0445
1010.00,0.0446
1009.00,0.0446
1008.00,0.0446
1007.00,0.0446
1006.00,0.0446
1005.00,0.0445
1004.00,0.0444
1003.00,0.0442
1002.00,0.0440
1001.00,0.0438
1000.00,0.0435
999.00,0.0433
998.00,0.0430
997.00,0.0426
996.00,0.0421
995.00,0.0416
994.00,0.0411
993.00,0.0408
992.00,0.0406
991.00,0.0404
990.00,0.0401
989.00,0.0399
988.00,0.0396
987.00,0.0393
986.00,0.0390
985.00,0.0388
984.00,0.0385
983.00,0.0383
982.00,0.0381
981.00,0.0379
980.00,0.0377
979.00,0.0376
978.00,0.0375
977.00,0.0374
976.00,0.0372
975.00,0.0370
974.00,0.0367
973.00,0.0364
972.00,0.0362
971.00,0.0362
970.00,0.0362
969.00,0.0362
968.00,0.0361
967.00,0.0359
966.00,0.0357
965.00,0.0355
964.00,0.0353
963.00,0.0352
962.00,0.0352
961.00,0.0351
960.00,0.0350
959.00,0.0348
958.00,0.0347
957.00,0.0347
956.00,0.0348
955.00,0.0349
954.00,0.0349
953.00,0.0348
952.00,0.0347
951.00,0.0348
950.00,0.0349
949.00,0.0351
948.00,0.0352
947.00,0.0352
946.00,0.0351
945.00,0.0351
944.00,0.0351
943.00,0.0353
942.00,0.0355
941.00,0.0358
940.00,0.0360
939.00,0.0360
938.00,0.0359
937.00,0.0359
936.00,0.0360
935.00,0.0361
934.00,0.0361
933.00,0.0360
932.00,0.0358
931.00,0.0357
930.00,0.0356
929.00,0.0355
928.00,0.0355
927.00,0.0356
926.00,0.0357
925.00,0.0358
924.00,0.0358
923.00,0.0360
922.00,0.0363
921.00,0.0366
920.00,0.0370
919.00,0.0373
918.00,0.0375
917.00,0.0377
916.00,0.0379
915.00,0.0380
914.00,0.0381
913.00,0.0382
912.00,0.0383
911.00,0.0383
910.00,0.0381
909.00,0.0377
908.00,0.0374
907.00,0.0372
906.00,0.0371
905.00,0.0369
904.00,0.0366
903.00,0.0363
902.00,0.0361
901.00,0.0361
900.00,0.0360
899.00,0.0358
898.00,0.0356
897.00,0.0353
896.00,0.0351
895.00,0.0349
894.00,0.0348
893.00,0.0348
892.00,0.0348
891.00,0.0349
890.00,0.0349
889.00,0.0346
888.00,0.0344
887.00,0.0341
886.00,0.0340
885.00,0.0339
884.00,0.0337
883.00,0.0336
882.00,0.0335
881.00,0.0335
880.00,0.0335
879.00,0.0335
878.00,0.0334
877.00,0.0333
876.00,0.0332
875.00,0.0331
874.00,0.0330
873.00,0.0330
872.00,0.0332
871.00,0.0334
870.00,0.0335
869.00,0.0333
868.00,0.0331
867.00,0.0329
866.00,0.0328
865.00,0.0328
864.00,0.0328
863.00,0.0329
862.00,0.0330
861.00,0.0330
860.00,0.0330
859.00,0.0329
858.00,0.0328
857.00,0.0328
856.00,0.0328
855.00,0.0328
854.00,0.0327
853.00,0.0326
852.00,0.0326
851.00,0.0327
850.00,0.0328
849.00,0.0330
848.00,0.0330
847.00,0.0329
846.00,0.0328
845.00,0.0329
844.00,0.0331
843.00,0.0333
842.00,0.0334
841.00,0.0334
840.00,0.0334
839.00,0.0335
838.00,0.0336
837.00,0.0337
836.00,0.0338
835.00,0.0339
834.00,0.0339
833.00,0.0340
832.00,0.0343
831.00,0.0346
830.00,0.0349
829.00,0.0350
828.00,0.0350
827.00,0.0347
826.00,0.0345
825.00,0.0345
824.00,0.0346
823.00,0.0348
822.00,0.0351
821.00,0.0354
820.00,0.0356
819.00,0.0356
818.00,0.0355
817.00,0.0354
816.00,0.0355
815.00,0.0357
814.00,0.0359
813.00,0.0360
812.00,0.0361
811.00,0.0361
810.00,0.0361
809.00,0.0362
808.00,0.0364
807.00,0.0367
806.00,0.0371
805.00,0.0374
804.00,0.0378
803.00,0.0380
802.00,0.0383
801.00,0.0386
800.00,0.0389
799.00,0.0390
798.00,0.0391
797.00,0.0391
796.00,0.0392
795.00,0.0393
794.00,0.0393
793.00,0.0393
792.00,0.0393
791.00,0.0394
790.00,0.0395
789.00,0.0396
788.00,0.0395
787.00,0.0395
786.00,0.0394
785.00,0.0395
784.00,0.0395
783.00,0.0395
782.00,0.0396
781.00,0.0397
780.00,0.0399
779.00,0.0402
778.00,0.0402
777.00,0.0401
776.00,0.0398
775.00,0.0396
774.00,0.0395
773.00,0.0395
772.00,0.0396
771.00,0.0397
770.00,0.0398
769.00,0.0397
768.00,0.0397
767.00,0.0396
766.00,0.0397
765.00,0.0398
764.00,0.0401
763.00,0.0402
762.00,0.0402
761.00,0.0403
760.00,0.0405
759.00,0.0406
758.00,0.0407
757.00,0.0406
756.00,0.0405
755.00,0.0405
754.00,0.0405
753.00,0.0406
752.00,0.0409
751.00,0.0411
750.00,0.0413
749.00,0.0412
748.00,0.0410
747.00,0.0407
746.00,0.0405
745.00,0.0404
744.00,0.0406
743.00,0.0409
742.00,0.0410
741.00,0.0410
740.00,0.0408
739.00,0.0406
738.00,0.0404
737.00,0.0403
736.00,0.0402
735.00,0.0402
734.00,0.0402
733.00,0.0404
732.00,0.0406
731.00,0.0408
730.00,0.0409
729.00,0.0409
728.00,0.0407
727.00,0.0404
726.00,0.0402
725.00,0.0401
724.00,0.0402
723.00,0.0405
722.00,0.0409
721.00,0.0411
720.00,0.0411
719.00,0.0409
718.00,0.0408
717.00,0.0409
716.00,0.0412
715.00,0.0414
714.00,0.0416
713.00,0.0417
712.00,0.0418
711.00,0.0419
710.00,0.0421
709.00,0.0423
708.00,0.0424
707.00,0.0425
706.00,0.0426
705.00,0.0428
704.00,0.0432
703.00,0.0436
702.00,0.0441
701.00,0.0443
700.00,0.0445
699.00,0.0446
698.00,0.0447
697.00,0.0447
696.00,0.0448
695.00,0.0450
694.00,0.0453
693.00,0.0456
692.00,0.0458
691.00,0.0460
690.00,0.0462
689.00,0.0463
688.00,0.0462
687.00,0.0461
686.00,0.0461
685.00,0.0464
684.00,0.0469
683.00,0.0473
682.00,0.0474
681.00,0.0474
680.00,0.0472
679.00,0.0470
678.00,0.0467
677.00,0.0465
676.00,0.0465
675.00,0.0468
674.00,0.0473
673.00,0.0476
672.00,0.0476
671.00,0.0474
670.00,0.0471
669.00,0.0472
668.00,0.0477
667.00,0.0482
666.00,0.0481
665.00,0.0481
664.00,0.0482
663.00,0.0485
662.00,0.0485
661.00,0.0484
660.00,0.0484
659.00,0.0485
658.00,0.0487
657.00,0.0487
656.00,0.0487
655.00,0.0488
654.00,0.0490
653.00,0.0490
652.00,0.0490
651.00,0.0491
650.00,0.0494
