Created as New Dataset,Monday, April 03 2023
cm-1,A
4000.00,0.0032
3999.00,0.0032
3998.00,0.0032
3997.00,0.0032
3996.00,0.0032
3995.00,0.0031
3994.00,0.0031
3993.00,0.0032
3992.00,0.0032
3991.00,0.0032
3990.00,0.0032
3989.00,0.0032
3988.00,0.0032
3987.00,0.0032
3986.00,0.0031
3985.00,0.0031
3984.00,0.0031
3983.00,0.0031
3982.00,0.0031
3981.00,0.0031
3980.00,0.0032
3979.00,0.0032
3978.00,0.0032
3977.00,0.0032
3976.00,0.0031
3975.00,0.0031
3974.00,0.0031
3973.00,0.0031
3972.00,0.0031
3971.00,0.0031
3970.00,0.0031
3969.00,0.0031
3968.00,0.0031
3967.00,0.0031
3966.00,0.0031
3965.00,0.0031
3964.00,0.0031
3963.00,0.0031
3962.00,0.0031
3961.00,0.0031
3960.00,0.0031
3959.00,0.0031
3958.00,0.0031
3957.00,0.0031
3956.00,0.0031
3955.00,0.0030
3954.00,0.0030
3953.00,0.0030
3952.00,0.0030
3951.00,0.0030
3950.00,0.0031
3949.00,0.0031
3948.00,0.0031
3947.00,0.0032
3946.00,0.0031
3945.00,0.0031
3944.00,0.0031
3943.00,0.0031
3942.00,0.0031
3941.00,0.0031
3940.00,0.0031
3939.00,0.0031
3938.00,0.0030
3937.00,0.0030
3936.00,0.0031
3935.00,0.0031
3934.00,0.0032
3933.00,0.0032
3932.00,0.0032
3931.00,0.0032
3930.00,0.0031
3929.00,0.0031
3928.00,0.0030
3927.00,0.0029
3926.00,0.0029
3925.00,0.0029
3924.00,0.0029
3923.00,0.0029
3922.00,0.0030
3921.00,0.0030
3920.00,0.0031
3919.00,0.0031
3918.00,0.0031
3917.00,0.0031
3916.00,0.0030
3915.00,0.0030
3914.00,0.0029
3913.00,0.0029
3912.00,0.0029
3911.00,0.0029
3910.00,0.0029
3909.00,0.0029
3908.00,0.0029
3907.00,0.0029
3906.00,0.0030
3905.00,0.0031
3904.00,0.0032
3903.00,0.0032
3902.00,0.0032
3901.00,0.0031
3900.00,0.0030
3899.00,0.0029
3898.00,0.0030
3897.00,0.0030
3896.00,0.0030
3895.00,0.0030
3894.00,0.0030
3893.00,0.0030
3892.00,0.0029
3891.00,0.0029
3890.00,0.0030
3889.00,0.0030
3888.00,0.0031
3887.00,0.0031
3886.00,0.0031
3885.00,0.0030
3884.00,0.0030
3883.00,0.0030
3882.00,0.0029
3881.00,0.0028
3880.00,0.0028
3879.00,0.0029
3878.00,0.0030
3877.00,0.0030
3876.00,0.0029
3875.00,0.0028
3874.00,0.0028
3873.00,0.0028
3872.00,0.0029
3871.00,0.0030
3870.00,0.0030
3869.00,0.0030
3868.00,0.0030
3867.00,0.0031
3866.00,0.0031
3865.00,0.0030
3864.00,0.0029
3863.00,0.0029
3862.00,0.0030
3861.00,0.0031
3860.00,0.0031
3859.00,0.0030
3858.00,0.0030
3857.00,0.0030
3856.00,0.0031
3855.00,0.0032
3854.00,0.0031
3853.00,0.0030
3852.00,0.0030
3851.00,0.0030
3850.00,0.0030
3849.00,0.0030
3848.00,0.0030
3847.00,0.0029
3846.00,0.0029
3845.00,0.0029
3844.00,0.0029
3843.00,0.0029
3842.00,0.0029
3841.00,0.0029
3840.00,0.0029
3839.00,0.0029
3838.00,0.0029
3837.00,0.0029
3836.00,0.0028
3835.00,0.0028
3834.00,0.0028
3833.00,0.0028
3832.00,0.0029
3831.00,0.0029
3830.00,0.0030
3829.00,0.0029
3828.00,0.0029
3827.00,0.0028
3826.00,0.0028
3825.00,0.0028
3824.00,0.0029
3823.00,0.0029
3822.00,0.0029
3821.00,0.0029
3820.00,0.0029
3819.00,0.0029
3818.00,0.0029
3817.00,0.0029
3816.00,0.0028
3815.00,0.0028
3814.00,0.0028
3813.00,0.0028
3812.00,0.0028
3811.00,0.0028
3810.00,0.0027
3809.00,0.0027
3808.00,0.0028
3807.00,0.0028
3806.00,0.0029
3805.00,0.0029
3804.00,0.0029
3803.00,0.0028
3802.00,0.0027
3801.00,0.0027
3800.00,0.0027
3799.00,0.0027
3798.00,0.0027
3797.00,0.0026
3796.00,0.0026
3795.00,0.0027
3794.00,0.0027
3793.00,0.0027
3792.00,0.0027
3791.00,0.0026
3790.00,0.0026
3789.00,0.0027
3788.00,0.0027
3787.00,0.0027
3786.00,0.0026
3785.00,0.0026
3784.00,0.0026
3783.00,0.0026
3782.00,0.0027
3781.00,0.0026
3780.00,0.0026
3779.00,0.0026
3778.00,0.0026
3777.00,0.0026
3776.00,0.0026
3775.00,0.0027
3774.00,0.0027
3773.00,0.0027
3772.00,0.0027
3771.00,0.0027
3770.00,0.0027
3769.00,0.0027
3768.00,0.0027
3767.00,0.0027
3766.00,0.0027
3765.00,0.0027
3764.00,0.0028
3763.00,0.0028
3762.00,0.0028
3761.00,0.0028
3760.00,0.0028
3759.00,0.0027
3758.00,0.0028
3757.00,0.0028
3756.00,0.0029
3755.00,0.0029
3754.00,0.0030
3753.00,0.0031
3752.00,0.0033
3751.00,0.0034
3750.00,0.0034
3749.00,0.0033
3748.00,0.0032
3747.00,0.0031
3746.00,0.0030
3745.00,0.0030
3744.00,0.0031
3743.00,0.0031
3742.00,0.0031
3741.00,0.0032
3740.00,0.0032
3739.00,0.0032
3738.00,0.0033
3737.00,0.0033
3736.00,0.0032
3735.00,0.0031
3734.00,0.0031
3733.00,0.0031
3732.00,0.0031
3731.00,0.0031
3730.00,0.0030
3729.00,0.0030
3728.00,0.0030
3727.00,0.0030
3726.00,0.0030
3725.00,0.0029
3724.00,0.0028
3723.00,0.0027
3722.00,0.0027
3721.00,0.0026
3720.00,0.0026
3719.00,0.0026
3718.00,0.0027
3717.00,0.0027
3716.00,0.0028
3715.00,0.0029
3714.00,0.0029
3713.00,0.0029
3712.00,0.0029
3711.00,0.0028
3710.00,0.0028
3709.00,0.0028
3708.00,0.0029
3707.00,0.0028
3706.00,0.0028
3705.00,0.0027
3704.00,0.0027
3703.00,0.0026
3702.00,0.0026
3701.00,0.0027
3700.00,0.0028
3699.00,0.0029
3698.00,0.0029
3697.00,0.0029
3696.00,0.0029
3695.00,0.0028
3694.00,0.0029
3693.00,0.0029
3692.00,0.0028
3691.00,0.0028
3690.00,0.0028
3689.00,0.0028
3688.00,0.0029
3687.00,0.0030
3686.00,0.0030
3685.00,0.0031
3684.00,0.0031
3683.00,0.0031
3682.00,0.0031
3681.00,0.0031
3680.00,0.0030
3679.00,0.0030
3678.00,0.0031
3677.00,0.0031
3676.00,0.0032
3675.00,0.0032
3674.00,0.0033
3673.00,0.0034
3672.00,0.0035
3671.00,0.0034
3670.00,0.0033
3669.00,0.0032
3668.00,0.0032
3667.00,0.0033
3666.00,0.0033
3665.00,0.0033
3664.00,0.0033
3663.00,0.0033
3662.00,0.0033
3661.00,0.0033
3660.00,0.0034
3659.00,0.0034
3658.00,0.0035
3657.00,0.0035
3656.00,0.0035
3655.00,0.0035
3654.00,0.0035
3653.00,0.0035
3652.00,0.0036
3651.00,0.0037
3650.00,0.0039
3649.00,0.0039
3648.00,0.0038
3647.00,0.0038
3646.00,0.0039
3645.00,0.0039
3644.00,0.0039
3643.00,0.0039
3642.00,0.0039
3641.00,0.0039
3640.00,0.0039
3639.00,0.0038
3638.00,0.0038
3637.00,0.0038
3636.00,0.0038
3635.00,0.0038
3634.00,0.0039
3633.00,0.0039
3632.00,0.0040
3631.00,0.0042
3630.00,0.0043
3629.00,0.0043
3628.00,0.0043
3627.00,0.0043
3626.00,0.0043
3625.00,0.0042
3624.00,0.0042
3623.00,0.0042
3622.00,0.0042
3621.00,0.0043
3620.00,0.0043
3619.00,0.0043
3618.00,0.0044
3617.00,0.0044
3616.00,0.0044
3615.00,0.0044
3614.00,0.0045
3613.00,0.0045
3612.00,0.0047
3611.00,0.0048
3610.00,0.0048
3609.00,0.0048
3608.00,0.0046
3607.00,0.0045
3606.00,0.0045
3605.00,0.0045
3604.00,0.0045
3603.00,0.0045
3602.00,0.0045
3601.00,0.0044
3600.00,0.0044
3599.00,0.0043
3598.00,0.0043
3597.00,0.0043
3596.00,0.0044
3595.00,0.0044
3594.00,0.0045
3593.00,0.0046
3592.00,0.0047
3591.00,0.0048
3590.00,0.0047
3589.00,0.0046
3588.00,0.0046
3587.00,0.0045
3586.00,0.0046
3585.00,0.0047
3584.00,0.0047
3583.00,0.0047
3582.00,0.0046
3581.00,0.0046
3580.00,0.0047
3579.00,0.0047
3578.00,0.0047
3577.00,0.0047
3576.00,0.0047
3575.00,0.0047
3574.00,0.0047
3573.00,0.0048
3572.00,0.0048
3571.00,0.0048
3570.00,0.0048
3569.00,0.0049
3568.00,0.0049
3567.00,0.0050
3566.00,0.0050
3565.00,0.0050
3564.00,0.0050
3563.00,0.0050
3562.00,0.0049
3561.00,0.0049
3560.00,0.0048
3559.00,0.0048
3558.00,0.0049
3557.00,0.0049
3556.00,0.0049
3555.00,0.0049
3554.00,0.0050
3553.00,0.0050
3552.00,0.0050
3551.00,0.0051
3550.00,0.0052
3549.00,0.0052
3548.00,0.0053
3547.00,0.0053
3546.00,0.0053
3545.00,0.0053
3544.00,0.0052
3543.00,0.0052
3542.00,0.0051
3541.00,0.0051
3540.00,0.0051
3539.00,0.0051
3538.00,0.0051
3537.00,0.0052
3536.00,0.0052
3535.00,0.0053
3534.00,0.0053
3533.00,0.0053
3532.00,0.0053
3531.00,0.0053
3530.00,0.0053
3529.00,0.0053
3528.00,0.0054
3527.00,0.0055
3526.00,0.0055
3525.00,0.0055
3524.00,0.0054
3523.00,0.0054
3522.00,0.0054
3521.00,0.0054
3520.00,0.0054
3519.00,0.0054
3518.00,0.0054
3517.00,0.0054
3516.00,0.0054
3515.00,0.0054
3514.00,0.0054
3513.00,0.0054
3512.00,0.0054
3511.00,0.0054
3510.00,0.0054
3509.00,0.0055
3508.00,0.0056
3507.00,0.0056
3506.00,0.0055
3505.00,0.0055
3504.00,0.0055
3503.00,0.0056
3502.00,0.0056
3501.00,0.0056
3500.00,0.0056
3499.00,0.0056
3498.00,0.0056
3497.00,0.0057
3496.00,0.0057
3495.00,0.0057
3494.00,0.0057
3493.00,0.0057
3492.00,0.0057
3491.00,0.0057
3490.00,0.0057
3489.00,0.0058
3488.00,0.0057
3487.00,0.0057
3486.00,0.0057
3485.00,0.0057
3484.00,0.0057
3483.00,0.0057
3482.00,0.0057
3481.00,0.0058
3480.00,0.0058
3479.00,0.0059
3478.00,0.0059
3477.00,0.0059
3476.00,0.0059
3475.00,0.0059
3474.00,0.0059
3473.00,0.0059
3472.00,0.0058
3471.00,0.0058
3470.00,0.0058
3469.00,0.0058
3468.00,0.0059
3467.00,0.0059
3466.00,0.0059
3465.00,0.0059
3464.00,0.0059
3463.00,0.0060
3462.00,0.0060
3461.00,0.0060
3460.00,0.0060
3459.00,0.0059
3458.00,0.0059
3457.00,0.0059
3456.00,0.0059
3455.00,0.0059
3454.00,0.0060
3453.00,0.0060
3452.00,0.0060
3451.00,0.0061
3450.00,0.0061
3449.00,0.0061
3448.00,0.0062
3447.00,0.0062
3446.00,0.0062
3445.00,0.0062
3444.00,0.0062
3443.00,0.0062
3442.00,0.0062
3441.00,0.0062
3440.00,0.0061
3439.00,0.0061
3438.00,0.0062
3437.00,0.0062
3436.00,0.0063
3435.00,0.0063
3434.00,0.0063
3433.00,0.0063
3432.00,0.0063
3431.00,0.0063
3430.00,0.0063
3429.00,0.0063
3428.00,0.0062
3427.00,0.0062
3426.00,0.0063
3425.00,0.0063
3424.00,0.0063
3423.00,0.0063
3422.00,0.0063
3421.00,0.0063
3420.00,0.0063
3419.00,0.0063
3418.00,0.0063
3417.00,0.0063
3416.00,0.0063
3415.00,0.0063
3414.00,0.0063
3413.00,0.0063
3412.00,0.0062
3411.00,0.0062
3410.00,0.0062
3409.00,0.0062
3408.00,0.0062
3407.00,0.0062
3406.00,0.0063
3405.00,0.0063
3404.00,0.0063
3403.00,0.0063
3402.00,0.0063
3401.00,0.0064
3400.00,0.0064
3399.00,0.0064
3398.00,0.0064
3397.00,0.0064
3396.00,0.0064
3395.00,0.0064
3394.00,0.0064
3393.00,0.0064
3392.00,0.0064
3391.00,0.0064
3390.00,0.0064
3389.00,0.0063
3388.00,0.0063
3387.00,0.0063
3386.00,0.0063
3385.00,0.0063
3384.00,0.0063
3383.00,0.0063
3382.00,0.0063
3381.00,0.0063
3380.00,0.0063
3379.00,0.0063
3378.00,0.0064
3377.00,0.0064
3376.00,0.0064
3375.00,0.0064
3374.00,0.0064
3373.00,0.0064
3372.00,0.0063
3371.00,0.0063
3370.00,0.0063
3369.00,0.0063
3368.00,0.0063
3367.00,0.0063
3366.00,0.0064
3365.00,0.0065
3364.00,0.0065
3363.00,0.0065
3362.00,0.0065
3361.00,0.0065
3360.00,0.0065
3359.00,0.0065
3358.00,0.0065
3357.00,0.0065
3356.00,0.0065
3355.00,0.0065
3354.00,0.0065
3353.00,0.0065
3352.00,0.0065
3351.00,0.0065
3350.00,0.0065
3349.00,0.0065
3348.00,0.0065
3347.00,0.0065
3346.00,0.0064
3345.00,0.0064
3344.00,0.0064
3343.00,0.0064
3342.00,0.0064
3341.00,0.0064
3340.00,0.0064
3339.00,0.0064
3338.00,0.0064
3337.00,0.0064
3336.00,0.0064
3335.00,0.0064
3334.00,0.0064
3333.00,0.0064
3332.00,0.0064
3331.00,0.0064
3330.00,0.0064
3329.00,0.0064
3328.00,0.0064
3327.00,0.0064
3326.00,0.0064
3325.00,0.0064
3324.00,0.0064
3323.00,0.0064
3322.00,0.0064
3321.00,0.0064
3320.00,0.0064
3319.00,0.0064
3318.00,0.0064
3317.00,0.0064
3316.00,0.0064
3315.00,0.0064
3314.00,0.0064
3313.00,0.0064
3312.00,0.0064
3311.00,0.0064
3310.00,0.0064
3309.00,0.0064
3308.00,0.0064
3307.00,0.0064
3306.00,0.0063
3305.00,0.0063
3304.00,0.0064
3303.00,0.0064
3302.00,0.0064
3301.00,0.0064
3300.00,0.0064
3299.00,0.0064
3298.00,0.0064
3297.00,0.0064
3296.00,0.0064
3295.00,0.0064
3294.00,0.0064
3293.00,0.0064
3292.00,0.0064
3291.00,0.0064
3290.00,0.0064
3289.00,0.0063
3288.00,0.0063
3287.00,0.0063
3286.00,0.0063
3285.00,0.0063
3284.00,0.0063
3283.00,0.0063
3282.00,0.0063
3281.00,0.0063
3280.00,0.0063
3279.00,0.0063
3278.00,0.0063
3277.00,0.0063
3276.00,0.0063
3275.00,0.0063
3274.00,0.0063
3273.00,0.0063
3272.00,0.0063
3271.00,0.0063
3270.00,0.0063
3269.00,0.0063
3268.00,0.0063
3267.00,0.0063
3266.00,0.0063
3265.00,0.0063
3264.00,0.0062
3263.00,0.0062
3262.00,0.0062
3261.00,0.0062
3260.00,0.0062
3259.00,0.0062
3258.00,0.0062
3257.00,0.0062
3256.00,0.0062
3255.00,0.0063
3254.00,0.0063
3253.00,0.0063
3252.00,0.0063
3251.00,0.0062
3250.00,0.0063
3249.00,0.0063
3248.00,0.0063
3247.00,0.0064
3246.00,0.0064
3245.00,0.0063
3244.00,0.0063
3243.00,0.0063
3242.00,0.0063
3241.00,0.0063
3240.00,0.0063
3239.00,0.0063
3238.00,0.0063
3237.00,0.0063
3236.00,0.0063
3235.00,0.0063
3234.00,0.0063
3233.00,0.0062
3232.00,0.0062
3231.00,0.0062
3230.00,0.0062
3229.00,0.0062
3228.00,0.0062
3227.00,0.0062
3226.00,0.0062
3225.00,0.0062
3224.00,0.0062
3223.00,0.0062
3222.00,0.0062
3221.00,0.0062
3220.00,0.0062
3219.00,0.0062
3218.00,0.0062
3217.00,0.0062
3216.00,0.0061
3215.00,0.0061
3214.00,0.0061
3213.00,0.0061
3212.00,0.0061
3211.00,0.0061
3210.00,0.0061
3209.00,0.0061
3208.00,0.0061
3207.00,0.0061
3206.00,0.0061
3205.00,0.0062
3204.00,0.0062
3203.00,0.0061
3202.00,0.0061
3201.00,0.0061
3200.00,0.0061
3199.00,0.0061
3198.00,0.0061
3197.00,0.0061
3196.00,0.0061
3195.00,0.0061
3194.00,0.0061
3193.00,0.0060
3192.00,0.0060
3191.00,0.0061
3190.00,0.0061
3189.00,0.0061
3188.00,0.0061
3187.00,0.0061
3186.00,0.0061
3185.00,0.0061
3184.00,0.0060
3183.00,0.0060
3182.00,0.0060
3181.00,0.0060
3180.00,0.0060
3179.00,0.0060
3178.00,0.0059
3177.00,0.0059
3176.00,0.0059
3175.00,0.0059
3174.00,0.0059
3173.00,0.0060
3172.00,0.0060
3171.00,0.0060
3170.00,0.0060
3169.00,0.0059
3168.00,0.0059
3167.00,0.0059
3166.00,0.0059
3165.00,0.0059
3164.00,0.0059
3163.00,0.0059
3162.00,0.0059
3161.00,0.0059
3160.00,0.0059
3159.00,0.0059
3158.00,0.0059
3157.00,0.0059
3156.00,0.0059
3155.00,0.0058
3154.00,0.0058
3153.00,0.0058
3152.00,0.0057
3151.00,0.0057
3150.00,0.0057
3149.00,0.0057
3148.00,0.0058
3147.00,0.0058
3146.00,0.0058
3145.00,0.0058
3144.00,0.0058
3143.00,0.0058
3142.00,0.0058
3141.00,0.0058
3140.00,0.0058
3139.00,0.0058
3138.00,0.0058
3137.00,0.0058
3136.00,0.0058
3135.00,0.0058
3134.00,0.0058
3133.00,0.0058
3132.00,0.0058
3131.00,0.0057
3130.00,0.0057
3129.00,0.0057
3128.00,0.0057
3127.00,0.0057
3126.00,0.0057
3125.00,0.0057
3124.00,0.0057
3123.00,0.0057
3122.00,0.0057
3121.00,0.0057
3120.00,0.0057
3119.00,0.0057
3118.00,0.0057
3117.00,0.0057
3116.00,0.0057
3115.00,0.0057
3114.00,0.0056
3113.00,0.0056
3112.00,0.0056
3111.00,0.0056
3110.00,0.0056
3109.00,0.0055
3108.00,0.0055
3107.00,0.0055
3106.00,0.0056
3105.00,0.0056
3104.00,0.0056
3103.00,0.0055
3102.00,0.0056
3101.00,0.0056
3100.00,0.0055
3099.00,0.0055
3098.00,0.0055
3097.00,0.0054
3096.00,0.0054
3095.00,0.0054
3094.00,0.0055
3093.00,0.0055
3092.00,0.0055
3091.00,0.0055
3090.00,0.0056
3089.00,0.0056
3088.00,0.0056
3087.00,0.0056
3086.00,0.0056
3085.00,0.0056
3084.00,0.0055
3083.00,0.0055
3082.00,0.0055
3081.00,0.0055
3080.00,0.0055
3079.00,0.0055
3078.00,0.0055
3077.00,0.0055
3076.00,0.0055
3075.00,0.0055
3074.00,0.0054
3073.00,0.0054
3072.00,0.0054
3071.00,0.0054
3070.00,0.0054
3069.00,0.0054
3068.00,0.0054
3067.00,0.0054
3066.00,0.0054
3065.00,0.0054
3064.00,0.0054
3063.00,0.0054
3062.00,0.0054
3061.00,0.0054
3060.00,0.0054
3059.00,0.0053
3058.00,0.0053
3057.00,0.0053
3056.00,0.0053
3055.00,0.0053
3054.00,0.0053
3053.00,0.0053
3052.00,0.0053
3051.00,0.0053
3050.00,0.0053
3049.00,0.0053
3048.00,0.0053
3047.00,0.0053
3046.00,0.0053
3045.00,0.0053
3044.00,0.0053
3043.00,0.0053
3042.00,0.0052
3041.00,0.0052
3040.00,0.0052
3039.00,0.0052
3038.00,0.0053
3037.00,0.0053
3036.00,0.0053
3035.00,0.0052
3034.00,0.0052
3033.00,0.0052
3032.00,0.0052
3031.00,0.0052
3030.00,0.0052
3029.00,0.0052
3028.00,0.0052
3027.00,0.0052
3026.00,0.0051
3025.00,0.0051
3024.00,0.0052
3023.00,0.0052
3022.00,0.0052
3021.00,0.0051
3020.00,0.0051
3019.00,0.0051
3018.00,0.0051
3017.00,0.0051
3016.00,0.0051
3015.00,0.0051
3014.00,0.0052
3013.00,0.0052
3012.00,0.0052
3011.00,0.0052
3010.00,0.0052
3009.00,0.0051
3008.00,0.0051
3007.00,0.0051
3006.00,0.0052
3005.00,0.0052
3004.00,0.0052
3003.00,0.0053
3002.00,0.0053
3001.00,0.0054
3000.00,0.0054
2999.00,0.0054
2998.00,0.0054
2997.00,0.0053
2996.00,0.0053
2995.00,0.0053
2994.00,0.0053
2993.00,0.0054
2992.00,0.0054
2991.00,0.0054
2990.00,0.0053
2989.00,0.0053
2988.00,0.0053
2987.00,0.0054
2986.00,0.0054
2985.00,0.0055
2984.00,0.0055
2983.00,0.0055
2982.00,0.0055
2981.00,0.0054
2980.00,0.0054
2979.00,0.0054
2978.00,0.0053
2977.00,0.0053
2976.00,0.0053
2975.00,0.0053
2974.00,0.0053
2973.00,0.0053
2972.00,0.0052
2971.00,0.0052
2970.00,0.0051
2969.00,0.0051
2968.00,0.0050
2967.00,0.0049
2966.00,0.0049
2965.00,0.0048
2964.00,0.0048
2963.00,0.0047
2962.00,0.0047
2961.00,0.0046
2960.00,0.0046
2959.00,0.0045
2958.00,0.0045
2957.00,0.0045
2956.00,0.0045
2955.00,0.0045
2954.00,0.0045
2953.00,0.0045
2952.00,0.0045
2951.00,0.0045
2950.00,0.0045
2949.00,0.0045
2948.00,0.0045
2947.00,0.0044
2946.00,0.0044
2945.00,0.0044
2944.00,0.0045
2943.00,0.0045
2942.00,0.0044
2941.00,0.0044
2940.00,0.0043
2939.00,0.0042
2938.00,0.0042
2937.00,0.0041
2936.00,0.0040
2935.00,0.0040
2934.00,0.0039
2933.00,0.0038
2932.00,0.0037
2931.00,0.0035
2930.00,0.0034
2929.00,0.0033
2928.00,0.0032
2927.00,0.0031
2926.00,0.0031
2925.00,0.0031
2924.00,0.0031
2923.00,0.0031
2922.00,0.0031
2921.00,0.0030
2920.00,0.0030
2919.00,0.0030
2918.00,0.0030
2917.00,0.0030
2916.00,0.0031
2915.00,0.0032
2914.00,0.0034
2913.00,0.0036
2912.00,0.0037
2911.00,0.0038
2910.00,0.0039
2909.00,0.0040
2908.00,0.0040
2907.00,0.0041
2906.00,0.0041
2905.00,0.0042
2904.00,0.0042
2903.00,0.0042
2902.00,0.0043
2901.00,0.0043
2900.00,0.0044
2899.00,0.0044
2898.00,0.0044
2897.00,0.0044
2896.00,0.0044
2895.00,0.0044
2894.00,0.0044
2893.00,0.0044
2892.00,0.0044
2891.00,0.0045
2890.00,0.0045
2889.00,0.0045
2888.00,0.0045
2887.00,0.0045
2886.00,0.0045
2885.00,0.0045
2884.00,0.0045
2883.00,0.0045
2882.00,0.0044
2881.00,0.0044
2880.00,0.0043
2879.00,0.0043
2878.00,0.0043
2877.00,0.0043
2876.00,0.0043
2875.00,0.0043
2874.00,0.0042
2873.00,0.0042
2872.00,0.0042
2871.00,0.0042
2870.00,0.0042
2869.00,0.0041
2868.00,0.0041
2867.00,0.0041
2866.00,0.0041
2865.00,0.0040
2864.00,0.0040
2863.00,0.0040
2862.00,0.0040
2861.00,0.0039
2860.00,0.0038
2859.00,0.0037
2858.00,0.0036
2857.00,0.0035
2856.00,0.0035
2855.00,0.0034
2854.00,0.0034
2853.00,0.0034
2852.00,0.0034
2851.00,0.0034
2850.00,0.0034
2849.00,0.0035
2848.00,0.0035
2847.00,0.0036
2846.00,0.0037
2845.00,0.0038
2844.00,0.0039
2843.00,0.0039
2842.00,0.0040
2841.00,0.0040
2840.00,0.0041
2839.00,0.0041
2838.00,0.0041
2837.00,0.0041
2836.00,0.0041
2835.00,0.0041
2834.00,0.0041
2833.00,0.0041
2832.00,0.0041
2831.00,0.0041
2830.00,0.0041
2829.00,0.0041
2828.00,0.0041
2827.00,0.0041
2826.00,0.0040
2825.00,0.0040
2824.00,0.0040
2823.00,0.0040
2822.00,0.0041
2821.00,0.0041
2820.00,0.0041
2819.00,0.0041
2818.00,0.0041
2817.00,0.0041
2816.00,0.0041
2815.00,0.0041
2814.00,0.0041
2813.00,0.0041
2812.00,0.0041
2811.00,0.0041
2810.00,0.0041
2809.00,0.0041
2808.00,0.0040
2807.00,0.0040
2806.00,0.0040
2805.00,0.0039
2804.00,0.0039
2803.00,0.0039
2802.00,0.0040
2801.00,0.0040
2800.00,0.0040
2799.00,0.0040
2798.00,0.0040
2797.00,0.0039
2796.00,0.0039
2795.00,0.0039
2794.00,0.0039
2793.00,0.0039
2792.00,0.0039
2791.00,0.0039
2790.00,0.0039
2789.00,0.0039
2788.00,0.0039
2787.00,0.0039
2786.00,0.0039
2785.00,0.0038
2784.00,0.0038
2783.00,0.0038
2782.00,0.0038
2781.00,0.0038
2780.00,0.0038
2779.00,0.0038
2778.00,0.0038
2777.00,0.0037
2776.00,0.0037
2775.00,0.0037
2774.00,0.0037
2773.00,0.0037
2772.00,0.0038
2771.00,0.0038
2770.00,0.0038
2769.00,0.0037
2768.00,0.0037
2767.00,0.0037
2766.00,0.0037
2765.00,0.0037
2764.00,0.0037
2763.00,0.0037
2762.00,0.0037
2761.00,0.0037
2760.00,0.0037
2759.00,0.0036
2758.00,0.0036
2757.00,0.0036
2756.00,0.0037
2755.00,0.0037
2754.00,0.0037
2753.00,0.0037
2752.00,0.0036
2751.00,0.0036
2750.00,0.0036
2749.00,0.0036
2748.00,0.0036
2747.00,0.0036
2746.00,0.0036
2745.00,0.0035
2744.00,0.0035
2743.00,0.0035
2742.00,0.0035
2741.00,0.0035
2740.00,0.0035
2739.00,0.0035
2738.00,0.0035
2737.00,0.0035
2736.00,0.0035
2735.00,0.0035
2734.00,0.0034
2733.00,0.0034
2732.00,0.0034
2731.00,0.0034
2730.00,0.0035
2729.00,0.0035
2728.00,0.0035
2727.00,0.0034
2726.00,0.0034
2725.00,0.0034
2724.00,0.0034
2723.00,0.0034
2722.00,0.0035
2721.00,0.0035
2720.00,0.0035
2719.00,0.0035
2718.00,0.0034
2717.00,0.0034
2716.00,0.0034
2715.00,0.0034
2714.00,0.0034
2713.00,0.0034
2712.00,0.0034
2711.00,0.0034
2710.00,0.0034
2709.00,0.0034
2708.00,0.0034
2707.00,0.0033
2706.00,0.0033
2705.00,0.0033
2704.00,0.0033
2703.00,0.0032
2702.00,0.0032
2701.00,0.0032
2700.00,0.0033
2699.00,0.0033
2698.00,0.0033
2697.00,0.0033
2696.00,0.0033
2695.00,0.0033
2694.00,0.0033
2693.00,0.0033
2692.00,0.0033
2691.00,0.0033
2690.00,0.0032
2689.00,0.0032
2688.00,0.0032
2687.00,0.0032
2686.00,0.0032
2685.00,0.0032
2684.00,0.0032
2683.00,0.0032
2682.00,0.0032
2681.00,0.0032
2680.00,0.0032
2679.00,0.0032
2678.00,0.0032
2677.00,0.0032
2676.00,0.0032
2675.00,0.0032
2674.00,0.0032
2673.00,0.0032
2672.00,0.0031
2671.00,0.0031
2670.00,0.0031
2669.00,0.0031
2668.00,0.0032
2667.00,0.0032
2666.00,0.0032
2665.00,0.0032
2664.00,0.0032
2663.00,0.0032
2662.00,0.0032
2661.00,0.0032
2660.00,0.0032
2659.00,0.0032
2658.00,0.0032
2657.00,0.0032
2656.00,0.0032
2655.00,0.0033
2654.00,0.0033
2653.00,0.0033
2652.00,0.0033
2651.00,0.0033
2650.00,0.0032
2649.00,0.0032
2648.00,0.0032
2647.00,0.0031
2646.00,0.0031
2645.00,0.0032
2644.00,0.0032
2643.00,0.0032
2642.00,0.0032
2641.00,0.0032
2640.00,0.0032
2639.00,0.0031
2638.00,0.0031
2637.00,0.0031
2636.00,0.0031
2635.00,0.0031
2634.00,0.0031
2633.00,0.0031
2632.00,0.0031
2631.00,0.0031
2630.00,0.0031
2629.00,0.0031
2628.00,0.0031
2627.00,0.0031
2626.00,0.0031
2625.00,0.0031
2624.00,0.0031
2623.00,0.0030
2622.00,0.0030
2621.00,0.0030
2620.00,0.0030
2619.00,0.0031
2618.00,0.0031
2617.00,0.0031
2616.00,0.0030
2615.00,0.0030
2614.00,0.0030
2613.00,0.0031
2612.00,0.0031
2611.00,0.0030
2610.00,0.0030
2609.00,0.0030
2608.00,0.0031
2607.00,0.0031
2606.00,0.0031
2605.00,0.0031
2604.00,0.0031
2603.00,0.0031
2602.00,0.0031
2601.00,0.0031
2600.00,0.0030
2599.00,0.0030
2598.00,0.0030
2597.00,0.0030
2596.00,0.0030
2595.00,0.0029
2594.00,0.0030
2593.00,0.0030
2592.00,0.0030
2591.00,0.0031
2590.00,0.0031
2589.00,0.0031
2588.00,0.0030
2587.00,0.0030
2586.00,0.0030
2585.00,0.0030
2584.00,0.0030
2583.00,0.0030
2582.00,0.0030
2581.00,0.0030
2580.00,0.0030
2579.00,0.0031
2578.00,0.0030
2577.00,0.0030
2576.00,0.0030
2575.00,0.0030
2574.00,0.0029
2573.00,0.0029
2572.00,0.0029
2571.00,0.0029
2570.00,0.0029
2569.00,0.0030
2568.00,0.0030
2567.00,0.0030
2566.00,0.0030
2565.00,0.0030
2564.00,0.0030
2563.00,0.0029
2562.00,0.0029
2561.00,0.0028
2560.00,0.0028
2559.00,0.0028
2558.00,0.0028
2557.00,0.0028
2556.00,0.0029
2555.00,0.0029
2554.00,0.0030
2553.00,0.0030
2552.00,0.0030
2551.00,0.0030
2550.00,0.0030
2549.00,0.0029
2548.00,0.0029
2547.00,0.0029
2546.00,0.0029
2545.00,0.0029
2544.00,0.0029
2543.00,0.0029
2542.00,0.0029
2541.00,0.0029
2540.00,0.0029
2539.00,0.0029
2538.00,0.0029
2537.00,0.0029
2536.00,0.0028
2535.00,0.0028
2534.00,0.0028
2533.00,0.0028
2532.00,0.0028
2531.00,0.0027
2530.00,0.0028
2529.00,0.0028
2528.00,0.0028
2527.00,0.0028
2526.00,0.0028
2525.00,0.0028
2524.00,0.0028
2523.00,0.0028
2522.00,0.0028
2521.00,0.0028
2520.00,0.0028
2519.00,0.0028
2518.00,0.0028
2517.00,0.0028
2516.00,0.0028
2515.00,0.0028
2514.00,0.0028
2513.00,0.0028
2512.00,0.0028
2511.00,0.0027
2510.00,0.0027
2509.00,0.0027
2508.00,0.0027
2507.00,0.0027
2506.00,0.0027
2505.00,0.0027
2504.00,0.0027
2503.00,0.0027
2502.00,0.0027
2501.00,0.0027
2500.00,0.0027
2499.00,0.0027
2498.00,0.0027
2497.00,0.0027
2496.00,0.0028
2495.00,0.0028
2494.00,0.0028
2493.00,0.0028
2492.00,0.0028
2491.00,0.0028
2490.00,0.0028
2489.00,0.0027
2488.00,0.0027
2487.00,0.0028
2486.00,0.0028
2485.00,0.0027
2484.00,0.0027
2483.00,0.0027
2482.00,0.0027
2481.00,0.0027
2480.00,0.0027
2479.00,0.0027
2478.00,0.0028
2477.00,0.0028
2476.00,0.0027
2475.00,0.0027
2474.00,0.0027
2473.00,0.0027
2472.00,0.0027
2471.00,0.0027
2470.00,0.0027
2469.00,0.0027
2468.00,0.0027
2467.00,0.0027
2466.00,0.0027
2465.00,0.0027
2464.00,0.0027
2463.00,0.0028
2462.00,0.0028
2461.00,0.0028
2460.00,0.0029
2459.00,0.0029
2458.00,0.0028
2457.00,0.0028
2456.00,0.0027
2455.00,0.0027
2454.00,0.0027
2453.00,0.0027
2452.00,0.0028
2451.00,0.0028
2450.00,0.0028
2449.00,0.0028
2448.00,0.0028
2447.00,0.0028
2446.00,0.0028
2445.00,0.0027
2444.00,0.0027
2443.00,0.0027
2442.00,0.0027
2441.00,0.0026
2440.00,0.0026
2439.00,0.0026
2438.00,0.0026
2437.00,0.0026
2436.00,0.0026
2435.00,0.0026
2434.00,0.0026
2433.00,0.0026
2432.00,0.0026
2431.00,0.0026
2430.00,0.0025
2429.00,0.0025
2428.00,0.0026
2427.00,0.0026
2426.00,0.0026
2425.00,0.0026
2424.00,0.0026
2423.00,0.0026
2422.00,0.0026
2421.00,0.0026
2420.00,0.0026
2419.00,0.0026
2418.00,0.0026
2417.00,0.0026
2416.00,0.0025
2415.00,0.0025
2414.00,0.0026
2413.00,0.0026
2412.00,0.0026
2411.00,0.0025
2410.00,0.0025
2409.00,0.0025
2408.00,0.0026
2407.00,0.0026
2406.00,0.0026
2405.00,0.0026
2404.00,0.0026
2403.00,0.0026
2402.00,0.0026
2401.00,0.0025
2400.00,0.0025
2399.00,0.0025
2398.00,0.0025
2397.00,0.0025
2396.00,0.0025
2395.00,0.0025
2394.00,0.0025
2393.00,0.0025
2392.00,0.0025
2391.00,0.0025
2390.00,0.0025
2389.00,0.0024
2388.00,0.0024
2387.00,0.0024
2386.00,0.0024
2385.00,0.0024
2384.00,0.0024
2383.00,0.0024
2382.00,0.0024
2381.00,0.0023
2380.00,0.0022
2379.00,0.0021
2378.00,0.0020
2377.00,0.0019
2376.00,0.0019
2375.00,0.0019
2374.00,0.0019
2373.00,0.0020
2372.00,0.0020
2371.00,0.0021
2370.00,0.0021
2369.00,0.0021
2368.00,0.0021
2367.00,0.0021
2366.00,0.0021
2365.00,0.0021
2364.00,0.0020
2363.00,0.0019
2362.00,0.0020
2361.00,0.0020
2360.00,0.0021
2359.00,0.0021
2358.00,0.0020
2357.00,0.0020
2356.00,0.0020
2355.00,0.0019
2354.00,0.0019
2353.00,0.0019
2352.00,0.0018
2351.00,0.0019
2350.00,0.0019
2349.00,0.0020
2348.00,0.0020
2347.00,0.0020
2346.00,0.0020
2345.00,0.0020
2344.00,0.0020
2343.00,0.0020
2342.00,0.0020
2341.00,0.0019
2340.00,0.0019
2339.00,0.0019
2338.00,0.0019
2337.00,0.0019
2336.00,0.0019
2335.00,0.0019
2334.00,0.0019
2333.00,0.0019
2332.00,0.0019
2331.00,0.0019
2330.00,0.0019
2329.00,0.0020
2328.00,0.0022
2327.00,0.0024
2326.00,0.0025
2325.00,0.0025
2324.00,0.0024
2323.00,0.0023
2322.00,0.0022
2321.00,0.0021
2320.00,0.0022
2319.00,0.0022
2318.00,0.0023
2317.00,0.0024
2316.00,0.0024
2315.00,0.0024
2314.00,0.0023
2313.00,0.0023
2312.00,0.0022
2311.00,0.0023
2310.00,0.0023
2309.00,0.0023
2308.00,0.0023
2307.00,0.0023
2306.00,0.0023
2305.00,0.0023
2304.00,0.0023
2303.00,0.0024
2302.00,0.0024
2301.00,0.0024
2300.00,0.0023
2299.00,0.0023
2298.00,0.0023
2297.00,0.0023
2296.00,0.0023
2295.00,0.0024
2294.00,0.0024
2293.00,0.0024
2292.00,0.0025
2291.00,0.0025
2290.00,0.0025
2289.00,0.0025
2288.00,0.0025
2287.00,0.0025
2286.00,0.0025
2285.00,0.0025
2284.00,0.0025
2283.00,0.0025
2282.00,0.0025
2281.00,0.0025
2280.00,0.0025
2279.00,0.0024
2278.00,0.0023
2277.00,0.0022
2276.00,0.0022
2275.00,0.0023
2274.00,0.0023
2273.00,0.0023
2272.00,0.0023
2271.00,0.0023
2270.00,0.0023
2269.00,0.0023
2268.00,0.0022
2267.00,0.0022
2266.00,0.0022
2265.00,0.0023
2264.00,0.0024
2263.00,0.0025
2262.00,0.0025
2261.00,0.0025
2260.00,0.0026
2259.00,0.0025
2258.00,0.0024
2257.00,0.0023
2256.00,0.0022
2255.00,0.0022
2254.00,0.0022
2253.00,0.0023
2252.00,0.0023
2251.00,0.0023
2250.00,0.0022
2249.00,0.0021
2248.00,0.0022
2247.00,0.0022
2246.00,0.0022
2245.00,0.0023
2244.00,0.0023
2243.00,0.0024
2242.00,0.0024
2241.00,0.0023
2240.00,0.0023
2239.00,0.0023
2238.00,0.0023
2237.00,0.0023
2236.00,0.0023
2235.00,0.0024
2234.00,0.0024
2233.00,0.0024
2232.00,0.0023
2231.00,0.0023
2230.00,0.0023
2229.00,0.0023
2228.00,0.0023
2227.00,0.0023
2226.00,0.0022
2225.00,0.0021
2224.00,0.0022
2223.00,0.0022
2222.00,0.0023
2221.00,0.0023
2220.00,0.0023
2219.00,0.0024
2218.00,0.0023
2217.00,0.0023
2216.00,0.0023
2215.00,0.0023
2214.00,0.0024
2213.00,0.0024
2212.00,0.0023
2211.00,0.0023
2210.00,0.0022
2209.00,0.0022
2208.00,0.0021
2207.00,0.0021
2206.00,0.0020
2205.00,0.0019
2204.00,0.0020
2203.00,0.0022
2202.00,0.0023
2201.00,0.0024
2200.00,0.0025
2199.00,0.0025
2198.00,0.0026
2197.00,0.0025
2196.00,0.0024
2195.00,0.0024
2194.00,0.0023
2193.00,0.0023
2192.00,0.0022
2191.00,0.0020
2190.00,0.0020
2189.00,0.0021
2188.00,0.0023
2187.00,0.0025
2186.00,0.0026
2185.00,0.0026
2184.00,0.0024
2183.00,0.0023
2182.00,0.0022
2181.00,0.0022
2180.00,0.0023
2179.00,0.0023
2178.00,0.0022
2177.00,0.0021
2176.00,0.0020
2175.00,0.0021
2174.00,0.0022
2173.00,0.0023
2172.00,0.0024
2171.00,0.0024
2170.00,0.0025
2169.00,0.0026
2168.00,0.0025
2167.00,0.0024
2166.00,0.0024
2165.00,0.0024
2164.00,0.0025
2163.00,0.0025
2162.00,0.0023
2161.00,0.0019
2160.00,0.0016
2159.00,0.0014
2158.00,0.0015
2157.00,0.0017
2156.00,0.0018
2155.00,0.0018
2154.00,0.0018
2153.00,0.0018
2152.00,0.0018
2151.00,0.0018
2150.00,0.0018
2149.00,0.0017
2148.00,0.0016
2147.00,0.0016
2146.00,0.0016
2145.00,0.0016
2144.00,0.0017
2143.00,0.0018
2142.00,0.0018
2141.00,0.0018
2140.00,0.0018
2139.00,0.0018
2138.00,0.0017
2137.00,0.0016
2136.00,0.0014
2135.00,0.0012
2134.00,0.0012
2133.00,0.0012
2132.00,0.0014
2131.00,0.0015
2130.00,0.0016
2129.00,0.0016
2128.00,0.0016
2127.00,0.0016
2126.00,0.0016
2125.00,0.0016
2124.00,0.0016
2123.00,0.0016
2122.00,0.0016
2121.00,0.0016
2120.00,0.0017
2119.00,0.0018
2118.00,0.0018
2117.00,0.0018
2116.00,0.0018
2115.00,0.0018
2114.00,0.0018
2113.00,0.0018
2112.00,0.0018
2111.00,0.0018
2110.00,0.0018
2109.00,0.0018
2108.00,0.0017
2107.00,0.0017
2106.00,0.0017
2105.00,0.0017
2104.00,0.0017
2103.00,0.0017
2102.00,0.0018
2101.00,0.0018
2100.00,0.0017
2099.00,0.0017
2098.00,0.0016
2097.00,0.0016
2096.00,0.0015
2095.00,0.0015
2094.00,0.0015
2093.00,0.0015
2092.00,0.0016
2091.00,0.0016
2090.00,0.0016
2089.00,0.0016
2088.00,0.0015
2087.00,0.0014
2086.00,0.0013
2085.00,0.0014
2084.00,0.0014
2083.00,0.0015
2082.00,0.0015
2081.00,0.0014
2080.00,0.0014
2079.00,0.0015
2078.00,0.0015
2077.00,0.0016
2076.00,0.0016
2075.00,0.0016
2074.00,0.0016
2073.00,0.0016
2072.00,0.0015
2071.00,0.0015
2070.00,0.0015
2069.00,0.0015
2068.00,0.0014
2067.00,0.0013
2066.00,0.0012
2065.00,0.0012
2064.00,0.0012
2063.00,0.0012
2062.00,0.0012
2061.00,0.0013
2060.00,0.0014
2059.00,0.0014
2058.00,0.0014
2057.00,0.0014
2056.00,0.0014
2055.00,0.0014
2054.00,0.0015
2053.00,0.0015
2052.00,0.0016
2051.00,0.0016
2050.00,0.0016
2049.00,0.0016
2048.00,0.0016
2047.00,0.0016
2046.00,0.0017
2045.00,0.0017
2044.00,0.0017
2043.00,0.0016
2042.00,0.0015
2041.00,0.0015
2040.00,0.0017
2039.00,0.0019
2038.00,0.0021
2037.00,0.0023
2036.00,0.0023
2035.00,0.0022
2034.00,0.0021
2033.00,0.0021
2032.00,0.0020
2031.00,0.0019
2030.00,0.0019
2029.00,0.0019
2028.00,0.0019
2027.00,0.0018
2026.00,0.0017
2025.00,0.0015
2024.00,0.0014
2023.00,0.0014
2022.00,0.0014
2021.00,0.0015
2020.00,0.0015
2019.00,0.0015
2018.00,0.0015
2017.00,0.0014
2016.00,0.0014
2015.00,0.0015
2014.00,0.0016
2013.00,0.0017
2012.00,0.0017
2011.00,0.0017
2010.00,0.0017
2009.00,0.0017
2008.00,0.0017
2007.00,0.0017
2006.00,0.0017
2005.00,0.0016
2004.00,0.0015
2003.00,0.0015
2002.00,0.0015
2001.00,0.0015
2000.00,0.0015
1999.00,0.0015
1998.00,0.0016
1997.00,0.0017
1996.00,0.0017
1995.00,0.0017
1994.00,0.0017
1993.00,0.0017
1992.00,0.0017
1991.00,0.0017
1990.00,0.0018
1989.00,0.0018
1988.00,0.0017
1987.00,0.0017
1986.00,0.0017
1985.00,0.0017
1984.00,0.0018
1983.00,0.0019
1982.00,0.0018
1981.00,0.0018
1980.00,0.0017
1979.00,0.0016
1978.00,0.0015
1977.00,0.0014
1976.00,0.0014
1975.00,0.0013
1974.00,0.0012
1973.00,0.0012
1972.00,0.0013
1971.00,0.0014
1970.00,0.0014
1969.00,0.0013
1968.00,0.0013
1967.00,0.0013
1966.00,0.0013
1965.00,0.0013
1964.00,0.0013
1963.00,0.0013
1962.00,0.0013
1961.00,0.0013
1960.00,0.0012
1959.00,0.0012
1958.00,0.0011
1957.00,0.0011
1956.00,0.0010
1955.00,0.0011
1954.00,0.0011
1953.00,0.0010
1952.00,0.0010
1951.00,0.0009
1950.00,0.0009
1949.00,0.0010
1948.00,0.0010
1947.00,0.0011
1946.00,0.0012
1945.00,0.0012
1944.00,0.0012
1943.00,0.0011
1942.00,0.0011
1941.00,0.0010
1940.00,0.0009
1939.00,0.0008
1938.00,0.0008
1937.00,0.0008
1936.00,0.0009
1935.00,0.0010
1934.00,0.0011
1933.00,0.0011
1932.00,0.0011
1931.00,0.0010
1930.00,0.0010
1929.00,0.0009
1928.00,0.0009
1927.00,0.0009
1926.00,0.0009
1925.00,0.0010
1924.00,0.0009
1923.00,0.0009
1922.00,0.0009
1921.00,0.0010
1920.00,0.0010
1919.00,0.0010
1918.00,0.0010
1917.00,0.0009
1916.00,0.0008
1915.00,0.0008
1914.00,0.0009
1913.00,0.0009
1912.00,0.0009
1911.00,0.0009
1910.00,0.0009
1909.00,0.0008
1908.00,0.0008
1907.00,0.0007
1906.00,0.0007
1905.00,0.0007
1904.00,0.0007
1903.00,0.0007
1902.00,0.0007
1901.00,0.0007
1900.00,0.0008
1899.00,0.0008
1898.00,0.0008
1897.00,0.0008
1896.00,0.0008
1895.00,0.0007
1894.00,0.0006
1893.00,0.0006
1892.00,0.0007
1891.00,0.0006
1890.00,0.0006
1889.00,0.0005
1888.00,0.0005
1887.00,0.0005
1886.00,0.0006
1885.00,0.0006
1884.00,0.0006
1883.00,0.0006
1882.00,0.0006
1881.00,0.0006
1880.00,0.0006
1879.00,0.0006
1878.00,0.0007
1877.00,0.0007
1876.00,0.0007
1875.00,0.0007
1874.00,0.0007
1873.00,0.0007
1872.00,0.0007
1871.00,0.0007
1870.00,0.0008
1869.00,0.0007
1868.00,0.0005
1867.00,0.0004
1866.00,0.0005
1865.00,0.0005
1864.00,0.0006
1863.00,0.0006
1862.00,0.0006
1861.00,0.0005
1860.00,0.0005
1859.00,0.0005
1858.00,0.0005
1857.00,0.0005
1856.00,0.0005
1855.00,0.0005
1854.00,0.0005
1853.00,0.0004
1852.00,0.0004
1851.00,0.0005
1850.00,0.0005
1849.00,0.0005
1848.00,0.0006
1847.00,0.0006
1846.00,0.0006
1845.00,0.0006
1844.00,0.0005
1843.00,0.0004
1842.00,0.0003
1841.00,0.0003
1840.00,0.0004
1839.00,0.0004
1838.00,0.0004
1837.00,0.0004
1836.00,0.0004
1835.00,0.0004
1834.00,0.0004
1833.00,0.0004
1832.00,0.0005
1831.00,0.0004
1830.00,0.0003
1829.00,0.0003
1828.00,0.0002
1827.00,0.0002
1826.00,0.0002
1825.00,0.0002
1824.00,0.0002
1823.00,0.0002
1822.00,0.0002
1821.00,0.0003
1820.00,0.0003
1819.00,0.0003
1818.00,0.0003
1817.00,0.0002
1816.00,0.0002
1815.00,0.0002
1814.00,0.0002
1813.00,0.0002
1812.00,0.0002
1811.00,0.0002
1810.00,0.0002
1809.00,0.0002
1808.00,0.0002
1807.00,0.0002
1806.00,0.0003
1805.00,0.0003
1804.00,0.0003
1803.00,0.0003
1802.00,0.0002
1801.00,0.0003
1800.00,0.0003
1799.00,0.0003
1798.00,0.0004
1797.00,0.0005
1796.00,0.0005
1795.00,0.0005
1794.00,0.0006
1793.00,0.0006
1792.00,0.0004
1791.00,0.0003
1790.00,0.0003
1789.00,0.0003
1788.00,0.0004
1787.00,0.0004
1786.00,0.0005
1785.00,0.0005
1784.00,0.0005
1783.00,0.0004
1782.00,0.0004
1781.00,0.0004
1780.00,0.0004
1779.00,0.0004
1778.00,0.0005
1777.00,0.0006
1776.00,0.0007
1775.00,0.0008
1774.00,0.0009
1773.00,0.0009
1772.00,0.0008
1771.00,0.0007
1770.00,0.0008
1769.00,0.0008
1768.00,0.0009
1767.00,0.0009
1766.00,0.0009
1765.00,0.0009
1764.00,0.0009
1763.00,0.0009
1762.00,0.0009
1761.00,0.0009
1760.00,0.0009
1759.00,0.0009
1758.00,0.0009
1757.00,0.0009
1756.00,0.0009
1755.00,0.0010
1754.00,0.0010
1753.00,0.0012
1752.00,0.0013
1751.00,0.0013
1750.00,0.0013
1749.00,0.0012
1748.00,0.0011
1747.00,0.0011
1746.00,0.0012
1745.00,0.0012
1744.00,0.0012
1743.00,0.0012
1742.00,0.0013
1741.00,0.0015
1740.00,0.0016
1739.00,0.0017
1738.00,0.0018
1737.00,0.0020
1736.00,0.0022
1735.00,0.0025
1734.00,0.0026
1733.00,0.0024
1732.00,0.0023
1731.00,0.0022
1730.00,0.0021
1729.00,0.0022
1728.00,0.0023
1727.00,0.0024
1726.00,0.0025
1725.00,0.0026
1724.00,0.0026
1723.00,0.0027
1722.00,0.0027
1721.00,0.0026
1720.00,0.0026
1719.00,0.0026
1718.00,0.0028
1717.00,0.0029
1716.00,0.0029
1715.00,0.0028
1714.00,0.0028
1713.00,0.0028
1712.00,0.0029
1711.00,0.0030
1710.00,0.0030
1709.00,0.0031
1708.00,0.0031
1707.00,0.0031
1706.00,0.0031
1705.00,0.0031
1704.00,0.0031
1703.00,0.0032
1702.00,0.0034
1701.00,0.0037
1700.00,0.0038
1699.00,0.0038
1698.00,0.0037
1697.00,0.0036
1696.00,0.0035
1695.00,0.0035
1694.00,0.0035
1693.00,0.0036
1692.00,0.0036
1691.00,0.0036
1690.00,0.0037
1689.00,0.0037
1688.00,0.0037
1687.00,0.0037
1686.00,0.0037
1685.00,0.0036
1684.00,0.0035
1683.00,0.0035
1682.00,0.0037
1681.00,0.0038
1680.00,0.0038
1679.00,0.0039
1678.00,0.0040
1677.00,0.0041
1676.00,0.0042
1675.00,0.0043
1674.00,0.0043
1673.00,0.0043
1672.00,0.0043
1671.00,0.0043
1670.00,0.0044
1669.00,0.0043
1668.00,0.0043
1667.00,0.0043
1666.00,0.0044
1665.00,0.0045
1664.00,0.0046
1663.00,0.0047
1662.00,0.0048
1661.00,0.0048
1660.00,0.0048
1659.00,0.0049
1658.00,0.0048
1657.00,0.0048
1656.00,0.0048
1655.00,0.0048
1654.00,0.0049
1653.00,0.0050
1652.00,0.0051
1651.00,0.0051
1650.00,0.0051
1649.00,0.0051
1648.00,0.0053
1647.00,0.0055
1646.00,0.0056
1645.00,0.0056
1644.00,0.0057
1643.00,0.0057
1642.00,0.0057
1641.00,0.0057
1640.00,0.0057
1639.00,0.0057
1638.00,0.0058
1637.00,0.0058
1636.00,0.0058
1635.00,0.0058
1634.00,0.0059
1633.00,0.0060
1632.00,0.0060
1631.00,0.0061
1630.00,0.0061
1629.00,0.0061
1628.00,0.0061
1627.00,0.0061
1626.00,0.0062
1625.00,0.0063
1624.00,0.0064
1623.00,0.0064
1622.00,0.0064
1621.00,0.0064
1620.00,0.0064
1619.00,0.0064
1618.00,0.0065
1617.00,0.0066
1616.00,0.0066
1615.00,0.0066
1614.00,0.0066
1613.00,0.0066
1612.00,0.0067
1611.00,0.0067
1610.00,0.0067
1609.00,0.0067
1608.00,0.0068
1607.00,0.0068
1606.00,0.0068
1605.00,0.0068
1604.00,0.0068
1603.00,0.0068
1602.00,0.0068
1601.00,0.0067
1600.00,0.0067
1599.00,0.0067
1598.00,0.0068
1597.00,0.0068
1596.00,0.0068
1595.00,0.0068
1594.00,0.0068
1593.00,0.0068
1592.00,0.0068
1591.00,0.0068
1590.00,0.0068
1589.00,0.0068
1588.00,0.0068
1587.00,0.0069
1586.00,0.0068
1585.00,0.0068
1584.00,0.0067
1583.00,0.0067
1582.00,0.0067
1581.00,0.0067
1580.00,0.0066
1579.00,0.0066
1578.00,0.0066
1577.00,0.0067
1576.00,0.0068
1575.00,0.0068
1574.00,0.0067
1573.00,0.0066
1572.00,0.0066
1571.00,0.0066
1570.00,0.0066
1569.00,0.0066
1568.00,0.0066
1567.00,0.0066
1566.00,0.0066
1565.00,0.0066
1564.00,0.0066
1563.00,0.0065
1562.00,0.0063
1561.00,0.0061
1560.00,0.0061
1559.00,0.0065
1558.00,0.0066
1557.00,0.0067
1556.00,0.0067
1555.00,0.0067
1554.00,0.0066
1553.00,0.0064
1552.00,0.0062
1551.00,0.0061
1550.00,0.0061
1549.00,0.0061
1548.00,0.0061
1547.00,0.0061
1546.00,0.0061
1545.00,0.0061
1544.00,0.0062
1543.00,0.0062
1542.00,0.0062
1541.00,0.0061
1540.00,0.0055
1539.00,0.0051
1538.00,0.0051
1537.00,0.0052
1536.00,0.0053
1535.00,0.0054
1534.00,0.0054
1533.00,0.0053
1532.00,0.0053
1531.00,0.0053
1530.00,0.0053
1529.00,0.0054
1528.00,0.0054
1527.00,0.0055
1526.00,0.0056
1525.00,0.0056
1524.00,0.0056
1523.00,0.0055
1522.00,0.0055
1521.00,0.0053
1520.00,0.0052
1519.00,0.0051
1518.00,0.0050
1517.00,0.0050
1516.00,0.0050
1515.00,0.0051
1514.00,0.0051
1513.00,0.0052
1512.00,0.0052
1511.00,0.0050
1510.00,0.0049
1509.00,0.0049
1508.00,0.0049
1507.00,0.0048
1506.00,0.0046
1505.00,0.0047
1504.00,0.0048
1503.00,0.0048
1502.00,0.0048
1501.00,0.0048
1500.00,0.0048
1499.00,0.0047
1498.00,0.0047
1497.00,0.0047
1496.00,0.0047
1495.00,0.0046
1494.00,0.0047
1493.00,0.0047
1492.00,0.0048
1491.00,0.0048
1490.00,0.0047
1489.00,0.0046
1488.00,0.0044
1487.00,0.0043
1486.00,0.0043
1485.00,0.0044
1484.00,0.0044
1483.00,0.0044
1482.00,0.0044
1481.00,0.0044
1480.00,0.0044
1479.00,0.0044
1478.00,0.0044
1477.00,0.0044
1476.00,0.0045
1475.00,0.0048
1474.00,0.0050
1473.00,0.0051
1472.00,0.0049
1471.00,0.0046
1470.00,0.0045
1469.00,0.0044
1468.00,0.0044
1467.00,0.0044
1466.00,0.0045
1465.00,0.0045
1464.00,0.0046
1463.00,0.0045
1462.00,0.0045
1461.00,0.0045
1460.00,0.0045
1459.00,0.0046
1458.00,0.0049
1457.00,0.0051
1456.00,0.0050
1455.00,0.0049
1454.00,0.0047
1453.00,0.0047
1452.00,0.0047
1451.00,0.0047
1450.00,0.0048
1449.00,0.0048
1448.00,0.0048
1447.00,0.0048
1446.00,0.0048
1445.00,0.0048
1444.00,0.0048
1443.00,0.0048
1442.00,0.0048
1441.00,0.0048
1440.00,0.0049
1439.00,0.0050
1438.00,0.0050
1437.00,0.0051
1436.00,0.0051
1435.00,0.0050
1434.00,0.0050
1433.00,0.0050
1432.00,0.0050
1431.00,0.0051
1430.00,0.0051
1429.00,0.0051
1428.00,0.0051
1427.00,0.0051
1426.00,0.0051
1425.00,0.0051
1424.00,0.0051
1423.00,0.0051
1422.00,0.0051
1421.00,0.0051
1420.00,0.0051
1419.00,0.0051
1418.00,0.0051
1417.00,0.0052
1416.00,0.0053
1415.00,0.0053
1414.00,0.0053
1413.00,0.0053
1412.00,0.0053
1411.00,0.0053
1410.00,0.0053
1409.00,0.0053
1408.00,0.0053
1407.00,0.0053
1406.00,0.0053
1405.00,0.0053
1404.00,0.0054
1403.00,0.0054
1402.00,0.0055
1401.00,0.0055
1400.00,0.0055
1399.00,0.0056
1398.00,0.0056
1397.00,0.0056
1396.00,0.0057
1395.00,0.0057
1394.00,0.0057
1393.00,0.0057
1392.00,0.0058
1391.00,0.0058
1390.00,0.0058
1389.00,0.0058
1388.00,0.0058
1387.00,0.0058
1386.00,0.0058
1385.00,0.0057
1384.00,0.0058
1383.00,0.0058
1382.00,0.0059
1381.00,0.0059
1380.00,0.0059
1379.00,0.0058
1378.00,0.0058
1377.00,0.0057
1376.00,0.0057
1375.00,0.0058
1374.00,0.0058
1373.00,0.0058
1372.00,0.0058
1371.00,0.0058
1370.00,0.0058
1369.00,0.0058
1368.00,0.0057
1367.00,0.0057
1366.00,0.0057
1365.00,0.0056
1364.00,0.0056
1363.00,0.0056
1362.00,0.0056
1361.00,0.0056
1360.00,0.0056
1359.00,0.0056
1358.00,0.0056
1357.00,0.0055
1356.00,0.0055
1355.00,0.0055
1354.00,0.0054
1353.00,0.0054
1352.00,0.0054
1351.00,0.0054
1350.00,0.0054
1349.00,0.0054
1348.00,0.0054
1347.00,0.0054
1346.00,0.0054
1345.00,0.0053
1344.00,0.0053
1343.00,0.0053
1342.00,0.0053
1341.00,0.0053
1340.00,0.0053
1339.00,0.0053
1338.00,0.0052
1337.00,0.0052
1336.00,0.0052
1335.00,0.0052
1334.00,0.0052
1333.00,0.0052
1332.00,0.0051
1331.00,0.0051
1330.00,0.0051
1329.00,0.0051
1328.00,0.0051
1327.00,0.0051
1326.00,0.0051
1325.00,0.0051
1324.00,0.0051
1323.00,0.0051
1322.00,0.0052
1321.00,0.0052
1320.00,0.0052
1319.00,0.0052
1318.00,0.0052
1317.00,0.0051
1316.00,0.0051
1315.00,0.0051
1314.00,0.0051
1313.00,0.0051
1312.00,0.0051
1311.00,0.0052
1310.00,0.0052
1309.00,0.0051
1308.00,0.0051
1307.00,0.0051
1306.00,0.0051
1305.00,0.0051
1304.00,0.0051
1303.00,0.0052
1302.00,0.0052
1301.00,0.0052
1300.00,0.0051
1299.00,0.0051
1298.00,0.0051
1297.00,0.0052
1296.00,0.0052
1295.00,0.0053
1294.00,0.0053
1293.00,0.0053
1292.00,0.0053
1291.00,0.0054
1290.00,0.0054
1289.00,0.0053
1288.00,0.0053
1287.00,0.0053
1286.00,0.0053
1285.00,0.0053
1284.00,0.0053
1283.00,0.0053
1282.00,0.0053
1281.00,0.0054
1280.00,0.0054
1279.00,0.0054
1278.00,0.0054
1277.00,0.0054
1276.00,0.0054
1275.00,0.0054
1274.00,0.0054
1273.00,0.0055
1272.00,0.0055
1271.00,0.0055
1270.00,0.0055
1269.00,0.0055
1268.00,0.0055
1267.00,0.0055
1266.00,0.0056
1265.00,0.0056
1264.00,0.0056
1263.00,0.0056
1262.00,0.0056
1261.00,0.0056
1260.00,0.0056
1259.00,0.0057
1258.00,0.0057
1257.00,0.0058
1256.00,0.0058
1255.00,0.0059
1254.00,0.0059
1253.00,0.0058
1252.00,0.0059
1251.00,0.0059
1250.00,0.0059
1249.00,0.0059
1248.00,0.0060
1247.00,0.0061
1246.00,0.0061
1245.00,0.0061
1244.00,0.0062
1243.00,0.0062
1242.00,0.0063
1241.00,0.0063
1240.00,0.0064
1239.00,0.0064
1238.00,0.0065
1237.00,0.0065
1236.00,0.0065
1235.00,0.0066
1234.00,0.0066
1233.00,0.0067
1232.00,0.0067
1231.00,0.0068
1230.00,0.0069
1229.00,0.0070
1228.00,0.0070
1227.00,0.0070
1226.00,0.0071
1225.00,0.0071
1224.00,0.0072
1223.00,0.0073
1222.00,0.0073
1221.00,0.0074
1220.00,0.0074
1219.00,0.0074
1218.00,0.0074
1217.00,0.0074
1216.00,0.0074
1215.00,0.0075
1214.00,0.0075
1213.00,0.0076
1212.00,0.0076
1211.00,0.0076
1210.00,0.0076
1209.00,0.0077
1208.00,0.0077
1207.00,0.0078
1206.00,0.0079
1205.00,0.0079
1204.00,0.0080
1203.00,0.0080
1202.00,0.0080
1201.00,0.0080
1200.00,0.0081
1199.00,0.0082
1198.00,0.0082
1197.00,0.0082
1196.00,0.0083
1195.00,0.0083
1194.00,0.0083
1193.00,0.0083
1192.00,0.0083
1191.00,0.0083
1190.00,0.0083
1189.00,0.0083
1188.00,0.0083
1187.00,0.0083
1186.00,0.0084
1185.00,0.0085
1184.00,0.0086
1183.00,0.0087
1182.00,0.0088
1181.00,0.0088
1180.00,0.0089
1179.00,0.0089
1178.00,0.0090
1177.00,0.0091
1176.00,0.0092
1175.00,0.0092
1174.00,0.0092
1173.00,0.0091
1172.00,0.0091
1171.00,0.0091
1170.00,0.0091
1169.00,0.0092
1168.00,0.0092
1167.00,0.0093
1166.00,0.0094
1165.00,0.0094
1164.00,0.0095
1163.00,0.0095
1162.00,0.0096
1161.00,0.0096
1160.00,0.0096
1159.00,0.0096
1158.00,0.0096
1157.00,0.0097
1156.00,0.0098
1155.00,0.0098
1154.00,0.0097
1153.00,0.0097
1152.00,0.0097
1151.00,0.0098
1150.00,0.0098
1149.00,0.0098
1148.00,0.0098
1147.00,0.0098
1146.00,0.0099
1145.00,0.0099
1144.00,0.0100
1143.00,0.0100
1142.00,0.0100
1141.00,0.0100
1140.00,0.0100
1139.00,0.0101
1138.00,0.0102
1137.00,0.0102
1136.00,0.0103
1135.00,0.0103
1134.00,0.0103
1133.00,0.0103
1132.00,0.0102
1131.00,0.0102
1130.00,0.0102
1129.00,0.0102
1128.00,0.0103
1127.00,0.0103
1126.00,0.0104
1125.00,0.0105
1124.00,0.0106
1123.00,0.0107
1122.00,0.0107
1121.00,0.0108
1120.00,0.0109
1119.00,0.0109
1118.00,0.0110
1117.00,0.0110
1116.00,0.0110
1115.00,0.0110
1114.00,0.0110
1113.00,0.0110
1112.00,0.0112
1111.00,0.0113
1110.00,0.0114
1109.00,0.0115
1108.00,0.0115
1107.00,0.0116
1106.00,0.0116
1105.00,0.0116
1104.00,0.0117
1103.00,0.0117
1102.00,0.0119
1101.00,0.0120
1100.00,0.0121
1099.00,0.0121
1098.00,0.0122
1097.00,0.0123
1096.00,0.0124
1095.00,0.0124
1094.00,0.0125
1093.00,0.0125
1092.00,0.0126
1091.00,0.0127
1090.00,0.0128
1089.00,0.0129
1088.00,0.0130
1087.00,0.0131
1086.00,0.0131
1085.00,0.0132
1084.00,0.0133
1083.00,0.0134
1082.00,0.0134
1081.00,0.0134
1080.00,0.0134
1079.00,0.0135
1078.00,0.0137
1077.00,0.0138
1076.00,0.0139
1075.00,0.0140
1074.00,0.0140
1073.00,0.0140
1072.00,0.0141
1071.00,0.0141
1070.00,0.0141
1069.00,0.0142
1068.00,0.0144
1067.00,0.0144
1066.00,0.0145
1065.00,0.0145
1064.00,0.0146
1063.00,0.0146
1062.00,0.0146
1061.00,0.0147
1060.00,0.0147
1059.00,0.0147
1058.00,0.0147
1057.00,0.0147
1056.00,0.0148
1055.00,0.0148
1054.00,0.0148
1053.00,0.0148
1052.00,0.0149
1051.00,0.0150
1050.00,0.0152
1049.00,0.0152
1048.00,0.0153
1047.00,0.0152
1046.00,0.0151
1045.00,0.0151
1044.00,0.0151
1043.00,0.0151
1042.00,0.0151
1041.00,0.0151
1040.00,0.0151
1039.00,0.0151
1038.00,0.0152
1037.00,0.0153
1036.00,0.0154
1035.00,0.0155
1034.00,0.0155
1033.00,0.0154
1032.00,0.0154
1031.00,0.0154
1030.00,0.0154
1029.00,0.0155
1028.00,0.0155
1027.00,0.0154
1026.00,0.0153
1025.00,0.0152
1024.00,0.0151
1023.00,0.0151
1022.00,0.0151
1021.00,0.0152
1020.00,0.0152
1019.00,0.0152
1018.00,0.0151
1017.00,0.0151
1016.00,0.0151
1015.00,0.0151
1014.00,0.0151
1013.00,0.0151
1012.00,0.0151
1011.00,0.0150
1010.00,0.0150
1009.00,0.0150
1008.00,0.0149
1007.00,0.0148
1006.00,0.0147
1005.00,0.0146
1004.00,0.0145
1003.00,0.0144
1002.00,0.0144
1001.00,0.0144
1000.00,0.0144
999.00,0.0143
998.00,0.0143
997.00,0.0142
996.00,0.0141
995.00,0.0141
994.00,0.0140
993.00,0.0139
992.00,0.0138
991.00,0.0137
990.00,0.0136
989.00,0.0135
988.00,0.0134
987.00,0.0134
986.00,0.0134
985.00,0.0134
984.00,0.0133
983.00,0.0132
982.00,0.0131
981.00,0.0131
980.00,0.0132
979.00,0.0131
978.00,0.0130
977.00,0.0129
976.00,0.0128
975.00,0.0126
974.00,0.0126
973.00,0.0125
972.00,0.0124
971.00,0.0124
970.00,0.0123
969.00,0.0123
968.00,0.0123
967.00,0.0123
966.00,0.0122
965.00,0.0122
964.00,0.0121
963.00,0.0120
962.00,0.0120
961.00,0.0119
960.00,0.0119
959.00,0.0118
958.00,0.0118
957.00,0.0117
956.00,0.0117
955.00,0.0116
954.00,0.0116
953.00,0.0115
952.00,0.0115
951.00,0.0115
950.00,0.0115
949.00,0.0116
948.00,0.0116
947.00,0.0115
946.00,0.0114
945.00,0.0113
944.00,0.0113
943.00,0.0113
942.00,0.0113
941.00,0.0113
940.00,0.0113
939.00,0.0113
938.00,0.0112
937.00,0.0112
936.00,0.0112
935.00,0.0112
934.00,0.0112
933.00,0.0111
932.00,0.0111
931.00,0.0111
930.00,0.0110
929.00,0.0109
928.00,0.0108
927.00,0.0108
926.00,0.0109
925.00,0.0109
924.00,0.0109
923.00,0.0108
922.00,0.0108
921.00,0.0108
920.00,0.0108
919.00,0.0109
918.00,0.0110
917.00,0.0112
916.00,0.0113
915.00,0.0114
914.00,0.0112
913.00,0.0111
912.00,0.0110
911.00,0.0109
910.00,0.0109
909.00,0.0109
908.00,0.0109
907.00,0.0110
906.00,0.0110
905.00,0.0110
904.00,0.0109
903.00,0.0109
902.00,0.0108
901.00,0.0107
900.00,0.0107
899.00,0.0106
898.00,0.0106
897.00,0.0106
896.00,0.0106
895.00,0.0105
894.00,0.0105
893.00,0.0104
892.00,0.0104
891.00,0.0104
890.00,0.0104
889.00,0.0104
888.00,0.0104
887.00,0.0104
886.00,0.0104
885.00,0.0103
884.00,0.0102
883.00,0.0101
882.00,0.0100
881.00,0.0100
880.00,0.0101
879.00,0.0102
878.00,0.0102
877.00,0.0101
876.00,0.0099
875.00,0.0099
874.00,0.0098
873.00,0.0099
872.00,0.0099
871.00,0.0099
870.00,0.0100
869.00,0.0100
868.00,0.0100
867.00,0.0099
866.00,0.0098
865.00,0.0097
864.00,0.0097
863.00,0.0097
862.00,0.0098
861.00,0.0098
860.00,0.0098
859.00,0.0097
858.00,0.0096
857.00,0.0095
856.00,0.0094
855.00,0.0094
854.00,0.0093
853.00,0.0093
852.00,0.0092
851.00,0.0092
850.00,0.0092
849.00,0.0093
848.00,0.0092
847.00,0.0092
846.00,0.0092
845.00,0.0092
844.00,0.0093
843.00,0.0093
842.00,0.0093
841.00,0.0094
840.00,0.0095
839.00,0.0096
838.00,0.0096
837.00,0.0095
836.00,0.0094
835.00,0.0093
834.00,0.0093
833.00,0.0092
832.00,0.0093
831.00,0.0095
830.00,0.0097
829.00,0.0098
828.00,0.0098
827.00,0.0098
826.00,0.0096
825.00,0.0096
824.00,0.0096
823.00,0.0098
822.00,0.0099
821.00,0.0101
820.00,0.0103
819.00,0.0104
818.00,0.0104
817.00,0.0104
816.00,0.0102
815.00,0.0101
814.00,0.0101
813.00,0.0102
812.00,0.0103
811.00,0.0102
810.00,0.0101
809.00,0.0100
808.00,0.0100
807.00,0.0102
806.00,0.0104
805.00,0.0106
804.00,0.0108
803.00,0.0109
802.00,0.0109
801.00,0.0109
800.00,0.0109
799.00,0.0109
798.00,0.0110
797.00,0.0110
796.00,0.0110
795.00,0.0109
794.00,0.0108
793.00,0.0107
792.00,0.0108
791.00,0.0109
790.00,0.0110
789.00,0.0110
788.00,0.0110
787.00,0.0109
786.00,0.0109
785.00,0.0108
784.00,0.0107
783.00,0.0107
782.00,0.0108
781.00,0.0110
780.00,0.0112
779.00,0.0114
778.00,0.0115
777.00,0.0114
776.00,0.0113
775.00,0.0112
774.00,0.0112
773.00,0.0113
772.00,0.0113
771.00,0.0112
770.00,0.0112
769.00,0.0112
768.00,0.0114
767.00,0.0115
766.00,0.0116
765.00,0.0115
764.00,0.0114
763.00,0.0112
762.00,0.0111
761.00,0.0112
760.00,0.0114
759.00,0.0115
758.00,0.0117
757.00,0.0117
756.00,0.0117
755.00,0.0116
754.00,0.0114
753.00,0.0111
752.00,0.0110
751.00,0.0109
750.00,0.0109
749.00,0.0110
748.00,0.0112
747.00,0.0113
746.00,0.0114
745.00,0.0115
744.00,0.0115
743.00,0.0115
742.00,0.0114
741.00,0.0114
740.00,0.0113
739.00,0.0113
738.00,0.0114
737.00,0.0114
736.00,0.0113
735.00,0.0112
734.00,0.0111
733.00,0.0112
732.00,0.0115
731.00,0.0118
730.00,0.0120
729.00,0.0120
728.00,0.0120
727.00,0.0119
726.00,0.0118
725.00,0.0116
724.00,0.0115
723.00,0.0115
722.00,0.0115
721.00,0.0116
720.00,0.0116
719.00,0.0117
718.00,0.0118
717.00,0.0118
716.00,0.0118
715.00,0.0118
714.00,0.0117
713.00,0.0118
712.00,0.0120
711.00,0.0121
710.00,0.0121
709.00,0.0122
708.00,0.0123
707.00,0.0123
706.00,0.0122
705.00,0.0122
704.00,0.0122
703.00,0.0122
702.00,0.0123
701.00,0.0123
700.00,0.0123
699.00,0.0123
698.00,0.0122
697.00,0.0122
696.00,0.0122
695.00,0.0123
694.00,0.0124
693.00,0.0124
692.00,0.0125
691.00,0.0125
690.00,0.0124
689.00,0.0124
688.00,0.0125
687.00,0.0129
686.00,0.0133
685.00,0.0136
684.00,0.0135
683.00,0.0131
682.00,0.0126
681.00,0.0123
680.00,0.0123
679.00,0.0126
678.00,0.0127
677.00,0.0129
676.00,0.0130
675.00,0.0132
674.00,0.0133
673.00,0.0133
672.00,0.0133
671.00,0.0132
670.00,0.0131
669.00,0.0128
668.00,0.0124
667.00,0.0124
666.00,0.0127
665.00,0.0129
664.00,0.0130
663.00,0.0132
662.00,0.0134
661.00,0.0135
660.00,0.0136
659.00,0.0135
658.00,0.0133
657.00,0.0138
656.00,0.0138
655.00,0.0141
654.00,0.0145
653.00,0.0148
652.00,0.0148
651.00,0.0146
650.00,0.0142
