Created as New Dataset,Monday, April 03 2023
cm-1,A
4000.00,0.0155
3999.00,0.0155
3998.00,0.0155
3997.00,0.0155
3996.00,0.0154
3995.00,0.0154
3994.00,0.0154
3993.00,0.0154
3992.00,0.0154
3991.00,0.0155
3990.00,0.0155
3989.00,0.0155
3988.00,0.0154
3987.00,0.0154
3986.00,0.0154
3985.00,0.0153
3984.00,0.0153
3983.00,0.0153
3982.00,0.0153
3981.00,0.0153
3980.00,0.0153
3979.00,0.0153
3978.00,0.0153
3977.00,0.0153
3976.00,0.0153
3975.00,0.0153
3974.00,0.0152
3973.00,0.0153
3972.00,0.0153
3971.00,0.0153
3970.00,0.0154
3969.00,0.0154
3968.00,0.0154
3967.00,0.0153
3966.00,0.0152
3965.00,0.0152
3964.00,0.0152
3963.00,0.0153
3962.00,0.0154
3961.00,0.0154
3960.00,0.0153
3959.00,0.0152
3958.00,0.0152
3957.00,0.0152
3956.00,0.0151
3955.00,0.0150
3954.00,0.0150
3953.00,0.0149
3952.00,0.0149
3951.00,0.0150
3950.00,0.0151
3949.00,0.0152
3948.00,0.0152
3947.00,0.0152
3946.00,0.0152
3945.00,0.0151
3944.00,0.0151
3943.00,0.0150
3942.00,0.0149
3941.00,0.0149
3940.00,0.0150
3939.00,0.0150
3938.00,0.0151
3937.00,0.0151
3936.00,0.0151
3935.00,0.0150
3934.00,0.0149
3933.00,0.0149
3932.00,0.0150
3931.00,0.0150
3930.00,0.0150
3929.00,0.0149
3928.00,0.0149
3927.00,0.0149
3926.00,0.0149
3925.00,0.0150
3924.00,0.0150
3923.00,0.0150
3922.00,0.0149
3921.00,0.0149
3920.00,0.0149
3919.00,0.0149
3918.00,0.0150
3917.00,0.0150
3916.00,0.0150
3915.00,0.0150
3914.00,0.0150
3913.00,0.0151
3912.00,0.0151
3911.00,0.0151
3910.00,0.0150
3909.00,0.0149
3908.00,0.0148
3907.00,0.0147
3906.00,0.0145
3905.00,0.0144
3904.00,0.0144
3903.00,0.0144
3902.00,0.0145
3901.00,0.0146
3900.00,0.0147
3899.00,0.0147
3898.00,0.0147
3897.00,0.0147
3896.00,0.0147
3895.00,0.0147
3894.00,0.0147
3893.00,0.0147
3892.00,0.0147
3891.00,0.0146
3890.00,0.0144
3889.00,0.0143
3888.00,0.0143
3887.00,0.0144
3886.00,0.0144
3885.00,0.0144
3884.00,0.0143
3883.00,0.0143
3882.00,0.0144
3881.00,0.0144
3880.00,0.0144
3879.00,0.0144
3878.00,0.0145
3877.00,0.0147
3876.00,0.0148
3875.00,0.0147
3874.00,0.0145
3873.00,0.0143
3872.00,0.0142
3871.00,0.0143
3870.00,0.0144
3869.00,0.0143
3868.00,0.0142
3867.00,0.0142
3866.00,0.0143
3865.00,0.0145
3864.00,0.0146
3863.00,0.0146
3862.00,0.0146
3861.00,0.0146
3860.00,0.0146
3859.00,0.0144
3858.00,0.0142
3857.00,0.0138
3856.00,0.0134
3855.00,0.0134
3854.00,0.0136
3853.00,0.0138
3852.00,0.0138
3851.00,0.0138
3850.00,0.0141
3849.00,0.0143
3848.00,0.0144
3847.00,0.0145
3846.00,0.0145
3845.00,0.0145
3844.00,0.0144
3843.00,0.0143
3842.00,0.0141
3841.00,0.0141
3840.00,0.0141
3839.00,0.0141
3838.00,0.0140
3837.00,0.0139
3836.00,0.0139
3835.00,0.0140
3834.00,0.0141
3833.00,0.0143
3832.00,0.0144
3831.00,0.0144
3830.00,0.0144
3829.00,0.0144
3828.00,0.0144
3827.00,0.0144
3826.00,0.0143
3825.00,0.0142
3824.00,0.0141
3823.00,0.0142
3822.00,0.0143
3821.00,0.0142
3820.00,0.0139
3819.00,0.0137
3818.00,0.0138
3817.00,0.0141
3816.00,0.0143
3815.00,0.0143
3814.00,0.0144
3813.00,0.0145
3812.00,0.0146
3811.00,0.0145
3810.00,0.0143
3809.00,0.0142
3808.00,0.0142
3807.00,0.0142
3806.00,0.0141
3805.00,0.0141
3804.00,0.0141
3803.00,0.0143
3802.00,0.0144
3801.00,0.0144
3800.00,0.0141
3799.00,0.0140
3798.00,0.0141
3797.00,0.0142
3796.00,0.0143
3795.00,0.0143
3794.00,0.0144
3793.00,0.0145
3792.00,0.0147
3791.00,0.0147
3790.00,0.0147
3789.00,0.0147
3788.00,0.0148
3787.00,0.0148
3786.00,0.0148
3785.00,0.0148
3784.00,0.0147
3783.00,0.0146
3782.00,0.0145
3781.00,0.0145
3780.00,0.0145
3779.00,0.0145
3778.00,0.0145
3777.00,0.0145
3776.00,0.0146
3775.00,0.0146
3774.00,0.0146
3773.00,0.0145
3772.00,0.0144
3771.00,0.0143
3770.00,0.0143
3769.00,0.0141
3768.00,0.0141
3767.00,0.0141
3766.00,0.0143
3765.00,0.0144
3764.00,0.0144
3763.00,0.0144
3762.00,0.0144
3761.00,0.0144
3760.00,0.0144
3759.00,0.0143
3758.00,0.0141
3757.00,0.0139
3756.00,0.0138
3755.00,0.0136
3754.00,0.0135
3753.00,0.0133
3752.00,0.0134
3751.00,0.0135
3750.00,0.0135
3749.00,0.0134
3748.00,0.0134
3747.00,0.0135
3746.00,0.0137
3745.00,0.0138
3744.00,0.0137
3743.00,0.0136
3742.00,0.0136
3741.00,0.0139
3740.00,0.0140
3739.00,0.0139
3738.00,0.0138
3737.00,0.0137
3736.00,0.0137
3735.00,0.0136
3734.00,0.0136
3733.00,0.0136
3732.00,0.0137
3731.00,0.0138
3730.00,0.0139
3729.00,0.0140
3728.00,0.0141
3727.00,0.0142
3726.00,0.0142
3725.00,0.0141
3724.00,0.0140
3723.00,0.0140
3722.00,0.0140
3721.00,0.0141
3720.00,0.0142
3719.00,0.0143
3718.00,0.0143
3717.00,0.0143
3716.00,0.0141
3715.00,0.0140
3714.00,0.0140
3713.00,0.0141
3712.00,0.0142
3711.00,0.0142
3710.00,0.0140
3709.00,0.0140
3708.00,0.0141
3707.00,0.0143
3706.00,0.0145
3705.00,0.0146
3704.00,0.0146
3703.00,0.0146
3702.00,0.0146
3701.00,0.0146
3700.00,0.0146
3699.00,0.0147
3698.00,0.0148
3697.00,0.0148
3696.00,0.0147
3695.00,0.0146
3694.00,0.0145
3693.00,0.0144
3692.00,0.0143
3691.00,0.0143
3690.00,0.0145
3689.00,0.0146
3688.00,0.0145
3687.00,0.0145
3686.00,0.0145
3685.00,0.0147
3684.00,0.0148
3683.00,0.0148
3682.00,0.0148
3681.00,0.0146
3680.00,0.0144
3679.00,0.0140
3678.00,0.0138
3677.00,0.0137
3676.00,0.0138
3675.00,0.0137
3674.00,0.0135
3673.00,0.0135
3672.00,0.0138
3671.00,0.0142
3670.00,0.0145
3669.00,0.0146
3668.00,0.0147
3667.00,0.0149
3666.00,0.0151
3665.00,0.0153
3664.00,0.0154
3663.00,0.0154
3662.00,0.0155
3661.00,0.0156
3660.00,0.0156
3659.00,0.0157
3658.00,0.0157
3657.00,0.0158
3656.00,0.0158
3655.00,0.0157
3654.00,0.0156
3653.00,0.0155
3652.00,0.0154
3651.00,0.0153
3650.00,0.0154
3649.00,0.0155
3648.00,0.0155
3647.00,0.0155
3646.00,0.0157
3645.00,0.0159
3644.00,0.0162
3643.00,0.0165
3642.00,0.0166
3641.00,0.0167
3640.00,0.0168
3639.00,0.0168
3638.00,0.0169
3637.00,0.0169
3636.00,0.0169
3635.00,0.0169
3634.00,0.0169
3633.00,0.0167
3632.00,0.0165
3631.00,0.0165
3630.00,0.0167
3629.00,0.0170
3628.00,0.0171
3627.00,0.0170
3626.00,0.0171
3625.00,0.0172
3624.00,0.0173
3623.00,0.0172
3622.00,0.0172
3621.00,0.0172
3620.00,0.0173
3619.00,0.0173
3618.00,0.0172
3617.00,0.0171
3616.00,0.0172
3615.00,0.0173
3614.00,0.0174
3613.00,0.0174
3612.00,0.0174
3611.00,0.0174
3610.00,0.0176
3609.00,0.0178
3608.00,0.0179
3607.00,0.0180
3606.00,0.0179
3605.00,0.0179
3604.00,0.0179
3603.00,0.0179
3602.00,0.0180
3601.00,0.0181
3600.00,0.0182
3599.00,0.0181
3598.00,0.0180
3597.00,0.0179
3596.00,0.0180
3595.00,0.0180
3594.00,0.0180
3593.00,0.0180
3592.00,0.0179
3591.00,0.0179
3590.00,0.0179
3589.00,0.0179
3588.00,0.0181
3587.00,0.0182
3586.00,0.0182
3585.00,0.0183
3584.00,0.0184
3583.00,0.0184
3582.00,0.0185
3581.00,0.0185
3580.00,0.0185
3579.00,0.0185
3578.00,0.0185
3577.00,0.0185
3576.00,0.0186
3575.00,0.0186
3574.00,0.0187
3573.00,0.0187
3572.00,0.0186
3571.00,0.0185
3570.00,0.0183
3569.00,0.0183
3568.00,0.0184
3567.00,0.0185
3566.00,0.0185
3565.00,0.0184
3564.00,0.0184
3563.00,0.0185
3562.00,0.0187
3561.00,0.0189
3560.00,0.0190
3559.00,0.0191
3558.00,0.0191
3557.00,0.0191
3556.00,0.0192
3555.00,0.0193
3554.00,0.0193
3553.00,0.0194
3552.00,0.0194
3551.00,0.0194
3550.00,0.0194
3549.00,0.0194
3548.00,0.0194
3547.00,0.0195
3546.00,0.0195
3545.00,0.0196
3544.00,0.0196
3543.00,0.0196
3542.00,0.0196
3541.00,0.0196
3540.00,0.0196
3539.00,0.0195
3538.00,0.0195
3537.00,0.0195
3536.00,0.0195
3535.00,0.0196
3534.00,0.0197
3533.00,0.0198
3532.00,0.0198
3531.00,0.0198
3530.00,0.0197
3529.00,0.0196
3528.00,0.0195
3527.00,0.0194
3526.00,0.0195
3525.00,0.0197
3524.00,0.0199
3523.00,0.0201
3522.00,0.0201
3521.00,0.0200
3520.00,0.0199
3519.00,0.0198
3518.00,0.0198
3517.00,0.0198
3516.00,0.0198
3515.00,0.0198
3514.00,0.0199
3513.00,0.0200
3512.00,0.0201
3511.00,0.0201
3510.00,0.0200
3509.00,0.0200
3508.00,0.0200
3507.00,0.0200
3506.00,0.0201
3505.00,0.0202
3504.00,0.0203
3503.00,0.0203
3502.00,0.0203
3501.00,0.0202
3500.00,0.0202
3499.00,0.0203
3498.00,0.0204
3497.00,0.0205
3496.00,0.0205
3495.00,0.0205
3494.00,0.0205
3493.00,0.0205
3492.00,0.0204
3491.00,0.0204
3490.00,0.0204
3489.00,0.0204
3488.00,0.0204
3487.00,0.0203
3486.00,0.0203
3485.00,0.0203
3484.00,0.0204
3483.00,0.0205
3482.00,0.0205
3481.00,0.0205
3480.00,0.0205
3479.00,0.0206
3478.00,0.0206
3477.00,0.0206
3476.00,0.0207
3475.00,0.0208
3474.00,0.0208
3473.00,0.0208
3472.00,0.0208
3471.00,0.0208
3470.00,0.0208
3469.00,0.0209
3468.00,0.0209
3467.00,0.0209
3466.00,0.0209
3465.00,0.0210
3464.00,0.0210
3463.00,0.0210
3462.00,0.0208
3461.00,0.0208
3460.00,0.0208
3459.00,0.0209
3458.00,0.0210
3457.00,0.0210
3456.00,0.0209
3455.00,0.0209
3454.00,0.0209
3453.00,0.0209
3452.00,0.0210
3451.00,0.0210
3450.00,0.0211
3449.00,0.0211
3448.00,0.0211
3447.00,0.0211
3446.00,0.0211
3445.00,0.0211
3444.00,0.0212
3443.00,0.0212
3442.00,0.0211
3441.00,0.0210
3440.00,0.0209
3439.00,0.0209
3438.00,0.0209
3437.00,0.0210
3436.00,0.0210
3435.00,0.0210
3434.00,0.0210
3433.00,0.0211
3432.00,0.0211
3431.00,0.0212
3430.00,0.0212
3429.00,0.0211
3428.00,0.0211
3427.00,0.0211
3426.00,0.0212
3425.00,0.0213
3424.00,0.0214
3423.00,0.0215
3422.00,0.0215
3421.00,0.0214
3420.00,0.0213
3419.00,0.0213
3418.00,0.0213
3417.00,0.0213
3416.00,0.0213
3415.00,0.0213
3414.00,0.0213
3413.00,0.0214
3412.00,0.0214
3411.00,0.0214
3410.00,0.0215
3409.00,0.0215
3408.00,0.0215
3407.00,0.0216
3406.00,0.0216
3405.00,0.0216
3404.00,0.0215
3403.00,0.0214
3402.00,0.0214
3401.00,0.0214
3400.00,0.0215
3399.00,0.0215
3398.00,0.0215
3397.00,0.0215
3396.00,0.0214
3395.00,0.0214
3394.00,0.0214
3393.00,0.0214
3392.00,0.0214
3391.00,0.0215
3390.00,0.0215
3389.00,0.0215
3388.00,0.0215
3387.00,0.0215
3386.00,0.0215
3385.00,0.0215
3384.00,0.0216
3383.00,0.0216
3382.00,0.0217
3381.00,0.0217
3380.00,0.0217
3379.00,0.0217
3378.00,0.0217
3377.00,0.0217
3376.00,0.0216
3375.00,0.0216
3374.00,0.0216
3373.00,0.0216
3372.00,0.0215
3371.00,0.0215
3370.00,0.0216
3369.00,0.0216
3368.00,0.0216
3367.00,0.0216
3366.00,0.0215
3365.00,0.0214
3364.00,0.0214
3363.00,0.0214
3362.00,0.0215
3361.00,0.0216
3360.00,0.0217
3359.00,0.0217
3358.00,0.0217
3357.00,0.0217
3356.00,0.0217
3355.00,0.0218
3354.00,0.0218
3353.00,0.0217
3352.00,0.0217
3351.00,0.0217
3350.00,0.0217
3349.00,0.0217
3348.00,0.0217
3347.00,0.0217
3346.00,0.0216
3345.00,0.0216
3344.00,0.0216
3343.00,0.0216
3342.00,0.0216
3341.00,0.0217
3340.00,0.0217
3339.00,0.0218
3338.00,0.0218
3337.00,0.0217
3336.00,0.0217
3335.00,0.0216
3334.00,0.0216
3333.00,0.0216
3332.00,0.0216
3331.00,0.0215
3330.00,0.0215
3329.00,0.0215
3328.00,0.0215
3327.00,0.0215
3326.00,0.0216
3325.00,0.0217
3324.00,0.0217
3323.00,0.0217
3322.00,0.0216
3321.00,0.0216
3320.00,0.0216
3319.00,0.0216
3318.00,0.0216
3317.00,0.0217
3316.00,0.0216
3315.00,0.0216
3314.00,0.0216
3313.00,0.0215
3312.00,0.0215
3311.00,0.0215
3310.00,0.0215
3309.00,0.0215
3308.00,0.0216
3307.00,0.0216
3306.00,0.0217
3305.00,0.0217
3304.00,0.0217
3303.00,0.0216
3302.00,0.0216
3301.00,0.0216
3300.00,0.0216
3299.00,0.0216
3298.00,0.0216
3297.00,0.0216
3296.00,0.0216
3295.00,0.0216
3294.00,0.0216
3293.00,0.0216
3292.00,0.0215
3291.00,0.0216
3290.00,0.0216
3289.00,0.0217
3288.00,0.0217
3287.00,0.0217
3286.00,0.0217
3285.00,0.0218
3284.00,0.0218
3283.00,0.0217
3282.00,0.0217
3281.00,0.0216
3280.00,0.0216
3279.00,0.0215
3278.00,0.0216
3277.00,0.0216
3276.00,0.0216
3275.00,0.0217
3274.00,0.0217
3273.00,0.0217
3272.00,0.0217
3271.00,0.0217
3270.00,0.0218
3269.00,0.0218
3268.00,0.0218
3267.00,0.0218
3266.00,0.0217
3265.00,0.0216
3264.00,0.0216
3263.00,0.0215
3262.00,0.0215
3261.00,0.0216
3260.00,0.0216
3259.00,0.0217
3258.00,0.0217
3257.00,0.0216
3256.00,0.0216
3255.00,0.0215
3254.00,0.0215
3253.00,0.0215
3252.00,0.0216
3251.00,0.0216
3250.00,0.0216
3249.00,0.0216
3248.00,0.0216
3247.00,0.0216
3246.00,0.0215
3245.00,0.0216
3244.00,0.0215
3243.00,0.0215
3242.00,0.0215
3241.00,0.0214
3240.00,0.0214
3239.00,0.0214
3238.00,0.0215
3237.00,0.0216
3236.00,0.0218
3235.00,0.0218
3234.00,0.0219
3233.00,0.0219
3232.00,0.0219
3231.00,0.0218
3230.00,0.0217
3229.00,0.0216
3228.00,0.0215
3227.00,0.0215
3226.00,0.0215
3225.00,0.0215
3224.00,0.0215
3223.00,0.0215
3222.00,0.0215
3221.00,0.0215
3220.00,0.0215
3219.00,0.0215
3218.00,0.0215
3217.00,0.0215
3216.00,0.0215
3215.00,0.0216
3214.00,0.0215
3213.00,0.0215
3212.00,0.0214
3211.00,0.0213
3210.00,0.0213
3209.00,0.0214
3208.00,0.0214
3207.00,0.0215
3206.00,0.0215
3205.00,0.0216
3204.00,0.0216
3203.00,0.0216
3202.00,0.0216
3201.00,0.0215
3200.00,0.0215
3199.00,0.0215
3198.00,0.0215
3197.00,0.0215
3196.00,0.0215
3195.00,0.0215
3194.00,0.0215
3193.00,0.0214
3192.00,0.0214
3191.00,0.0214
3190.00,0.0213
3189.00,0.0213
3188.00,0.0212
3187.00,0.0212
3186.00,0.0212
3185.00,0.0212
3184.00,0.0213
3183.00,0.0214
3182.00,0.0214
3181.00,0.0215
3180.00,0.0215
3179.00,0.0214
3178.00,0.0213
3177.00,0.0212
3176.00,0.0211
3175.00,0.0211
3174.00,0.0211
3173.00,0.0211
3172.00,0.0211
3171.00,0.0211
3170.00,0.0211
3169.00,0.0210
3168.00,0.0211
3167.00,0.0211
3166.00,0.0212
3165.00,0.0213
3164.00,0.0214
3163.00,0.0214
3162.00,0.0213
3161.00,0.0212
3160.00,0.0210
3159.00,0.0209
3158.00,0.0208
3157.00,0.0208
3156.00,0.0208
3155.00,0.0209
3154.00,0.0210
3153.00,0.0210
3152.00,0.0210
3151.00,0.0210
3150.00,0.0210
3149.00,0.0209
3148.00,0.0209
3147.00,0.0209
3146.00,0.0209
3145.00,0.0209
3144.00,0.0209
3143.00,0.0209
3142.00,0.0209
3141.00,0.0208
3140.00,0.0208
3139.00,0.0208
3138.00,0.0208
3137.00,0.0209
3136.00,0.0209
3135.00,0.0209
3134.00,0.0209
3133.00,0.0208
3132.00,0.0208
3131.00,0.0208
3130.00,0.0208
3129.00,0.0208
3128.00,0.0208
3127.00,0.0208
3126.00,0.0208
3125.00,0.0208
3124.00,0.0207
3123.00,0.0207
3122.00,0.0207
3121.00,0.0207
3120.00,0.0207
3119.00,0.0207
3118.00,0.0207
3117.00,0.0207
3116.00,0.0206
3115.00,0.0206
3114.00,0.0206
3113.00,0.0206
3112.00,0.0206
3111.00,0.0206
3110.00,0.0206
3109.00,0.0206
3108.00,0.0206
3107.00,0.0206
3106.00,0.0207
3105.00,0.0207
3104.00,0.0206
3103.00,0.0206
3102.00,0.0205
3101.00,0.0205
3100.00,0.0204
3099.00,0.0204
3098.00,0.0204
3097.00,0.0204
3096.00,0.0205
3095.00,0.0206
3094.00,0.0206
3093.00,0.0206
3092.00,0.0206
3091.00,0.0205
3090.00,0.0204
3089.00,0.0204
3088.00,0.0203
3087.00,0.0203
3086.00,0.0204
3085.00,0.0205
3084.00,0.0205
3083.00,0.0205
3082.00,0.0205
3081.00,0.0205
3080.00,0.0205
3079.00,0.0205
3078.00,0.0204
3077.00,0.0204
3076.00,0.0204
3075.00,0.0204
3074.00,0.0204
3073.00,0.0204
3072.00,0.0204
3071.00,0.0205
3070.00,0.0205
3069.00,0.0205
3068.00,0.0205
3067.00,0.0205
3066.00,0.0204
3065.00,0.0203
3064.00,0.0202
3063.00,0.0202
3062.00,0.0202
3061.00,0.0202
3060.00,0.0203
3059.00,0.0203
3058.00,0.0203
3057.00,0.0203
3056.00,0.0202
3055.00,0.0202
3054.00,0.0202
3053.00,0.0201
3052.00,0.0201
3051.00,0.0202
3050.00,0.0202
3049.00,0.0202
3048.00,0.0203
3047.00,0.0203
3046.00,0.0203
3045.00,0.0203
3044.00,0.0202
3043.00,0.0201
3042.00,0.0199
3041.00,0.0198
3040.00,0.0198
3039.00,0.0198
3038.00,0.0198
3037.00,0.0199
3036.00,0.0199
3035.00,0.0199
3034.00,0.0199
3033.00,0.0199
3032.00,0.0200
3031.00,0.0199
3030.00,0.0198
3029.00,0.0198
3028.00,0.0197
3027.00,0.0197
3026.00,0.0197
3025.00,0.0197
3024.00,0.0196
3023.00,0.0196
3022.00,0.0196
3021.00,0.0196
3020.00,0.0196
3019.00,0.0195
3018.00,0.0195
3017.00,0.0194
3016.00,0.0194
3015.00,0.0194
3014.00,0.0193
3013.00,0.0192
3012.00,0.0192
3011.00,0.0191
3010.00,0.0191
3009.00,0.0190
3008.00,0.0188
3007.00,0.0187
3006.00,0.0187
3005.00,0.0186
3004.00,0.0186
3003.00,0.0185
3002.00,0.0183
3001.00,0.0182
3000.00,0.0181
2999.00,0.0179
2998.00,0.0178
2997.00,0.0177
2996.00,0.0176
2995.00,0.0176
2994.00,0.0176
2993.00,0.0175
2992.00,0.0175
2991.00,0.0174
2990.00,0.0173
2989.00,0.0173
2988.00,0.0172
2987.00,0.0171
2986.00,0.0169
2985.00,0.0166
2984.00,0.0163
2983.00,0.0161
2982.00,0.0160
2981.00,0.0160
2980.00,0.0161
2979.00,0.0163
2978.00,0.0165
2977.00,0.0166
2976.00,0.0168
2975.00,0.0168
2974.00,0.0168
2973.00,0.0167
2972.00,0.0166
2971.00,0.0167
2970.00,0.0168
2969.00,0.0169
2968.00,0.0171
2967.00,0.0172
2966.00,0.0173
2965.00,0.0174
2964.00,0.0175
2963.00,0.0177
2962.00,0.0178
2961.00,0.0179
2960.00,0.0179
2959.00,0.0178
2958.00,0.0178
2957.00,0.0179
2956.00,0.0180
2955.00,0.0181
2954.00,0.0182
2953.00,0.0183
2952.00,0.0184
2951.00,0.0184
2950.00,0.0185
2949.00,0.0185
2948.00,0.0185
2947.00,0.0185
2946.00,0.0185
2945.00,0.0186
2944.00,0.0186
2943.00,0.0188
2942.00,0.0189
2941.00,0.0190
2940.00,0.0190
2939.00,0.0191
2938.00,0.0191
2937.00,0.0192
2936.00,0.0194
2935.00,0.0195
2934.00,0.0196
2933.00,0.0196
2932.00,0.0197
2931.00,0.0197
2930.00,0.0198
2929.00,0.0199
2928.00,0.0201
2927.00,0.0202
2926.00,0.0202
2925.00,0.0203
2924.00,0.0203
2923.00,0.0203
2922.00,0.0202
2921.00,0.0201
2920.00,0.0199
2919.00,0.0197
2918.00,0.0195
2917.00,0.0194
2916.00,0.0193
2915.00,0.0192
2914.00,0.0192
2913.00,0.0191
2912.00,0.0191
2911.00,0.0191
2910.00,0.0191
2909.00,0.0190
2908.00,0.0189
2907.00,0.0189
2906.00,0.0188
2905.00,0.0187
2904.00,0.0187
2903.00,0.0186
2902.00,0.0185
2901.00,0.0185
2900.00,0.0185
2899.00,0.0184
2898.00,0.0184
2897.00,0.0184
2896.00,0.0184
2895.00,0.0183
2894.00,0.0182
2893.00,0.0182
2892.00,0.0181
2891.00,0.0181
2890.00,0.0180
2889.00,0.0180
2888.00,0.0180
2887.00,0.0180
2886.00,0.0180
2885.00,0.0180
2884.00,0.0179
2883.00,0.0179
2882.00,0.0179
2881.00,0.0179
2880.00,0.0179
2879.00,0.0179
2878.00,0.0179
2877.00,0.0180
2876.00,0.0180
2875.00,0.0180
2874.00,0.0180
2873.00,0.0180
2872.00,0.0180
2871.00,0.0180
2870.00,0.0180
2869.00,0.0181
2868.00,0.0181
2867.00,0.0181
2866.00,0.0181
2865.00,0.0182
2864.00,0.0182
2863.00,0.0183
2862.00,0.0183
2861.00,0.0184
2860.00,0.0185
2859.00,0.0187
2858.00,0.0189
2857.00,0.0190
2856.00,0.0191
2855.00,0.0191
2854.00,0.0191
2853.00,0.0190
2852.00,0.0190
2851.00,0.0190
2850.00,0.0189
2849.00,0.0188
2848.00,0.0187
2847.00,0.0186
2846.00,0.0185
2845.00,0.0185
2844.00,0.0184
2843.00,0.0183
2842.00,0.0183
2841.00,0.0182
2840.00,0.0181
2839.00,0.0180
2838.00,0.0179
2837.00,0.0179
2836.00,0.0179
2835.00,0.0179
2834.00,0.0179
2833.00,0.0179
2832.00,0.0178
2831.00,0.0177
2830.00,0.0177
2829.00,0.0177
2828.00,0.0177
2827.00,0.0178
2826.00,0.0177
2825.00,0.0177
2824.00,0.0177
2823.00,0.0177
2822.00,0.0176
2821.00,0.0176
2820.00,0.0175
2819.00,0.0175
2818.00,0.0174
2817.00,0.0174
2816.00,0.0174
2815.00,0.0174
2814.00,0.0174
2813.00,0.0174
2812.00,0.0173
2811.00,0.0173
2810.00,0.0173
2809.00,0.0173
2808.00,0.0173
2807.00,0.0173
2806.00,0.0173
2805.00,0.0173
2804.00,0.0173
2803.00,0.0173
2802.00,0.0173
2801.00,0.0173
2800.00,0.0173
2799.00,0.0173
2798.00,0.0173
2797.00,0.0172
2796.00,0.0172
2795.00,0.0172
2794.00,0.0172
2793.00,0.0171
2792.00,0.0171
2791.00,0.0171
2790.00,0.0172
2789.00,0.0172
2788.00,0.0171
2787.00,0.0171
2786.00,0.0171
2785.00,0.0170
2784.00,0.0170
2783.00,0.0170
2782.00,0.0169
2781.00,0.0168
2780.00,0.0168
2779.00,0.0167
2778.00,0.0168
2777.00,0.0168
2776.00,0.0169
2775.00,0.0169
2774.00,0.0169
2773.00,0.0169
2772.00,0.0169
2771.00,0.0168
2770.00,0.0167
2769.00,0.0166
2768.00,0.0165
2767.00,0.0165
2766.00,0.0165
2765.00,0.0166
2764.00,0.0166
2763.00,0.0167
2762.00,0.0167
2761.00,0.0167
2760.00,0.0167
2759.00,0.0166
2758.00,0.0166
2757.00,0.0166
2756.00,0.0166
2755.00,0.0166
2754.00,0.0165
2753.00,0.0165
2752.00,0.0165
2751.00,0.0165
2750.00,0.0165
2749.00,0.0166
2748.00,0.0166
2747.00,0.0166
2746.00,0.0166
2745.00,0.0166
2744.00,0.0166
2743.00,0.0165
2742.00,0.0165
2741.00,0.0165
2740.00,0.0164
2739.00,0.0164
2738.00,0.0163
2737.00,0.0163
2736.00,0.0163
2735.00,0.0163
2734.00,0.0164
2733.00,0.0164
2732.00,0.0164
2731.00,0.0164
2730.00,0.0163
2729.00,0.0163
2728.00,0.0163
2727.00,0.0163
2726.00,0.0163
2725.00,0.0162
2724.00,0.0162
2723.00,0.0162
2722.00,0.0162
2721.00,0.0162
2720.00,0.0162
2719.00,0.0162
2718.00,0.0162
2717.00,0.0162
2716.00,0.0162
2715.00,0.0162
2714.00,0.0162
2713.00,0.0162
2712.00,0.0162
2711.00,0.0162
2710.00,0.0162
2709.00,0.0161
2708.00,0.0161
2707.00,0.0161
2706.00,0.0160
2705.00,0.0160
2704.00,0.0160
2703.00,0.0160
2702.00,0.0160
2701.00,0.0159
2700.00,0.0159
2699.00,0.0160
2698.00,0.0160
2697.00,0.0160
2696.00,0.0159
2695.00,0.0160
2694.00,0.0160
2693.00,0.0161
2692.00,0.0161
2691.00,0.0161
2690.00,0.0160
2689.00,0.0160
2688.00,0.0159
2687.00,0.0159
2686.00,0.0159
2685.00,0.0160
2684.00,0.0160
2683.00,0.0160
2682.00,0.0160
2681.00,0.0160
2680.00,0.0159
2679.00,0.0159
2678.00,0.0158
2677.00,0.0157
2676.00,0.0157
2675.00,0.0157
2674.00,0.0158
2673.00,0.0158
2672.00,0.0158
2671.00,0.0158
2670.00,0.0157
2669.00,0.0157
2668.00,0.0157
2667.00,0.0158
2666.00,0.0158
2665.00,0.0158
2664.00,0.0158
2663.00,0.0158
2662.00,0.0158
2661.00,0.0158
2660.00,0.0158
2659.00,0.0158
2658.00,0.0158
2657.00,0.0158
2656.00,0.0158
2655.00,0.0158
2654.00,0.0158
2653.00,0.0159
2652.00,0.0159
2651.00,0.0159
2650.00,0.0159
2649.00,0.0159
2648.00,0.0159
2647.00,0.0158
2646.00,0.0157
2645.00,0.0157
2644.00,0.0158
2643.00,0.0158
2642.00,0.0158
2641.00,0.0159
2640.00,0.0159
2639.00,0.0159
2638.00,0.0158
2637.00,0.0158
2636.00,0.0158
2635.00,0.0158
2634.00,0.0158
2633.00,0.0158
2632.00,0.0158
2631.00,0.0158
2630.00,0.0157
2629.00,0.0157
2628.00,0.0156
2627.00,0.0156
2626.00,0.0156
2625.00,0.0157
2624.00,0.0158
2623.00,0.0158
2622.00,0.0158
2621.00,0.0158
2620.00,0.0158
2619.00,0.0158
2618.00,0.0158
2617.00,0.0158
2616.00,0.0158
2615.00,0.0157
2614.00,0.0157
2613.00,0.0157
2612.00,0.0158
2611.00,0.0159
2610.00,0.0158
2609.00,0.0157
2608.00,0.0156
2607.00,0.0156
2606.00,0.0157
2605.00,0.0157
2604.00,0.0158
2603.00,0.0158
2602.00,0.0158
2601.00,0.0158
2600.00,0.0157
2599.00,0.0157
2598.00,0.0156
2597.00,0.0156
2596.00,0.0155
2595.00,0.0155
2594.00,0.0155
2593.00,0.0155
2592.00,0.0156
2591.00,0.0156
2590.00,0.0156
2589.00,0.0156
2588.00,0.0157
2587.00,0.0156
2586.00,0.0155
2585.00,0.0155
2584.00,0.0154
2583.00,0.0154
2582.00,0.0155
2581.00,0.0155
2580.00,0.0156
2579.00,0.0156
2578.00,0.0156
2577.00,0.0156
2576.00,0.0155
2575.00,0.0155
2574.00,0.0155
2573.00,0.0155
2572.00,0.0155
2571.00,0.0155
2570.00,0.0154
2569.00,0.0154
2568.00,0.0155
2567.00,0.0155
2566.00,0.0156
2565.00,0.0156
2564.00,0.0156
2563.00,0.0155
2562.00,0.0156
2561.00,0.0156
2560.00,0.0157
2559.00,0.0157
2558.00,0.0157
2557.00,0.0157
2556.00,0.0157
2555.00,0.0156
2554.00,0.0155
2553.00,0.0154
2552.00,0.0153
2551.00,0.0152
2550.00,0.0152
2549.00,0.0151
2548.00,0.0151
2547.00,0.0151
2546.00,0.0152
2545.00,0.0153
2544.00,0.0153
2543.00,0.0152
2542.00,0.0151
2541.00,0.0150
2540.00,0.0149
2539.00,0.0148
2538.00,0.0147
2537.00,0.0147
2536.00,0.0148
2535.00,0.0149
2534.00,0.0150
2533.00,0.0151
2532.00,0.0152
2531.00,0.0152
2530.00,0.0151
2529.00,0.0151
2528.00,0.0150
2527.00,0.0150
2526.00,0.0150
2525.00,0.0149
2524.00,0.0148
2523.00,0.0148
2522.00,0.0148
2521.00,0.0149
2520.00,0.0149
2519.00,0.0150
2518.00,0.0151
2517.00,0.0152
2516.00,0.0152
2515.00,0.0152
2514.00,0.0150
2513.00,0.0149
2512.00,0.0148
2511.00,0.0149
2510.00,0.0150
2509.00,0.0151
2508.00,0.0151
2507.00,0.0151
2506.00,0.0151
2505.00,0.0150
2504.00,0.0149
2503.00,0.0149
2502.00,0.0149
2501.00,0.0150
2500.00,0.0150
2499.00,0.0150
2498.00,0.0150
2497.00,0.0149
2496.00,0.0149
2495.00,0.0150
2494.00,0.0150
2493.00,0.0151
2492.00,0.0151
2491.00,0.0151
2490.00,0.0151
2489.00,0.0151
2488.00,0.0151
2487.00,0.0151
2486.00,0.0150
2485.00,0.0149
2484.00,0.0148
2483.00,0.0148
2482.00,0.0148
2481.00,0.0149
2480.00,0.0150
2479.00,0.0150
2478.00,0.0150
2477.00,0.0149
2476.00,0.0149
2475.00,0.0148
2474.00,0.0148
2473.00,0.0148
2472.00,0.0148
2471.00,0.0148
2470.00,0.0148
2469.00,0.0147
2468.00,0.0147
2467.00,0.0146
2466.00,0.0146
2465.00,0.0146
2464.00,0.0146
2463.00,0.0146
2462.00,0.0146
2461.00,0.0146
2460.00,0.0147
2459.00,0.0147
2458.00,0.0147
2457.00,0.0147
2456.00,0.0147
2455.00,0.0148
2454.00,0.0148
2453.00,0.0149
2452.00,0.0149
2451.00,0.0149
2450.00,0.0149
2449.00,0.0148
2448.00,0.0147
2447.00,0.0147
2446.00,0.0146
2445.00,0.0145
2444.00,0.0145
2443.00,0.0145
2442.00,0.0145
2441.00,0.0145
2440.00,0.0145
2439.00,0.0145
2438.00,0.0145
2437.00,0.0145
2436.00,0.0145
2435.00,0.0145
2434.00,0.0144
2433.00,0.0144
2432.00,0.0144
2431.00,0.0144
2430.00,0.0144
2429.00,0.0144
2428.00,0.0143
2427.00,0.0143
2426.00,0.0143
2425.00,0.0144
2424.00,0.0144
2423.00,0.0144
2422.00,0.0144
2421.00,0.0144
2420.00,0.0143
2419.00,0.0143
2418.00,0.0142
2417.00,0.0142
2416.00,0.0141
2415.00,0.0141
2414.00,0.0142
2413.00,0.0142
2412.00,0.0142
2411.00,0.0142
2410.00,0.0143
2409.00,0.0143
2408.00,0.0143
2407.00,0.0142
2406.00,0.0142
2405.00,0.0141
2404.00,0.0141
2403.00,0.0141
2402.00,0.0140
2401.00,0.0140
2400.00,0.0140
2399.00,0.0140
2398.00,0.0140
2397.00,0.0140
2396.00,0.0140
2395.00,0.0140
2394.00,0.0139
2393.00,0.0139
2392.00,0.0139
2391.00,0.0138
2390.00,0.0138
2389.00,0.0138
2388.00,0.0138
2387.00,0.0138
2386.00,0.0138
2385.00,0.0137
2384.00,0.0137
2383.00,0.0136
2382.00,0.0136
2381.00,0.0137
2380.00,0.0137
2379.00,0.0138
2378.00,0.0137
2377.00,0.0136
2376.00,0.0135
2375.00,0.0134
2374.00,0.0135
2373.00,0.0136
2372.00,0.0137
2371.00,0.0136
2370.00,0.0135
2369.00,0.0133
2368.00,0.0131
2367.00,0.0131
2366.00,0.0134
2365.00,0.0137
2364.00,0.0138
2363.00,0.0137
2362.00,0.0135
2361.00,0.0134
2360.00,0.0134
2359.00,0.0135
2358.00,0.0136
2357.00,0.0136
2356.00,0.0136
2355.00,0.0135
2354.00,0.0134
2353.00,0.0134
2352.00,0.0134
2351.00,0.0134
2350.00,0.0134
2349.00,0.0133
2348.00,0.0132
2347.00,0.0131
2346.00,0.0131
2345.00,0.0131
2344.00,0.0133
2343.00,0.0135
2342.00,0.0136
2341.00,0.0137
2340.00,0.0136
2339.00,0.0135
2338.00,0.0133
2337.00,0.0132
2336.00,0.0133
2335.00,0.0134
2334.00,0.0135
2333.00,0.0135
2332.00,0.0135
2331.00,0.0134
2330.00,0.0133
2329.00,0.0133
2328.00,0.0134
2327.00,0.0136
2326.00,0.0137
2325.00,0.0137
2324.00,0.0136
2323.00,0.0135
2322.00,0.0134
2321.00,0.0134
2320.00,0.0134
2319.00,0.0133
2318.00,0.0133
2317.00,0.0133
2316.00,0.0133
2315.00,0.0134
2314.00,0.0134
2313.00,0.0133
2312.00,0.0133
2311.00,0.0133
2310.00,0.0134
2309.00,0.0135
2308.00,0.0135
2307.00,0.0135
2306.00,0.0135
2305.00,0.0134
2304.00,0.0133
2303.00,0.0132
2302.00,0.0131
2301.00,0.0131
2300.00,0.0132
2299.00,0.0133
2298.00,0.0133
2297.00,0.0132
2296.00,0.0132
2295.00,0.0132
2294.00,0.0133
2293.00,0.0135
2292.00,0.0136
2291.00,0.0137
2290.00,0.0137
2289.00,0.0136
2288.00,0.0135
2287.00,0.0136
2286.00,0.0138
2285.00,0.0139
2284.00,0.0140
2283.00,0.0140
2282.00,0.0140
2281.00,0.0138
2280.00,0.0137
2279.00,0.0137
2278.00,0.0137
2277.00,0.0137
2276.00,0.0137
2275.00,0.0136
2274.00,0.0136
2273.00,0.0135
2272.00,0.0134
2271.00,0.0133
2270.00,0.0132
2269.00,0.0132
2268.00,0.0132
2267.00,0.0133
2266.00,0.0133
2265.00,0.0134
2264.00,0.0135
2263.00,0.0135
2262.00,0.0136
2261.00,0.0137
2260.00,0.0138
2259.00,0.0137
2258.00,0.0135
2257.00,0.0132
2256.00,0.0130
2255.00,0.0130
2254.00,0.0130
2253.00,0.0131
2252.00,0.0132
2251.00,0.0133
2250.00,0.0133
2249.00,0.0133
2248.00,0.0132
2247.00,0.0132
2246.00,0.0133
2245.00,0.0134
2244.00,0.0134
2243.00,0.0133
2242.00,0.0132
2241.00,0.0131
2240.00,0.0131
2239.00,0.0130
2238.00,0.0130
2237.00,0.0130
2236.00,0.0130
2235.00,0.0130
2234.00,0.0131
2233.00,0.0133
2232.00,0.0132
2231.00,0.0131
2230.00,0.0129
2229.00,0.0128
2228.00,0.0128
2227.00,0.0129
2226.00,0.0129
2225.00,0.0129
2224.00,0.0128
2223.00,0.0128
2222.00,0.0128
2221.00,0.0128
2220.00,0.0128
2219.00,0.0128
2218.00,0.0129
2217.00,0.0129
2216.00,0.0130
2215.00,0.0131
2214.00,0.0131
2213.00,0.0131
2212.00,0.0130
2211.00,0.0128
2210.00,0.0128
2209.00,0.0129
2208.00,0.0131
2207.00,0.0131
2206.00,0.0131
2205.00,0.0129
2204.00,0.0127
2203.00,0.0126
2202.00,0.0125
2201.00,0.0125
2200.00,0.0125
2199.00,0.0124
2198.00,0.0125
2197.00,0.0125
2196.00,0.0125
2195.00,0.0125
2194.00,0.0124
2193.00,0.0124
2192.00,0.0124
2191.00,0.0122
2190.00,0.0120
2189.00,0.0119
2188.00,0.0120
2187.00,0.0124
2186.00,0.0128
2185.00,0.0130
2184.00,0.0128
2183.00,0.0125
2182.00,0.0124
2181.00,0.0126
2180.00,0.0128
2179.00,0.0129
2178.00,0.0130
2177.00,0.0129
2176.00,0.0128
2175.00,0.0126
2174.00,0.0125
2173.00,0.0124
2172.00,0.0123
2171.00,0.0124
2170.00,0.0126
2169.00,0.0130
2168.00,0.0132
2167.00,0.0133
2166.00,0.0133
2165.00,0.0134
2164.00,0.0135
2163.00,0.0136
2162.00,0.0135
2161.00,0.0132
2160.00,0.0127
2159.00,0.0121
2158.00,0.0117
2157.00,0.0115
2156.00,0.0115
2155.00,0.0115
2154.00,0.0117
2153.00,0.0120
2152.00,0.0120
2151.00,0.0119
2150.00,0.0116
2149.00,0.0114
2148.00,0.0115
2147.00,0.0118
2146.00,0.0121
2145.00,0.0123
2144.00,0.0124
2143.00,0.0124
2142.00,0.0125
2141.00,0.0125
2140.00,0.0125
2139.00,0.0125
2138.00,0.0123
2137.00,0.0120
2136.00,0.0118
2135.00,0.0116
2134.00,0.0115
2133.00,0.0115
2132.00,0.0116
2131.00,0.0117
2130.00,0.0119
2129.00,0.0122
2128.00,0.0124
2127.00,0.0125
2126.00,0.0124
2125.00,0.0123
2124.00,0.0121
2123.00,0.0119
2122.00,0.0119
2121.00,0.0119
2120.00,0.0119
2119.00,0.0120
2118.00,0.0121
2117.00,0.0121
2116.00,0.0120
2115.00,0.0119
2114.00,0.0118
2113.00,0.0117
2112.00,0.0118
2111.00,0.0120
2110.00,0.0122
2109.00,0.0124
2108.00,0.0125
2107.00,0.0126
2106.00,0.0127
2105.00,0.0126
2104.00,0.0124
2103.00,0.0123
2102.00,0.0123
2101.00,0.0123
2100.00,0.0122
2099.00,0.0120
2098.00,0.0119
2097.00,0.0118
2096.00,0.0119
2095.00,0.0120
2094.00,0.0121
2093.00,0.0121
2092.00,0.0121
2091.00,0.0119
2090.00,0.0118
2089.00,0.0118
2088.00,0.0119
2087.00,0.0121
2086.00,0.0122
2085.00,0.0124
2084.00,0.0125
2083.00,0.0125
2082.00,0.0124
2081.00,0.0123
2080.00,0.0122
2079.00,0.0122
2078.00,0.0121
2077.00,0.0121
2076.00,0.0123
2075.00,0.0124
2074.00,0.0124
2073.00,0.0124
2072.00,0.0124
2071.00,0.0124
2070.00,0.0124
2069.00,0.0123
2068.00,0.0120
2067.00,0.0118
2066.00,0.0117
2065.00,0.0117
2064.00,0.0118
2063.00,0.0120
2062.00,0.0122
2061.00,0.0123
2060.00,0.0122
2059.00,0.0120
2058.00,0.0120
2057.00,0.0120
2056.00,0.0121
2055.00,0.0122
2054.00,0.0123
2053.00,0.0125
2052.00,0.0127
2051.00,0.0126
2050.00,0.0123
2049.00,0.0121
2048.00,0.0120
2047.00,0.0121
2046.00,0.0124
2045.00,0.0126
2044.00,0.0128
2043.00,0.0129
2042.00,0.0128
2041.00,0.0125
2040.00,0.0121
2039.00,0.0119
2038.00,0.0119
2037.00,0.0122
2036.00,0.0125
2035.00,0.0126
2034.00,0.0125
2033.00,0.0125
2032.00,0.0127
2031.00,0.0130
2030.00,0.0131
2029.00,0.0129
2028.00,0.0126
2027.00,0.0123
2026.00,0.0121
2025.00,0.0118
2024.00,0.0116
2023.00,0.0113
2022.00,0.0112
2021.00,0.0112
2020.00,0.0112
2019.00,0.0111
2018.00,0.0110
2017.00,0.0110
2016.00,0.0111
2015.00,0.0113
2014.00,0.0115
2013.00,0.0115
2012.00,0.0115
2011.00,0.0114
2010.00,0.0114
2009.00,0.0114
2008.00,0.0114
2007.00,0.0114
2006.00,0.0114
2005.00,0.0113
2004.00,0.0114
2003.00,0.0117
2002.00,0.0121
2001.00,0.0124
2000.00,0.0123
1999.00,0.0120
1998.00,0.0117
1997.00,0.0117
1996.00,0.0120
1995.00,0.0124
1994.00,0.0127
1993.00,0.0128
1992.00,0.0127
1991.00,0.0124
1990.00,0.0121
1989.00,0.0118
1988.00,0.0116
1987.00,0.0116
1986.00,0.0117
1985.00,0.0118
1984.00,0.0120
1983.00,0.0120
1982.00,0.0120
1981.00,0.0118
1980.00,0.0116
1979.00,0.0113
1978.00,0.0110
1977.00,0.0109
1976.00,0.0109
1975.00,0.0113
1974.00,0.0117
1973.00,0.0119
1972.00,0.0117
1971.00,0.0113
1970.00,0.0111
1969.00,0.0111
1968.00,0.0112
1967.00,0.0112
1966.00,0.0111
1965.00,0.0110
1964.00,0.0112
1963.00,0.0114
1962.00,0.0115
1961.00,0.0115
1960.00,0.0115
1959.00,0.0114
1958.00,0.0114
1957.00,0.0113
1956.00,0.0112
1955.00,0.0111
1954.00,0.0112
1953.00,0.0113
1952.00,0.0114
1951.00,0.0113
1950.00,0.0112
1949.00,0.0111
1948.00,0.0110
1947.00,0.0111
1946.00,0.0111
1945.00,0.0110
1944.00,0.0108
1943.00,0.0107
1942.00,0.0107
1941.00,0.0107
1940.00,0.0108
1939.00,0.0108
1938.00,0.0107
1937.00,0.0107
1936.00,0.0107
1935.00,0.0105
1934.00,0.0104
1933.00,0.0104
1932.00,0.0105
1931.00,0.0107
1930.00,0.0109
1929.00,0.0111
1928.00,0.0112
1927.00,0.0113
1926.00,0.0113
1925.00,0.0112
1924.00,0.0112
1923.00,0.0111
1922.00,0.0110
1921.00,0.0110
1920.00,0.0110
1919.00,0.0109
1918.00,0.0107
1917.00,0.0107
1916.00,0.0107
1915.00,0.0108
1914.00,0.0108
1913.00,0.0108
1912.00,0.0109
1911.00,0.0109
1910.00,0.0108
1909.00,0.0107
1908.00,0.0106
1907.00,0.0105
1906.00,0.0106
1905.00,0.0106
1904.00,0.0107
1903.00,0.0107
1902.00,0.0107
1901.00,0.0107
1900.00,0.0107
1899.00,0.0108
1898.00,0.0108
1897.00,0.0108
1896.00,0.0106
1895.00,0.0104
1894.00,0.0104
1893.00,0.0104
1892.00,0.0105
1891.00,0.0105
1890.00,0.0105
1889.00,0.0105
1888.00,0.0104
1887.00,0.0104
1886.00,0.0104
1885.00,0.0104
1884.00,0.0104
1883.00,0.0104
1882.00,0.0104
1881.00,0.0104
1880.00,0.0104
1879.00,0.0104
1878.00,0.0103
1877.00,0.0102
1876.00,0.0102
1875.00,0.0103
1874.00,0.0105
1873.00,0.0106
1872.00,0.0107
1871.00,0.0107
1870.00,0.0106
1869.00,0.0105
1868.00,0.0103
1867.00,0.0102
1866.00,0.0102
1865.00,0.0102
1864.00,0.0102
1863.00,0.0102
1862.00,0.0102
1861.00,0.0101
1860.00,0.0101
1859.00,0.0101
1858.00,0.0102
1857.00,0.0102
1856.00,0.0103
1855.00,0.0103
1854.00,0.0103
1853.00,0.0102
1852.00,0.0102
1851.00,0.0102
1850.00,0.0102
1849.00,0.0102
1848.00,0.0102
1847.00,0.0102
1846.00,0.0103
1845.00,0.0103
1844.00,0.0102
1843.00,0.0101
1842.00,0.0102
1841.00,0.0102
1840.00,0.0102
1839.00,0.0102
1838.00,0.0101
1837.00,0.0101
1836.00,0.0101
1835.00,0.0101
1834.00,0.0101
1833.00,0.0102
1832.00,0.0103
1831.00,0.0104
1830.00,0.0103
1829.00,0.0102
1828.00,0.0101
1827.00,0.0101
1826.00,0.0101
1825.00,0.0101
1824.00,0.0101
1823.00,0.0101
1822.00,0.0101
1821.00,0.0101
1820.00,0.0101
1819.00,0.0101
1818.00,0.0100
1817.00,0.0100
1816.00,0.0100
1815.00,0.0099
1814.00,0.0099
1813.00,0.0099
1812.00,0.0100
1811.00,0.0100
1810.00,0.0100
1809.00,0.0101
1808.00,0.0102
1807.00,0.0103
1806.00,0.0103
1805.00,0.0103
1804.00,0.0104
1803.00,0.0104
1802.00,0.0104
1801.00,0.0105
1800.00,0.0104
1799.00,0.0104
1798.00,0.0105
1797.00,0.0105
1796.00,0.0106
1795.00,0.0106
1794.00,0.0107
1793.00,0.0108
1792.00,0.0109
1791.00,0.0109
1790.00,0.0109
1789.00,0.0110
1788.00,0.0111
1787.00,0.0112
1786.00,0.0113
1785.00,0.0114
1784.00,0.0114
1783.00,0.0114
1782.00,0.0115
1781.00,0.0116
1780.00,0.0116
1779.00,0.0118
1778.00,0.0119
1777.00,0.0121
1776.00,0.0122
1775.00,0.0122
1774.00,0.0122
1773.00,0.0122
1772.00,0.0121
1771.00,0.0121
1770.00,0.0123
1769.00,0.0125
1768.00,0.0127
1767.00,0.0128
1766.00,0.0129
1765.00,0.0130
1764.00,0.0131
1763.00,0.0131
1762.00,0.0130
1761.00,0.0130
1760.00,0.0131
1759.00,0.0132
1758.00,0.0133
1757.00,0.0133
1756.00,0.0134
1755.00,0.0136
1754.00,0.0137
1753.00,0.0139
1752.00,0.0139
1751.00,0.0139
1750.00,0.0140
1749.00,0.0141
1748.00,0.0143
1747.00,0.0144
1746.00,0.0145
1745.00,0.0147
1744.00,0.0148
1743.00,0.0149
1742.00,0.0149
1741.00,0.0150
1740.00,0.0151
1739.00,0.0151
1738.00,0.0152
1737.00,0.0154
1736.00,0.0156
1735.00,0.0158
1734.00,0.0159
1733.00,0.0158
1732.00,0.0158
1731.00,0.0159
1730.00,0.0160
1729.00,0.0161
1728.00,0.0162
1727.00,0.0164
1726.00,0.0166
1725.00,0.0167
1724.00,0.0169
1723.00,0.0170
1722.00,0.0170
1721.00,0.0171
1720.00,0.0171
1719.00,0.0171
1718.00,0.0171
1717.00,0.0172
1716.00,0.0174
1715.00,0.0176
1714.00,0.0178
1713.00,0.0179
1712.00,0.0181
1711.00,0.0182
1710.00,0.0182
1709.00,0.0183
1708.00,0.0183
1707.00,0.0183
1706.00,0.0183
1705.00,0.0183
1704.00,0.0183
1703.00,0.0184
1702.00,0.0185
1701.00,0.0185
1700.00,0.0183
1699.00,0.0181
1698.00,0.0183
1697.00,0.0185
1696.00,0.0187
1695.00,0.0186
1694.00,0.0186
1693.00,0.0187
1692.00,0.0187
1691.00,0.0186
1690.00,0.0186
1689.00,0.0185
1688.00,0.0184
1687.00,0.0184
1686.00,0.0183
1685.00,0.0183
1684.00,0.0183
1683.00,0.0182
1682.00,0.0183
1681.00,0.0184
1680.00,0.0185
1679.00,0.0185
1678.00,0.0187
1677.00,0.0189
1676.00,0.0190
1675.00,0.0190
1674.00,0.0189
1673.00,0.0188
1672.00,0.0188
1671.00,0.0188
1670.00,0.0189
1669.00,0.0191
1668.00,0.0191
1667.00,0.0192
1666.00,0.0193
1665.00,0.0194
1664.00,0.0195
1663.00,0.0195
1662.00,0.0195
1661.00,0.0196
1660.00,0.0197
1659.00,0.0199
1658.00,0.0200
1657.00,0.0201
1656.00,0.0201
1655.00,0.0200
1654.00,0.0202
1653.00,0.0203
1652.00,0.0202
1651.00,0.0203
1650.00,0.0204
1649.00,0.0204
1648.00,0.0204
1647.00,0.0206
1646.00,0.0208
1645.00,0.0211
1644.00,0.0214
1643.00,0.0215
1642.00,0.0216
1641.00,0.0216
1640.00,0.0216
1639.00,0.0217
1638.00,0.0217
1637.00,0.0219
1636.00,0.0222
1635.00,0.0223
1634.00,0.0223
1633.00,0.0223
1632.00,0.0223
1631.00,0.0224
1630.00,0.0225
1629.00,0.0226
1628.00,0.0227
1627.00,0.0228
1626.00,0.0230
1625.00,0.0232
1624.00,0.0234
1623.00,0.0235
1622.00,0.0235
1621.00,0.0235
1620.00,0.0236
1619.00,0.0236
1618.00,0.0237
1617.00,0.0238
1616.00,0.0238
1615.00,0.0239
1614.00,0.0240
1613.00,0.0240
1612.00,0.0241
1611.00,0.0242
1610.00,0.0243
1609.00,0.0243
1608.00,0.0242
1607.00,0.0242
1606.00,0.0243
1605.00,0.0244
1604.00,0.0244
1603.00,0.0244
1602.00,0.0244
1601.00,0.0244
1600.00,0.0244
1599.00,0.0245
1598.00,0.0246
1597.00,0.0247
1596.00,0.0248
1595.00,0.0248
1594.00,0.0248
1593.00,0.0248
1592.00,0.0248
1591.00,0.0248
1590.00,0.0248
1589.00,0.0248
1588.00,0.0249
1587.00,0.0250
1586.00,0.0250
1585.00,0.0250
1584.00,0.0250
1583.00,0.0250
1582.00,0.0250
1581.00,0.0249
1580.00,0.0249
1579.00,0.0249
1578.00,0.0250
1577.00,0.0251
1576.00,0.0250
1575.00,0.0247
1574.00,0.0246
1573.00,0.0245
1572.00,0.0245
1571.00,0.0245
1570.00,0.0245
1569.00,0.0243
1568.00,0.0243
1567.00,0.0243
1566.00,0.0242
1565.00,0.0240
1564.00,0.0238
1563.00,0.0237
1562.00,0.0238
1561.00,0.0237
1560.00,0.0238
1559.00,0.0239
1558.00,0.0235
1557.00,0.0232
1556.00,0.0232
1555.00,0.0231
1554.00,0.0230
1553.00,0.0230
1552.00,0.0230
1551.00,0.0229
1550.00,0.0228
1549.00,0.0226
1548.00,0.0224
1547.00,0.0223
1546.00,0.0222
1545.00,0.0220
1544.00,0.0218
1543.00,0.0215
1542.00,0.0212
1541.00,0.0211
1540.00,0.0210
1539.00,0.0208
1538.00,0.0207
1537.00,0.0207
1536.00,0.0207
1535.00,0.0207
1534.00,0.0207
1533.00,0.0206
1532.00,0.0204
1531.00,0.0204
1530.00,0.0203
1529.00,0.0203
1528.00,0.0202
1527.00,0.0200
1526.00,0.0198
1525.00,0.0196
1524.00,0.0194
1523.00,0.0193
1522.00,0.0193
1521.00,0.0193
1520.00,0.0194
1519.00,0.0195
1518.00,0.0196
1517.00,0.0195
1516.00,0.0193
1515.00,0.0193
1514.00,0.0192
1513.00,0.0191
1512.00,0.0190
1511.00,0.0188
1510.00,0.0186
1509.00,0.0185
1508.00,0.0186
1507.00,0.0187
1506.00,0.0187
1505.00,0.0187
1504.00,0.0187
1503.00,0.0187
1502.00,0.0186
1501.00,0.0185
1500.00,0.0184
1499.00,0.0184
1498.00,0.0185
1497.00,0.0186
1496.00,0.0187
1495.00,0.0186
1494.00,0.0185
1493.00,0.0184
1492.00,0.0183
1491.00,0.0183
1490.00,0.0183
1489.00,0.0183
1488.00,0.0183
1487.00,0.0183
1486.00,0.0184
1485.00,0.0184
1484.00,0.0184
1483.00,0.0184
1482.00,0.0184
1481.00,0.0184
1480.00,0.0184
1479.00,0.0184
1478.00,0.0184
1477.00,0.0184
1476.00,0.0185
1475.00,0.0185
1474.00,0.0186
1473.00,0.0186
1472.00,0.0187
1471.00,0.0188
1470.00,0.0189
1469.00,0.0191
1468.00,0.0193
1467.00,0.0194
1466.00,0.0194
1465.00,0.0194
1464.00,0.0194
1463.00,0.0193
1462.00,0.0192
1461.00,0.0190
1460.00,0.0189
1459.00,0.0189
1458.00,0.0191
1457.00,0.0193
1456.00,0.0194
1455.00,0.0194
1454.00,0.0194
1453.00,0.0194
1452.00,0.0195
1451.00,0.0197
1450.00,0.0198
1449.00,0.0198
1448.00,0.0199
1447.00,0.0200
1446.00,0.0200
1445.00,0.0201
1444.00,0.0201
1443.00,0.0201
1442.00,0.0200
1441.00,0.0200
1440.00,0.0201
1439.00,0.0203
1438.00,0.0205
1437.00,0.0207
1436.00,0.0207
1435.00,0.0206
1434.00,0.0205
1433.00,0.0205
1432.00,0.0205
1431.00,0.0205
1430.00,0.0204
1429.00,0.0203
1428.00,0.0204
1427.00,0.0204
1426.00,0.0205
1425.00,0.0206
1424.00,0.0206
1423.00,0.0207
1422.00,0.0207
1421.00,0.0207
1420.00,0.0208
1419.00,0.0209
1418.00,0.0210
1417.00,0.0211
1416.00,0.0211
1415.00,0.0211
1414.00,0.0210
1413.00,0.0209
1412.00,0.0209
1411.00,0.0209
1410.00,0.0209
1409.00,0.0209
1408.00,0.0210
1407.00,0.0210
1406.00,0.0209
1405.00,0.0208
1404.00,0.0207
1403.00,0.0206
1402.00,0.0206
1401.00,0.0205
1400.00,0.0205
1399.00,0.0205
1398.00,0.0205
1397.00,0.0206
1396.00,0.0206
1395.00,0.0207
1394.00,0.0207
1393.00,0.0207
1392.00,0.0207
1391.00,0.0207
1390.00,0.0207
1389.00,0.0207
1388.00,0.0207
1387.00,0.0208
1386.00,0.0207
1385.00,0.0207
1384.00,0.0207
1383.00,0.0208
1382.00,0.0208
1381.00,0.0209
1380.00,0.0210
1379.00,0.0210
1378.00,0.0210
1377.00,0.0211
1376.00,0.0211
1375.00,0.0211
1374.00,0.0212
1373.00,0.0212
1372.00,0.0212
1371.00,0.0213
1370.00,0.0214
1369.00,0.0214
1368.00,0.0214
1367.00,0.0214
1366.00,0.0213
1365.00,0.0212
1364.00,0.0212
1363.00,0.0212
1362.00,0.0213
1361.00,0.0214
1360.00,0.0214
1359.00,0.0214
1358.00,0.0214
1357.00,0.0215
1356.00,0.0216
1355.00,0.0216
1354.00,0.0216
1353.00,0.0215
1352.00,0.0214
1351.00,0.0213
1350.00,0.0212
1349.00,0.0212
1348.00,0.0212
1347.00,0.0213
1346.00,0.0212
1345.00,0.0212
1344.00,0.0211
1343.00,0.0210
1342.00,0.0210
1341.00,0.0211
1340.00,0.0212
1339.00,0.0212
1338.00,0.0212
1337.00,0.0212
1336.00,0.0212
1335.00,0.0212
1334.00,0.0211
1333.00,0.0211
1332.00,0.0210
1331.00,0.0210
1330.00,0.0210
1329.00,0.0210
1328.00,0.0210
1327.00,0.0210
1326.00,0.0210
1325.00,0.0210
1324.00,0.0210
1323.00,0.0210
1322.00,0.0211
1321.00,0.0212
1320.00,0.0212
1319.00,0.0212
1318.00,0.0210
1317.00,0.0209
1316.00,0.0209
1315.00,0.0209
1314.00,0.0209
1313.00,0.0210
1312.00,0.0211
1311.00,0.0212
1310.00,0.0212
1309.00,0.0213
1308.00,0.0212
1307.00,0.0212
1306.00,0.0212
1305.00,0.0212
1304.00,0.0213
1303.00,0.0214
1302.00,0.0215
1301.00,0.0215
1300.00,0.0215
1299.00,0.0215
1298.00,0.0214
1297.00,0.0213
1296.00,0.0213
1295.00,0.0213
1294.00,0.0214
1293.00,0.0215
1292.00,0.0216
1291.00,0.0217
1290.00,0.0218
1289.00,0.0219
1288.00,0.0219
1287.00,0.0219
1286.00,0.0218
1285.00,0.0218
1284.00,0.0219
1283.00,0.0219
1282.00,0.0219
1281.00,0.0219
1280.00,0.0218
1279.00,0.0218
1278.00,0.0218
1277.00,0.0218
1276.00,0.0219
1275.00,0.0219
1274.00,0.0219
1273.00,0.0219
1272.00,0.0219
1271.00,0.0218
1270.00,0.0218
1269.00,0.0218
1268.00,0.0218
1267.00,0.0218
1266.00,0.0219
1265.00,0.0220
1264.00,0.0220
1263.00,0.0220
1262.00,0.0219
1261.00,0.0219
1260.00,0.0219
1259.00,0.0220
1258.00,0.0220
1257.00,0.0220
1256.00,0.0219
1255.00,0.0218
1254.00,0.0218
1253.00,0.0218
1252.00,0.0219
1251.00,0.0219
1250.00,0.0219
1249.00,0.0219
1248.00,0.0220
1247.00,0.0221
1246.00,0.0221
1245.00,0.0221
1244.00,0.0221
1243.00,0.0221
1242.00,0.0221
1241.00,0.0220
1240.00,0.0219
1239.00,0.0220
1238.00,0.0220
1237.00,0.0221
1236.00,0.0222
1235.00,0.0223
1234.00,0.0222
1233.00,0.0221
1232.00,0.0221
1231.00,0.0220
1230.00,0.0220
1229.00,0.0219
1228.00,0.0219
1227.00,0.0219
1226.00,0.0219
1225.00,0.0219
1224.00,0.0218
1223.00,0.0219
1222.00,0.0219
1221.00,0.0220
1220.00,0.0221
1219.00,0.0221
1218.00,0.0221
1217.00,0.0220
1216.00,0.0219
1215.00,0.0218
1214.00,0.0217
1213.00,0.0217
1212.00,0.0217
1211.00,0.0218
1210.00,0.0219
1209.00,0.0220
1208.00,0.0220
1207.00,0.0219
1206.00,0.0218
1205.00,0.0218
1204.00,0.0217
1203.00,0.0217
1202.00,0.0217
1201.00,0.0216
1200.00,0.0216
1199.00,0.0216
1198.00,0.0215
1197.00,0.0215
1196.00,0.0215
1195.00,0.0215
1194.00,0.0215
1193.00,0.0215
1192.00,0.0216
1191.00,0.0215
1190.00,0.0214
1189.00,0.0212
1188.00,0.0211
1187.00,0.0210
1186.00,0.0209
1185.00,0.0209
1184.00,0.0210
1183.00,0.0210
1182.00,0.0209
1181.00,0.0209
1180.00,0.0208
1179.00,0.0207
1178.00,0.0206
1177.00,0.0206
1176.00,0.0206
1175.00,0.0206
1174.00,0.0207
1173.00,0.0206
1172.00,0.0206
1171.00,0.0204
1170.00,0.0203
1169.00,0.0202
1168.00,0.0202
1167.00,0.0202
1166.00,0.0202
1165.00,0.0202
1164.00,0.0202
1163.00,0.0202
1162.00,0.0202
1161.00,0.0201
1160.00,0.0200
1159.00,0.0198
1158.00,0.0196
1157.00,0.0196
1156.00,0.0196
1155.00,0.0198
1154.00,0.0199
1153.00,0.0200
1152.00,0.0199
1151.00,0.0198
1150.00,0.0196
1149.00,0.0194
1148.00,0.0192
1147.00,0.0190
1146.00,0.0190
1145.00,0.0190
1144.00,0.0191
1143.00,0.0193
1142.00,0.0195
1141.00,0.0195
1140.00,0.0195
1139.00,0.0195
1138.00,0.0194
1137.00,0.0194
1136.00,0.0194
1135.00,0.0195
1134.00,0.0196
1133.00,0.0196
1132.00,0.0196
1131.00,0.0195
1130.00,0.0195
1129.00,0.0196
1128.00,0.0197
1127.00,0.0197
1126.00,0.0195
1125.00,0.0193
1124.00,0.0193
1123.00,0.0194
1122.00,0.0197
1121.00,0.0200
1120.00,0.0201
1119.00,0.0200
1118.00,0.0199
1117.00,0.0198
1116.00,0.0198
1115.00,0.0200
1114.00,0.0202
1113.00,0.0203
1112.00,0.0202
1111.00,0.0201
1110.00,0.0201
1109.00,0.0200
1108.00,0.0199
1107.00,0.0198
1106.00,0.0197
1105.00,0.0195
1104.00,0.0195
1103.00,0.0197
1102.00,0.0199
1101.00,0.0200
1100.00,0.0201
1099.00,0.0202
1098.00,0.0203
1097.00,0.0203
1096.00,0.0201
1095.00,0.0200
1094.00,0.0198
1093.00,0.0197
1092.00,0.0198
1091.00,0.0199
1090.00,0.0198
1089.00,0.0197
1088.00,0.0195
1087.00,0.0195
1086.00,0.0196
1085.00,0.0198
1084.00,0.0200
1083.00,0.0201
1082.00,0.0201
1081.00,0.0202
1080.00,0.0202
1079.00,0.0203
1078.00,0.0205
1077.00,0.0207
1076.00,0.0207
1075.00,0.0205
1074.00,0.0202
1073.00,0.0201
1072.00,0.0201
1071.00,0.0200
1070.00,0.0199
1069.00,0.0198
1068.00,0.0196
1067.00,0.0196
1066.00,0.0197
1065.00,0.0198
1064.00,0.0200
1063.00,0.0202
1062.00,0.0202
1061.00,0.0201
1060.00,0.0200
1059.00,0.0199
1058.00,0.0201
1057.00,0.0203
1056.00,0.0204
1055.00,0.0204
1054.00,0.0204
1053.00,0.0205
1052.00,0.0206
1051.00,0.0206
1050.00,0.0207
1049.00,0.0209
1048.00,0.0211
1047.00,0.0213
1046.00,0.0214
1045.00,0.0214
1044.00,0.0215
1043.00,0.0214
1042.00,0.0212
1041.00,0.0210
1040.00,0.0209
1039.00,0.0209
1038.00,0.0211
1037.00,0.0212
1036.00,0.0212
1035.00,0.0212
1034.00,0.0211
1033.00,0.0211
1032.00,0.0210
1031.00,0.0211
1030.00,0.0211
1029.00,0.0211
1028.00,0.0211
1027.00,0.0210
1026.00,0.0210
1025.00,0.0209
1024.00,0.0208
1023.00,0.0207
1022.00,0.0206
1021.00,0.0205
1020.00,0.0206
1019.00,0.0206
1018.00,0.0207
1017.00,0.0208
1016.00,0.0209
1015.00,0.0210
1014.00,0.0209
1013.00,0.0208
1012.00,0.0206
1011.00,0.0205
1010.00,0.0205
1009.00,0.0205
1008.00,0.0206
1007.00,0.0205
1006.00,0.0205
1005.00,0.0205
1004.00,0.0204
1003.00,0.0205
1002.00,0.0205
1001.00,0.0204
1000.00,0.0202
999.00,0.0199
998.00,0.0197
997.00,0.0197
996.00,0.0198
995.00,0.0199
994.00,0.0199
993.00,0.0197
992.00,0.0195
991.00,0.0193
990.00,0.0192
989.00,0.0192
988.00,0.0193
987.00,0.0194
986.00,0.0195
985.00,0.0194
984.00,0.0191
983.00,0.0188
982.00,0.0186
981.00,0.0185
980.00,0.0186
979.00,0.0187
978.00,0.0187
977.00,0.0186
976.00,0.0184
975.00,0.0183
974.00,0.0182
973.00,0.0182
972.00,0.0182
971.00,0.0181
970.00,0.0179
969.00,0.0177
968.00,0.0175
967.00,0.0174
966.00,0.0174
965.00,0.0173
964.00,0.0173
963.00,0.0173
962.00,0.0173
961.00,0.0173
960.00,0.0173
959.00,0.0172
958.00,0.0170
957.00,0.0169
956.00,0.0168
955.00,0.0166
954.00,0.0165
953.00,0.0165
952.00,0.0166
951.00,0.0168
950.00,0.0170
949.00,0.0171
948.00,0.0171
947.00,0.0170
946.00,0.0168
945.00,0.0167
944.00,0.0166
943.00,0.0165
942.00,0.0163
941.00,0.0163
940.00,0.0163
939.00,0.0165
938.00,0.0167
937.00,0.0168
936.00,0.0168
935.00,0.0167
934.00,0.0168
933.00,0.0170
932.00,0.0172
931.00,0.0175
930.00,0.0176
929.00,0.0176
928.00,0.0177
927.00,0.0178
926.00,0.0179
925.00,0.0180
924.00,0.0181
923.00,0.0183
922.00,0.0183
921.00,0.0184
920.00,0.0183
919.00,0.0182
918.00,0.0181
917.00,0.0181
916.00,0.0183
915.00,0.0184
914.00,0.0185
913.00,0.0184
912.00,0.0184
911.00,0.0184
910.00,0.0183
909.00,0.0181
908.00,0.0178
907.00,0.0177
906.00,0.0178
905.00,0.0182
904.00,0.0186
903.00,0.0191
902.00,0.0192
901.00,0.0191
900.00,0.0188
899.00,0.0187
898.00,0.0187
897.00,0.0189
896.00,0.0191
895.00,0.0193
894.00,0.0194
893.00,0.0193
892.00,0.0191
891.00,0.0189
890.00,0.0187
889.00,0.0186
888.00,0.0185
887.00,0.0184
886.00,0.0183
885.00,0.0183
884.00,0.0185
883.00,0.0188
882.00,0.0191
881.00,0.0190
880.00,0.0189
879.00,0.0186
878.00,0.0182
877.00,0.0179
876.00,0.0177
875.00,0.0177
874.00,0.0179
873.00,0.0180
872.00,0.0180
871.00,0.0180
870.00,0.0179
869.00,0.0179
868.00,0.0178
867.00,0.0177
866.00,0.0176
865.00,0.0177
864.00,0.0178
863.00,0.0179
862.00,0.0179
861.00,0.0179
860.00,0.0178
859.00,0.0177
858.00,0.0175
857.00,0.0173
856.00,0.0174
855.00,0.0177
854.00,0.0180
853.00,0.0182
852.00,0.0182
851.00,0.0181
850.00,0.0181
849.00,0.0182
848.00,0.0184
847.00,0.0186
846.00,0.0189
845.00,0.0192
844.00,0.0194
843.00,0.0194
842.00,0.0193
841.00,0.0191
840.00,0.0189
839.00,0.0186
838.00,0.0185
837.00,0.0185
836.00,0.0185
835.00,0.0186
834.00,0.0187
833.00,0.0188
832.00,0.0189
831.00,0.0188
830.00,0.0186
829.00,0.0184
828.00,0.0183
827.00,0.0184
826.00,0.0186
825.00,0.0189
824.00,0.0192
823.00,0.0194
822.00,0.0194
821.00,0.0194
820.00,0.0195
819.00,0.0196
818.00,0.0196
817.00,0.0195
816.00,0.0192
815.00,0.0191
814.00,0.0192
813.00,0.0194
812.00,0.0196
811.00,0.0197
810.00,0.0197
809.00,0.0197
808.00,0.0196
807.00,0.0194
806.00,0.0193
805.00,0.0192
804.00,0.0192
803.00,0.0193
802.00,0.0194
801.00,0.0196
800.00,0.0199
799.00,0.0201
798.00,0.0201
797.00,0.0199
796.00,0.0197
795.00,0.0195
794.00,0.0194
793.00,0.0194
792.00,0.0195
791.00,0.0197
790.00,0.0199
789.00,0.0200
788.00,0.0199
787.00,0.0198
786.00,0.0200
785.00,0.0204
784.00,0.0208
783.00,0.0210
782.00,0.0210
781.00,0.0209
780.00,0.0207
779.00,0.0206
778.00,0.0205
777.00,0.0207
776.00,0.0208
775.00,0.0208
774.00,0.0207
773.00,0.0206
772.00,0.0205
771.00,0.0206
770.00,0.0208
769.00,0.0209
768.00,0.0208
767.00,0.0206
766.00,0.0205
765.00,0.0203
764.00,0.0204
763.00,0.0204
762.00,0.0203
761.00,0.0202
760.00,0.0202
759.00,0.0204
758.00,0.0207
757.00,0.0207
756.00,0.0206
755.00,0.0204
754.00,0.0202
753.00,0.0202
752.00,0.0204
751.00,0.0207
750.00,0.0210
749.00,0.0212
748.00,0.0212
747.00,0.0211
746.00,0.0208
745.00,0.0206
744.00,0.0204
743.00,0.0203
742.00,0.0203
741.00,0.0202
740.00,0.0201
739.00,0.0199
738.00,0.0197
737.00,0.0195
736.00,0.0195
735.00,0.0194
734.00,0.0194
733.00,0.0194
732.00,0.0195
731.00,0.0197
730.00,0.0198
729.00,0.0199
728.00,0.0200
727.00,0.0200
726.00,0.0202
725.00,0.0203
724.00,0.0203
723.00,0.0202
722.00,0.0202
721.00,0.0204
720.00,0.0205
719.00,0.0206
718.00,0.0204
717.00,0.0201
716.00,0.0197
715.00,0.0194
714.00,0.0193
713.00,0.0194
712.00,0.0196
711.00,0.0199
710.00,0.0200
709.00,0.0200
708.00,0.0201
707.00,0.0202
706.00,0.0203
705.00,0.0204
704.00,0.0206
703.00,0.0206
702.00,0.0205
701.00,0.0203
700.00,0.0202
699.00,0.0202
698.00,0.0204
697.00,0.0205
696.00,0.0204
695.00,0.0204
694.00,0.0205
693.00,0.0207
692.00,0.0211
691.00,0.0215
690.00,0.0220
689.00,0.0222
688.00,0.0222
687.00,0.0218
686.00,0.0213
685.00,0.0208
684.00,0.0204
683.00,0.0200
682.00,0.0198
681.00,0.0200
680.00,0.0203
679.00,0.0207
678.00,0.0209
677.00,0.0209
676.00,0.0209
675.00,0.0207
674.00,0.0203
673.00,0.0201
672.00,0.0201
671.00,0.0204
670.00,0.0210
669.00,0.0218
668.00,0.0225
667.00,0.0226
666.00,0.0225
665.00,0.0222
664.00,0.0218
663.00,0.0212
662.00,0.0205
661.00,0.0202
660.00,0.0200
659.00,0.0203
658.00,0.0199
657.00,0.0199
656.00,0.0201
655.00,0.0196
654.00,0.0188
653.00,0.0180
652.00,0.0178
651.00,0.0182
650.00,0.0191
