Created as New Dataset,Monday, April 03 2023
cm-1,A
4000.00,0.0134
3999.00,0.0135
3998.00,0.0135
3997.00,0.0135
3996.00,0.0134
3995.00,0.0134
3994.00,0.0133
3993.00,0.0133
3992.00,0.0134
3991.00,0.0134
3990.00,0.0134
3989.00,0.0134
3988.00,0.0133
3987.00,0.0133
3986.00,0.0133
3985.00,0.0133
3984.00,0.0133
3983.00,0.0134
3982.00,0.0134
3981.00,0.0134
3980.00,0.0134
3979.00,0.0133
3978.00,0.0133
3977.00,0.0133
3976.00,0.0133
3975.00,0.0132
3974.00,0.0132
3973.00,0.0133
3972.00,0.0133
3971.00,0.0134
3970.00,0.0134
3969.00,0.0134
3968.00,0.0134
3967.00,0.0134
3966.00,0.0133
3965.00,0.0133
3964.00,0.0133
3963.00,0.0134
3962.00,0.0134
3961.00,0.0135
3960.00,0.0134
3959.00,0.0134
3958.00,0.0133
3957.00,0.0133
3956.00,0.0133
3955.00,0.0132
3954.00,0.0132
3953.00,0.0132
3952.00,0.0132
3951.00,0.0133
3950.00,0.0135
3949.00,0.0136
3948.00,0.0136
3947.00,0.0137
3946.00,0.0137
3945.00,0.0136
3944.00,0.0135
3943.00,0.0134
3942.00,0.0133
3941.00,0.0133
3940.00,0.0133
3939.00,0.0133
3938.00,0.0133
3937.00,0.0133
3936.00,0.0133
3935.00,0.0134
3934.00,0.0134
3933.00,0.0134
3932.00,0.0134
3931.00,0.0134
3930.00,0.0135
3929.00,0.0135
3928.00,0.0135
3927.00,0.0136
3926.00,0.0136
3925.00,0.0136
3924.00,0.0136
3923.00,0.0136
3922.00,0.0136
3921.00,0.0136
3920.00,0.0135
3919.00,0.0135
3918.00,0.0135
3917.00,0.0136
3916.00,0.0136
3915.00,0.0135
3914.00,0.0135
3913.00,0.0134
3912.00,0.0133
3911.00,0.0133
3910.00,0.0133
3909.00,0.0134
3908.00,0.0134
3907.00,0.0135
3906.00,0.0135
3905.00,0.0135
3904.00,0.0136
3903.00,0.0137
3902.00,0.0140
3901.00,0.0141
3900.00,0.0141
3899.00,0.0139
3898.00,0.0138
3897.00,0.0137
3896.00,0.0136
3895.00,0.0136
3894.00,0.0136
3893.00,0.0136
3892.00,0.0135
3891.00,0.0134
3890.00,0.0134
3889.00,0.0134
3888.00,0.0135
3887.00,0.0134
3886.00,0.0133
3885.00,0.0133
3884.00,0.0135
3883.00,0.0137
3882.00,0.0137
3881.00,0.0136
3880.00,0.0135
3879.00,0.0135
3878.00,0.0137
3877.00,0.0139
3876.00,0.0139
3875.00,0.0137
3874.00,0.0136
3873.00,0.0137
3872.00,0.0139
3871.00,0.0139
3870.00,0.0138
3869.00,0.0137
3868.00,0.0138
3867.00,0.0138
3866.00,0.0138
3865.00,0.0137
3864.00,0.0137
3863.00,0.0139
3862.00,0.0139
3861.00,0.0138
3860.00,0.0137
3859.00,0.0136
3858.00,0.0136
3857.00,0.0137
3856.00,0.0137
3855.00,0.0135
3854.00,0.0133
3853.00,0.0134
3852.00,0.0137
3851.00,0.0138
3850.00,0.0137
3849.00,0.0135
3848.00,0.0134
3847.00,0.0134
3846.00,0.0134
3845.00,0.0135
3844.00,0.0136
3843.00,0.0136
3842.00,0.0137
3841.00,0.0139
3840.00,0.0140
3839.00,0.0140
3838.00,0.0139
3837.00,0.0139
3836.00,0.0138
3835.00,0.0139
3834.00,0.0139
3833.00,0.0139
3832.00,0.0138
3831.00,0.0138
3830.00,0.0138
3829.00,0.0138
3828.00,0.0137
3827.00,0.0136
3826.00,0.0135
3825.00,0.0136
3824.00,0.0139
3823.00,0.0140
3822.00,0.0140
3821.00,0.0138
3820.00,0.0138
3819.00,0.0139
3818.00,0.0139
3817.00,0.0138
3816.00,0.0136
3815.00,0.0135
3814.00,0.0136
3813.00,0.0137
3812.00,0.0135
3811.00,0.0134
3810.00,0.0134
3809.00,0.0134
3808.00,0.0134
3807.00,0.0134
3806.00,0.0136
3805.00,0.0139
3804.00,0.0142
3803.00,0.0142
3802.00,0.0141
3801.00,0.0140
3800.00,0.0140
3799.00,0.0140
3798.00,0.0139
3797.00,0.0137
3796.00,0.0136
3795.00,0.0136
3794.00,0.0136
3793.00,0.0136
3792.00,0.0135
3791.00,0.0135
3790.00,0.0135
3789.00,0.0135
3788.00,0.0136
3787.00,0.0137
3786.00,0.0137
3785.00,0.0137
3784.00,0.0137
3783.00,0.0138
3782.00,0.0138
3781.00,0.0138
3780.00,0.0137
3779.00,0.0136
3778.00,0.0136
3777.00,0.0136
3776.00,0.0136
3775.00,0.0135
3774.00,0.0135
3773.00,0.0135
3772.00,0.0136
3771.00,0.0135
3770.00,0.0135
3769.00,0.0135
3768.00,0.0136
3767.00,0.0136
3766.00,0.0136
3765.00,0.0136
3764.00,0.0137
3763.00,0.0138
3762.00,0.0138
3761.00,0.0138
3760.00,0.0138
3759.00,0.0138
3758.00,0.0138
3757.00,0.0137
3756.00,0.0137
3755.00,0.0137
3754.00,0.0137
3753.00,0.0136
3752.00,0.0135
3751.00,0.0137
3750.00,0.0138
3749.00,0.0139
3748.00,0.0141
3747.00,0.0144
3746.00,0.0145
3745.00,0.0142
3744.00,0.0139
3743.00,0.0139
3742.00,0.0139
3741.00,0.0139
3740.00,0.0139
3739.00,0.0140
3738.00,0.0142
3737.00,0.0142
3736.00,0.0143
3735.00,0.0143
3734.00,0.0144
3733.00,0.0143
3732.00,0.0141
3731.00,0.0138
3730.00,0.0137
3729.00,0.0137
3728.00,0.0137
3727.00,0.0137
3726.00,0.0137
3725.00,0.0138
3724.00,0.0139
3723.00,0.0139
3722.00,0.0139
3721.00,0.0139
3720.00,0.0139
3719.00,0.0139
3718.00,0.0137
3717.00,0.0136
3716.00,0.0136
3715.00,0.0136
3714.00,0.0138
3713.00,0.0139
3712.00,0.0140
3711.00,0.0141
3710.00,0.0141
3709.00,0.0140
3708.00,0.0139
3707.00,0.0139
3706.00,0.0140
3705.00,0.0140
3704.00,0.0140
3703.00,0.0140
3702.00,0.0139
3701.00,0.0140
3700.00,0.0140
3699.00,0.0140
3698.00,0.0140
3697.00,0.0139
3696.00,0.0138
3695.00,0.0138
3694.00,0.0138
3693.00,0.0139
3692.00,0.0140
3691.00,0.0142
3690.00,0.0144
3689.00,0.0145
3688.00,0.0144
3687.00,0.0143
3686.00,0.0141
3685.00,0.0140
3684.00,0.0139
3683.00,0.0138
3682.00,0.0138
3681.00,0.0137
3680.00,0.0136
3679.00,0.0136
3678.00,0.0138
3677.00,0.0138
3676.00,0.0137
3675.00,0.0137
3674.00,0.0138
3673.00,0.0139
3672.00,0.0140
3671.00,0.0140
3670.00,0.0140
3669.00,0.0141
3668.00,0.0141
3667.00,0.0140
3666.00,0.0138
3665.00,0.0137
3664.00,0.0136
3663.00,0.0136
3662.00,0.0136
3661.00,0.0136
3660.00,0.0137
3659.00,0.0139
3658.00,0.0140
3657.00,0.0140
3656.00,0.0140
3655.00,0.0141
3654.00,0.0143
3653.00,0.0144
3652.00,0.0144
3651.00,0.0143
3650.00,0.0143
3649.00,0.0145
3648.00,0.0147
3647.00,0.0146
3646.00,0.0144
3645.00,0.0143
3644.00,0.0142
3643.00,0.0141
3642.00,0.0140
3641.00,0.0140
3640.00,0.0140
3639.00,0.0140
3638.00,0.0140
3637.00,0.0140
3636.00,0.0141
3635.00,0.0141
3634.00,0.0141
3633.00,0.0141
3632.00,0.0143
3631.00,0.0144
3630.00,0.0144
3629.00,0.0145
3628.00,0.0146
3627.00,0.0146
3626.00,0.0145
3625.00,0.0144
3624.00,0.0142
3623.00,0.0142
3622.00,0.0143
3621.00,0.0145
3620.00,0.0146
3619.00,0.0147
3618.00,0.0148
3617.00,0.0148
3616.00,0.0148
3615.00,0.0147
3614.00,0.0146
3613.00,0.0146
3612.00,0.0146
3611.00,0.0146
3610.00,0.0147
3609.00,0.0148
3608.00,0.0148
3607.00,0.0149
3606.00,0.0148
3605.00,0.0146
3604.00,0.0145
3603.00,0.0145
3602.00,0.0146
3601.00,0.0147
3600.00,0.0148
3599.00,0.0148
3598.00,0.0147
3597.00,0.0146
3596.00,0.0146
3595.00,0.0146
3594.00,0.0145
3593.00,0.0145
3592.00,0.0145
3591.00,0.0145
3590.00,0.0146
3589.00,0.0147
3588.00,0.0148
3587.00,0.0150
3586.00,0.0151
3585.00,0.0150
3584.00,0.0149
3583.00,0.0148
3582.00,0.0147
3581.00,0.0147
3580.00,0.0147
3579.00,0.0147
3578.00,0.0147
3577.00,0.0147
3576.00,0.0147
3575.00,0.0147
3574.00,0.0147
3573.00,0.0148
3572.00,0.0148
3571.00,0.0148
3570.00,0.0149
3569.00,0.0149
3568.00,0.0150
3567.00,0.0152
3566.00,0.0153
3565.00,0.0153
3564.00,0.0151
3563.00,0.0150
3562.00,0.0149
3561.00,0.0149
3560.00,0.0149
3559.00,0.0150
3558.00,0.0150
3557.00,0.0151
3556.00,0.0152
3555.00,0.0152
3554.00,0.0152
3553.00,0.0152
3552.00,0.0153
3551.00,0.0153
3550.00,0.0154
3549.00,0.0154
3548.00,0.0155
3547.00,0.0155
3546.00,0.0156
3545.00,0.0156
3544.00,0.0156
3543.00,0.0155
3542.00,0.0155
3541.00,0.0154
3540.00,0.0154
3539.00,0.0153
3538.00,0.0151
3537.00,0.0151
3536.00,0.0151
3535.00,0.0151
3534.00,0.0152
3533.00,0.0153
3532.00,0.0154
3531.00,0.0154
3530.00,0.0154
3529.00,0.0153
3528.00,0.0152
3527.00,0.0151
3526.00,0.0152
3525.00,0.0154
3524.00,0.0156
3523.00,0.0157
3522.00,0.0156
3521.00,0.0155
3520.00,0.0153
3519.00,0.0152
3518.00,0.0151
3517.00,0.0151
3516.00,0.0151
3515.00,0.0151
3514.00,0.0152
3513.00,0.0153
3512.00,0.0154
3511.00,0.0155
3510.00,0.0155
3509.00,0.0155
3508.00,0.0154
3507.00,0.0154
3506.00,0.0155
3505.00,0.0155
3504.00,0.0156
3503.00,0.0156
3502.00,0.0156
3501.00,0.0156
3500.00,0.0156
3499.00,0.0157
3498.00,0.0157
3497.00,0.0157
3496.00,0.0157
3495.00,0.0157
3494.00,0.0156
3493.00,0.0155
3492.00,0.0155
3491.00,0.0155
3490.00,0.0155
3489.00,0.0154
3488.00,0.0155
3487.00,0.0155
3486.00,0.0155
3485.00,0.0155
3484.00,0.0155
3483.00,0.0155
3482.00,0.0155
3481.00,0.0155
3480.00,0.0155
3479.00,0.0155
3478.00,0.0156
3477.00,0.0156
3476.00,0.0156
3475.00,0.0157
3474.00,0.0157
3473.00,0.0157
3472.00,0.0158
3471.00,0.0158
3470.00,0.0158
3469.00,0.0158
3468.00,0.0158
3467.00,0.0158
3466.00,0.0159
3465.00,0.0159
3464.00,0.0160
3463.00,0.0159
3462.00,0.0158
3461.00,0.0157
3460.00,0.0157
3459.00,0.0158
3458.00,0.0158
3457.00,0.0158
3456.00,0.0157
3455.00,0.0157
3454.00,0.0157
3453.00,0.0157
3452.00,0.0158
3451.00,0.0159
3450.00,0.0159
3449.00,0.0160
3448.00,0.0160
3447.00,0.0160
3446.00,0.0160
3445.00,0.0160
3444.00,0.0160
3443.00,0.0159
3442.00,0.0158
3441.00,0.0157
3440.00,0.0156
3439.00,0.0156
3438.00,0.0157
3437.00,0.0157
3436.00,0.0158
3435.00,0.0157
3434.00,0.0157
3433.00,0.0157
3432.00,0.0158
3431.00,0.0158
3430.00,0.0158
3429.00,0.0158
3428.00,0.0158
3427.00,0.0158
3426.00,0.0159
3425.00,0.0160
3424.00,0.0161
3423.00,0.0162
3422.00,0.0162
3421.00,0.0161
3420.00,0.0161
3419.00,0.0161
3418.00,0.0161
3417.00,0.0160
3416.00,0.0159
3415.00,0.0158
3414.00,0.0158
3413.00,0.0158
3412.00,0.0159
3411.00,0.0159
3410.00,0.0160
3409.00,0.0160
3408.00,0.0161
3407.00,0.0161
3406.00,0.0161
3405.00,0.0160
3404.00,0.0160
3403.00,0.0160
3402.00,0.0160
3401.00,0.0160
3400.00,0.0161
3399.00,0.0161
3398.00,0.0161
3397.00,0.0161
3396.00,0.0160
3395.00,0.0160
3394.00,0.0159
3393.00,0.0160
3392.00,0.0160
3391.00,0.0161
3390.00,0.0161
3389.00,0.0161
3388.00,0.0161
3387.00,0.0161
3386.00,0.0161
3385.00,0.0161
3384.00,0.0161
3383.00,0.0162
3382.00,0.0162
3381.00,0.0162
3380.00,0.0162
3379.00,0.0162
3378.00,0.0162
3377.00,0.0162
3376.00,0.0161
3375.00,0.0161
3374.00,0.0161
3373.00,0.0160
3372.00,0.0160
3371.00,0.0160
3370.00,0.0160
3369.00,0.0160
3368.00,0.0161
3367.00,0.0162
3366.00,0.0161
3365.00,0.0161
3364.00,0.0160
3363.00,0.0160
3362.00,0.0161
3361.00,0.0162
3360.00,0.0162
3359.00,0.0163
3358.00,0.0163
3357.00,0.0162
3356.00,0.0162
3355.00,0.0163
3354.00,0.0163
3353.00,0.0163
3352.00,0.0163
3351.00,0.0162
3350.00,0.0162
3349.00,0.0162
3348.00,0.0162
3347.00,0.0162
3346.00,0.0162
3345.00,0.0161
3344.00,0.0161
3343.00,0.0161
3342.00,0.0161
3341.00,0.0162
3340.00,0.0162
3339.00,0.0162
3338.00,0.0162
3337.00,0.0162
3336.00,0.0162
3335.00,0.0162
3334.00,0.0162
3333.00,0.0161
3332.00,0.0161
3331.00,0.0160
3330.00,0.0160
3329.00,0.0160
3328.00,0.0160
3327.00,0.0161
3326.00,0.0162
3325.00,0.0162
3324.00,0.0162
3323.00,0.0162
3322.00,0.0162
3321.00,0.0162
3320.00,0.0162
3319.00,0.0162
3318.00,0.0162
3317.00,0.0162
3316.00,0.0162
3315.00,0.0162
3314.00,0.0161
3313.00,0.0162
3312.00,0.0162
3311.00,0.0162
3310.00,0.0162
3309.00,0.0163
3308.00,0.0164
3307.00,0.0164
3306.00,0.0164
3305.00,0.0164
3304.00,0.0163
3303.00,0.0163
3302.00,0.0162
3301.00,0.0162
3300.00,0.0161
3299.00,0.0161
3298.00,0.0161
3297.00,0.0162
3296.00,0.0163
3295.00,0.0164
3294.00,0.0164
3293.00,0.0163
3292.00,0.0163
3291.00,0.0162
3290.00,0.0162
3289.00,0.0162
3288.00,0.0163
3287.00,0.0163
3286.00,0.0163
3285.00,0.0163
3284.00,0.0164
3283.00,0.0163
3282.00,0.0163
3281.00,0.0163
3280.00,0.0162
3279.00,0.0162
3278.00,0.0162
3277.00,0.0162
3276.00,0.0163
3275.00,0.0163
3274.00,0.0164
3273.00,0.0164
3272.00,0.0164
3271.00,0.0164
3270.00,0.0164
3269.00,0.0165
3268.00,0.0165
3267.00,0.0165
3266.00,0.0164
3265.00,0.0164
3264.00,0.0163
3263.00,0.0162
3262.00,0.0163
3261.00,0.0163
3260.00,0.0163
3259.00,0.0164
3258.00,0.0164
3257.00,0.0163
3256.00,0.0163
3255.00,0.0162
3254.00,0.0162
3253.00,0.0163
3252.00,0.0164
3251.00,0.0164
3250.00,0.0164
3249.00,0.0163
3248.00,0.0163
3247.00,0.0162
3246.00,0.0162
3245.00,0.0162
3244.00,0.0162
3243.00,0.0163
3242.00,0.0162
3241.00,0.0162
3240.00,0.0162
3239.00,0.0162
3238.00,0.0163
3237.00,0.0164
3236.00,0.0165
3235.00,0.0165
3234.00,0.0166
3233.00,0.0165
3232.00,0.0165
3231.00,0.0164
3230.00,0.0163
3229.00,0.0163
3228.00,0.0163
3227.00,0.0163
3226.00,0.0163
3225.00,0.0163
3224.00,0.0163
3223.00,0.0162
3222.00,0.0162
3221.00,0.0162
3220.00,0.0162
3219.00,0.0162
3218.00,0.0162
3217.00,0.0163
3216.00,0.0164
3215.00,0.0164
3214.00,0.0164
3213.00,0.0164
3212.00,0.0163
3211.00,0.0162
3210.00,0.0161
3209.00,0.0161
3208.00,0.0161
3207.00,0.0162
3206.00,0.0163
3205.00,0.0163
3204.00,0.0164
3203.00,0.0164
3202.00,0.0164
3201.00,0.0164
3200.00,0.0164
3199.00,0.0164
3198.00,0.0164
3197.00,0.0164
3196.00,0.0164
3195.00,0.0164
3194.00,0.0164
3193.00,0.0164
3192.00,0.0164
3191.00,0.0163
3190.00,0.0162
3189.00,0.0161
3188.00,0.0161
3187.00,0.0160
3186.00,0.0161
3185.00,0.0161
3184.00,0.0162
3183.00,0.0162
3182.00,0.0163
3181.00,0.0163
3180.00,0.0163
3179.00,0.0162
3178.00,0.0162
3177.00,0.0161
3176.00,0.0161
3175.00,0.0161
3174.00,0.0162
3173.00,0.0162
3172.00,0.0162
3171.00,0.0162
3170.00,0.0162
3169.00,0.0161
3168.00,0.0161
3167.00,0.0161
3166.00,0.0162
3165.00,0.0163
3164.00,0.0164
3163.00,0.0164
3162.00,0.0164
3161.00,0.0163
3160.00,0.0162
3159.00,0.0161
3158.00,0.0160
3157.00,0.0160
3156.00,0.0160
3155.00,0.0161
3154.00,0.0162
3153.00,0.0162
3152.00,0.0162
3151.00,0.0162
3150.00,0.0161
3149.00,0.0161
3148.00,0.0161
3147.00,0.0161
3146.00,0.0161
3145.00,0.0161
3144.00,0.0161
3143.00,0.0161
3142.00,0.0161
3141.00,0.0161
3140.00,0.0161
3139.00,0.0161
3138.00,0.0161
3137.00,0.0161
3136.00,0.0161
3135.00,0.0161
3134.00,0.0161
3133.00,0.0160
3132.00,0.0160
3131.00,0.0161
3130.00,0.0161
3129.00,0.0162
3128.00,0.0162
3127.00,0.0161
3126.00,0.0161
3125.00,0.0162
3124.00,0.0162
3123.00,0.0161
3122.00,0.0161
3121.00,0.0161
3120.00,0.0161
3119.00,0.0161
3118.00,0.0162
3117.00,0.0162
3116.00,0.0161
3115.00,0.0161
3114.00,0.0161
3113.00,0.0161
3112.00,0.0160
3111.00,0.0160
3110.00,0.0160
3109.00,0.0160
3108.00,0.0160
3107.00,0.0160
3106.00,0.0161
3105.00,0.0162
3104.00,0.0162
3103.00,0.0161
3102.00,0.0161
3101.00,0.0160
3100.00,0.0160
3099.00,0.0159
3098.00,0.0159
3097.00,0.0160
3096.00,0.0161
3095.00,0.0162
3094.00,0.0162
3093.00,0.0162
3092.00,0.0162
3091.00,0.0162
3090.00,0.0161
3089.00,0.0160
3088.00,0.0159
3087.00,0.0159
3086.00,0.0160
3085.00,0.0161
3084.00,0.0161
3083.00,0.0161
3082.00,0.0161
3081.00,0.0161
3080.00,0.0161
3079.00,0.0162
3078.00,0.0162
3077.00,0.0162
3076.00,0.0162
3075.00,0.0162
3074.00,0.0162
3073.00,0.0162
3072.00,0.0162
3071.00,0.0162
3070.00,0.0162
3069.00,0.0162
3068.00,0.0162
3067.00,0.0162
3066.00,0.0162
3065.00,0.0161
3064.00,0.0161
3063.00,0.0160
3062.00,0.0160
3061.00,0.0161
3060.00,0.0161
3059.00,0.0161
3058.00,0.0161
3057.00,0.0161
3056.00,0.0161
3055.00,0.0161
3054.00,0.0161
3053.00,0.0161
3052.00,0.0161
3051.00,0.0161
3050.00,0.0162
3049.00,0.0162
3048.00,0.0163
3047.00,0.0163
3046.00,0.0163
3045.00,0.0162
3044.00,0.0162
3043.00,0.0161
3042.00,0.0160
3041.00,0.0160
3040.00,0.0159
3039.00,0.0160
3038.00,0.0160
3037.00,0.0160
3036.00,0.0161
3035.00,0.0161
3034.00,0.0162
3033.00,0.0162
3032.00,0.0162
3031.00,0.0161
3030.00,0.0160
3029.00,0.0160
3028.00,0.0159
3027.00,0.0159
3026.00,0.0159
3025.00,0.0160
3024.00,0.0160
3023.00,0.0160
3022.00,0.0160
3021.00,0.0160
3020.00,0.0160
3019.00,0.0160
3018.00,0.0159
3017.00,0.0159
3016.00,0.0158
3015.00,0.0158
3014.00,0.0158
3013.00,0.0157
3012.00,0.0157
3011.00,0.0157
3010.00,0.0157
3009.00,0.0156
3008.00,0.0154
3007.00,0.0152
3006.00,0.0151
3005.00,0.0151
3004.00,0.0150
3003.00,0.0149
3002.00,0.0147
3001.00,0.0146
3000.00,0.0145
2999.00,0.0144
2998.00,0.0142
2997.00,0.0141
2996.00,0.0140
2995.00,0.0140
2994.00,0.0140
2993.00,0.0139
2992.00,0.0139
2991.00,0.0138
2990.00,0.0137
2989.00,0.0137
2988.00,0.0136
2987.00,0.0134
2986.00,0.0132
2985.00,0.0128
2984.00,0.0125
2983.00,0.0122
2982.00,0.0121
2981.00,0.0122
2980.00,0.0123
2979.00,0.0125
2978.00,0.0128
2977.00,0.0130
2976.00,0.0132
2975.00,0.0132
2974.00,0.0132
2973.00,0.0131
2972.00,0.0131
2971.00,0.0132
2970.00,0.0134
2969.00,0.0136
2968.00,0.0138
2967.00,0.0140
2966.00,0.0141
2965.00,0.0142
2964.00,0.0143
2963.00,0.0145
2962.00,0.0146
2961.00,0.0147
2960.00,0.0148
2959.00,0.0148
2958.00,0.0148
2957.00,0.0149
2956.00,0.0150
2955.00,0.0151
2954.00,0.0152
2953.00,0.0153
2952.00,0.0154
2951.00,0.0155
2950.00,0.0156
2949.00,0.0156
2948.00,0.0156
2947.00,0.0156
2946.00,0.0157
2945.00,0.0157
2944.00,0.0158
2943.00,0.0160
2942.00,0.0162
2941.00,0.0163
2940.00,0.0164
2939.00,0.0164
2938.00,0.0164
2937.00,0.0165
2936.00,0.0167
2935.00,0.0168
2934.00,0.0169
2933.00,0.0170
2932.00,0.0171
2931.00,0.0172
2930.00,0.0173
2929.00,0.0174
2928.00,0.0176
2927.00,0.0177
2926.00,0.0177
2925.00,0.0177
2924.00,0.0177
2923.00,0.0177
2922.00,0.0177
2921.00,0.0177
2920.00,0.0176
2919.00,0.0175
2918.00,0.0174
2917.00,0.0173
2916.00,0.0172
2915.00,0.0171
2914.00,0.0169
2913.00,0.0168
2912.00,0.0167
2911.00,0.0166
2910.00,0.0165
2909.00,0.0165
2908.00,0.0164
2907.00,0.0163
2906.00,0.0163
2905.00,0.0162
2904.00,0.0161
2903.00,0.0161
2902.00,0.0160
2901.00,0.0160
2900.00,0.0160
2899.00,0.0159
2898.00,0.0159
2897.00,0.0158
2896.00,0.0158
2895.00,0.0157
2894.00,0.0157
2893.00,0.0157
2892.00,0.0156
2891.00,0.0156
2890.00,0.0155
2889.00,0.0155
2888.00,0.0155
2887.00,0.0156
2886.00,0.0155
2885.00,0.0155
2884.00,0.0155
2883.00,0.0155
2882.00,0.0155
2881.00,0.0156
2880.00,0.0156
2879.00,0.0157
2878.00,0.0157
2877.00,0.0158
2876.00,0.0158
2875.00,0.0158
2874.00,0.0158
2873.00,0.0158
2872.00,0.0158
2871.00,0.0158
2870.00,0.0159
2869.00,0.0159
2868.00,0.0159
2867.00,0.0160
2866.00,0.0160
2865.00,0.0161
2864.00,0.0162
2863.00,0.0163
2862.00,0.0164
2861.00,0.0165
2860.00,0.0166
2859.00,0.0168
2858.00,0.0169
2857.00,0.0171
2856.00,0.0171
2855.00,0.0171
2854.00,0.0171
2853.00,0.0171
2852.00,0.0171
2851.00,0.0171
2850.00,0.0171
2849.00,0.0171
2848.00,0.0170
2847.00,0.0169
2846.00,0.0168
2845.00,0.0167
2844.00,0.0166
2843.00,0.0165
2842.00,0.0164
2841.00,0.0163
2840.00,0.0162
2839.00,0.0161
2838.00,0.0160
2837.00,0.0160
2836.00,0.0161
2835.00,0.0162
2834.00,0.0162
2833.00,0.0162
2832.00,0.0161
2831.00,0.0160
2830.00,0.0160
2829.00,0.0160
2828.00,0.0160
2827.00,0.0160
2826.00,0.0160
2825.00,0.0160
2824.00,0.0160
2823.00,0.0160
2822.00,0.0160
2821.00,0.0160
2820.00,0.0159
2819.00,0.0159
2818.00,0.0159
2817.00,0.0159
2816.00,0.0159
2815.00,0.0159
2814.00,0.0159
2813.00,0.0159
2812.00,0.0159
2811.00,0.0159
2810.00,0.0159
2809.00,0.0159
2808.00,0.0159
2807.00,0.0158
2806.00,0.0159
2805.00,0.0159
2804.00,0.0159
2803.00,0.0159
2802.00,0.0159
2801.00,0.0159
2800.00,0.0159
2799.00,0.0159
2798.00,0.0159
2797.00,0.0159
2796.00,0.0159
2795.00,0.0159
2794.00,0.0159
2793.00,0.0159
2792.00,0.0159
2791.00,0.0159
2790.00,0.0159
2789.00,0.0160
2788.00,0.0160
2787.00,0.0159
2786.00,0.0159
2785.00,0.0159
2784.00,0.0158
2783.00,0.0158
2782.00,0.0158
2781.00,0.0157
2780.00,0.0156
2779.00,0.0157
2778.00,0.0157
2777.00,0.0158
2776.00,0.0158
2775.00,0.0158
2774.00,0.0158
2773.00,0.0158
2772.00,0.0158
2771.00,0.0157
2770.00,0.0156
2769.00,0.0156
2768.00,0.0156
2767.00,0.0156
2766.00,0.0157
2765.00,0.0157
2764.00,0.0157
2763.00,0.0158
2762.00,0.0158
2761.00,0.0157
2760.00,0.0157
2759.00,0.0157
2758.00,0.0157
2757.00,0.0157
2756.00,0.0157
2755.00,0.0157
2754.00,0.0157
2753.00,0.0157
2752.00,0.0157
2751.00,0.0157
2750.00,0.0158
2749.00,0.0158
2748.00,0.0158
2747.00,0.0158
2746.00,0.0158
2745.00,0.0158
2744.00,0.0158
2743.00,0.0157
2742.00,0.0157
2741.00,0.0157
2740.00,0.0157
2739.00,0.0157
2738.00,0.0157
2737.00,0.0157
2736.00,0.0157
2735.00,0.0157
2734.00,0.0157
2733.00,0.0158
2732.00,0.0158
2731.00,0.0158
2730.00,0.0158
2729.00,0.0157
2728.00,0.0157
2727.00,0.0157
2726.00,0.0157
2725.00,0.0158
2724.00,0.0158
2723.00,0.0157
2722.00,0.0157
2721.00,0.0157
2720.00,0.0157
2719.00,0.0157
2718.00,0.0157
2717.00,0.0157
2716.00,0.0158
2715.00,0.0158
2714.00,0.0158
2713.00,0.0158
2712.00,0.0158
2711.00,0.0158
2710.00,0.0158
2709.00,0.0158
2708.00,0.0157
2707.00,0.0157
2706.00,0.0157
2705.00,0.0157
2704.00,0.0157
2703.00,0.0157
2702.00,0.0156
2701.00,0.0156
2700.00,0.0157
2699.00,0.0157
2698.00,0.0157
2697.00,0.0157
2696.00,0.0157
2695.00,0.0157
2694.00,0.0157
2693.00,0.0157
2692.00,0.0157
2691.00,0.0157
2690.00,0.0157
2689.00,0.0157
2688.00,0.0157
2687.00,0.0157
2686.00,0.0157
2685.00,0.0158
2684.00,0.0158
2683.00,0.0158
2682.00,0.0158
2681.00,0.0157
2680.00,0.0157
2679.00,0.0157
2678.00,0.0156
2677.00,0.0156
2676.00,0.0156
2675.00,0.0156
2674.00,0.0156
2673.00,0.0157
2672.00,0.0157
2671.00,0.0157
2670.00,0.0156
2669.00,0.0156
2668.00,0.0156
2667.00,0.0157
2666.00,0.0157
2665.00,0.0157
2664.00,0.0157
2663.00,0.0157
2662.00,0.0158
2661.00,0.0158
2660.00,0.0158
2659.00,0.0158
2658.00,0.0157
2657.00,0.0157
2656.00,0.0157
2655.00,0.0157
2654.00,0.0157
2653.00,0.0158
2652.00,0.0158
2651.00,0.0158
2650.00,0.0158
2649.00,0.0158
2648.00,0.0158
2647.00,0.0157
2646.00,0.0156
2645.00,0.0156
2644.00,0.0157
2643.00,0.0158
2642.00,0.0158
2641.00,0.0158
2640.00,0.0158
2639.00,0.0158
2638.00,0.0158
2637.00,0.0157
2636.00,0.0157
2635.00,0.0157
2634.00,0.0157
2633.00,0.0158
2632.00,0.0158
2631.00,0.0158
2630.00,0.0157
2629.00,0.0157
2628.00,0.0156
2627.00,0.0156
2626.00,0.0157
2625.00,0.0158
2624.00,0.0158
2623.00,0.0159
2622.00,0.0159
2621.00,0.0159
2620.00,0.0159
2619.00,0.0158
2618.00,0.0158
2617.00,0.0158
2616.00,0.0158
2615.00,0.0158
2614.00,0.0157
2613.00,0.0158
2612.00,0.0158
2611.00,0.0159
2610.00,0.0159
2609.00,0.0158
2608.00,0.0158
2607.00,0.0158
2606.00,0.0159
2605.00,0.0159
2604.00,0.0160
2603.00,0.0160
2602.00,0.0160
2601.00,0.0160
2600.00,0.0159
2599.00,0.0159
2598.00,0.0158
2597.00,0.0158
2596.00,0.0157
2595.00,0.0157
2594.00,0.0158
2593.00,0.0158
2592.00,0.0159
2591.00,0.0160
2590.00,0.0160
2589.00,0.0160
2588.00,0.0160
2587.00,0.0159
2586.00,0.0159
2585.00,0.0158
2584.00,0.0158
2583.00,0.0158
2582.00,0.0159
2581.00,0.0159
2580.00,0.0160
2579.00,0.0160
2578.00,0.0160
2577.00,0.0159
2576.00,0.0158
2575.00,0.0158
2574.00,0.0158
2573.00,0.0159
2572.00,0.0159
2571.00,0.0159
2570.00,0.0159
2569.00,0.0158
2568.00,0.0159
2567.00,0.0160
2566.00,0.0161
2565.00,0.0161
2564.00,0.0161
2563.00,0.0161
2562.00,0.0161
2561.00,0.0162
2560.00,0.0162
2559.00,0.0162
2558.00,0.0161
2557.00,0.0161
2556.00,0.0162
2555.00,0.0162
2554.00,0.0161
2553.00,0.0161
2552.00,0.0161
2551.00,0.0160
2550.00,0.0159
2549.00,0.0158
2548.00,0.0157
2547.00,0.0156
2546.00,0.0156
2545.00,0.0157
2544.00,0.0158
2543.00,0.0158
2542.00,0.0157
2541.00,0.0156
2540.00,0.0155
2539.00,0.0155
2538.00,0.0155
2537.00,0.0155
2536.00,0.0156
2535.00,0.0157
2534.00,0.0158
2533.00,0.0159
2532.00,0.0159
2531.00,0.0159
2530.00,0.0158
2529.00,0.0158
2528.00,0.0158
2527.00,0.0158
2526.00,0.0157
2525.00,0.0157
2524.00,0.0157
2523.00,0.0157
2522.00,0.0157
2521.00,0.0157
2520.00,0.0158
2519.00,0.0158
2518.00,0.0160
2517.00,0.0161
2516.00,0.0161
2515.00,0.0160
2514.00,0.0159
2513.00,0.0158
2512.00,0.0158
2511.00,0.0158
2510.00,0.0159
2509.00,0.0160
2508.00,0.0160
2507.00,0.0160
2506.00,0.0160
2505.00,0.0159
2504.00,0.0159
2503.00,0.0158
2502.00,0.0159
2501.00,0.0160
2500.00,0.0161
2499.00,0.0161
2498.00,0.0161
2497.00,0.0161
2496.00,0.0161
2495.00,0.0161
2494.00,0.0162
2493.00,0.0162
2492.00,0.0162
2491.00,0.0162
2490.00,0.0162
2489.00,0.0162
2488.00,0.0162
2487.00,0.0162
2486.00,0.0162
2485.00,0.0161
2484.00,0.0160
2483.00,0.0159
2482.00,0.0160
2481.00,0.0161
2480.00,0.0161
2479.00,0.0162
2478.00,0.0162
2477.00,0.0161
2476.00,0.0161
2475.00,0.0161
2474.00,0.0161
2473.00,0.0161
2472.00,0.0161
2471.00,0.0161
2470.00,0.0161
2469.00,0.0161
2468.00,0.0161
2467.00,0.0161
2466.00,0.0161
2465.00,0.0161
2464.00,0.0160
2463.00,0.0160
2462.00,0.0160
2461.00,0.0160
2460.00,0.0161
2459.00,0.0161
2458.00,0.0162
2457.00,0.0162
2456.00,0.0161
2455.00,0.0162
2454.00,0.0162
2453.00,0.0164
2452.00,0.0165
2451.00,0.0165
2450.00,0.0164
2449.00,0.0163
2448.00,0.0162
2447.00,0.0162
2446.00,0.0162
2445.00,0.0162
2444.00,0.0161
2443.00,0.0161
2442.00,0.0161
2441.00,0.0161
2440.00,0.0162
2439.00,0.0162
2438.00,0.0162
2437.00,0.0162
2436.00,0.0162
2435.00,0.0161
2434.00,0.0161
2433.00,0.0161
2432.00,0.0161
2431.00,0.0162
2430.00,0.0163
2429.00,0.0163
2428.00,0.0163
2427.00,0.0162
2426.00,0.0162
2425.00,0.0162
2424.00,0.0162
2423.00,0.0162
2422.00,0.0162
2421.00,0.0162
2420.00,0.0162
2419.00,0.0162
2418.00,0.0162
2417.00,0.0161
2416.00,0.0161
2415.00,0.0161
2414.00,0.0161
2413.00,0.0162
2412.00,0.0162
2411.00,0.0162
2410.00,0.0162
2409.00,0.0163
2408.00,0.0163
2407.00,0.0163
2406.00,0.0162
2405.00,0.0162
2404.00,0.0162
2403.00,0.0162
2402.00,0.0162
2401.00,0.0162
2400.00,0.0162
2399.00,0.0162
2398.00,0.0163
2397.00,0.0162
2396.00,0.0162
2395.00,0.0161
2394.00,0.0161
2393.00,0.0161
2392.00,0.0161
2391.00,0.0161
2390.00,0.0161
2389.00,0.0161
2388.00,0.0161
2387.00,0.0162
2386.00,0.0162
2385.00,0.0161
2384.00,0.0161
2383.00,0.0160
2382.00,0.0160
2381.00,0.0161
2380.00,0.0162
2379.00,0.0162
2378.00,0.0162
2377.00,0.0162
2376.00,0.0162
2375.00,0.0161
2374.00,0.0161
2373.00,0.0160
2372.00,0.0160
2371.00,0.0159
2370.00,0.0157
2369.00,0.0155
2368.00,0.0154
2367.00,0.0155
2366.00,0.0158
2365.00,0.0161
2364.00,0.0162
2363.00,0.0161
2362.00,0.0159
2361.00,0.0159
2360.00,0.0159
2359.00,0.0160
2358.00,0.0161
2357.00,0.0161
2356.00,0.0161
2355.00,0.0160
2354.00,0.0160
2353.00,0.0160
2352.00,0.0160
2351.00,0.0160
2350.00,0.0160
2349.00,0.0160
2348.00,0.0159
2347.00,0.0159
2346.00,0.0158
2345.00,0.0159
2344.00,0.0161
2343.00,0.0163
2342.00,0.0164
2341.00,0.0164
2340.00,0.0163
2339.00,0.0162
2338.00,0.0159
2337.00,0.0157
2336.00,0.0158
2335.00,0.0159
2334.00,0.0161
2333.00,0.0161
2332.00,0.0161
2331.00,0.0159
2330.00,0.0158
2329.00,0.0158
2328.00,0.0159
2327.00,0.0161
2326.00,0.0162
2325.00,0.0162
2324.00,0.0162
2323.00,0.0161
2322.00,0.0161
2321.00,0.0161
2320.00,0.0160
2319.00,0.0160
2318.00,0.0160
2317.00,0.0160
2316.00,0.0160
2315.00,0.0160
2314.00,0.0160
2313.00,0.0161
2312.00,0.0161
2311.00,0.0162
2310.00,0.0163
2309.00,0.0164
2308.00,0.0165
2307.00,0.0164
2306.00,0.0163
2305.00,0.0162
2304.00,0.0162
2303.00,0.0161
2302.00,0.0160
2301.00,0.0160
2300.00,0.0161
2299.00,0.0161
2298.00,0.0162
2297.00,0.0162
2296.00,0.0162
2295.00,0.0162
2294.00,0.0163
2293.00,0.0164
2292.00,0.0166
2291.00,0.0166
2290.00,0.0165
2289.00,0.0164
2288.00,0.0163
2287.00,0.0164
2286.00,0.0166
2285.00,0.0167
2284.00,0.0168
2283.00,0.0168
2282.00,0.0168
2281.00,0.0167
2280.00,0.0166
2279.00,0.0166
2278.00,0.0167
2277.00,0.0167
2276.00,0.0167
2275.00,0.0166
2274.00,0.0164
2273.00,0.0162
2272.00,0.0162
2271.00,0.0162
2270.00,0.0163
2269.00,0.0163
2268.00,0.0163
2267.00,0.0164
2266.00,0.0164
2265.00,0.0165
2264.00,0.0166
2263.00,0.0166
2262.00,0.0166
2261.00,0.0165
2260.00,0.0165
2259.00,0.0164
2258.00,0.0163
2257.00,0.0161
2256.00,0.0160
2255.00,0.0161
2254.00,0.0162
2253.00,0.0163
2252.00,0.0163
2251.00,0.0163
2250.00,0.0163
2249.00,0.0163
2248.00,0.0163
2247.00,0.0163
2246.00,0.0165
2245.00,0.0166
2244.00,0.0166
2243.00,0.0166
2242.00,0.0165
2241.00,0.0164
2240.00,0.0163
2239.00,0.0162
2238.00,0.0161
2237.00,0.0161
2236.00,0.0161
2235.00,0.0162
2234.00,0.0163
2233.00,0.0163
2232.00,0.0163
2231.00,0.0162
2230.00,0.0160
2229.00,0.0159
2228.00,0.0159
2227.00,0.0161
2226.00,0.0162
2225.00,0.0162
2224.00,0.0161
2223.00,0.0160
2222.00,0.0159
2221.00,0.0159
2220.00,0.0160
2219.00,0.0161
2218.00,0.0162
2217.00,0.0162
2216.00,0.0163
2215.00,0.0164
2214.00,0.0164
2213.00,0.0164
2212.00,0.0162
2211.00,0.0161
2210.00,0.0160
2209.00,0.0161
2208.00,0.0163
2207.00,0.0164
2206.00,0.0164
2205.00,0.0163
2204.00,0.0162
2203.00,0.0161
2202.00,0.0161
2201.00,0.0161
2200.00,0.0160
2199.00,0.0160
2198.00,0.0160
2197.00,0.0160
2196.00,0.0161
2195.00,0.0160
2194.00,0.0160
2193.00,0.0159
2192.00,0.0158
2191.00,0.0156
2190.00,0.0154
2189.00,0.0152
2188.00,0.0153
2187.00,0.0156
2186.00,0.0161
2185.00,0.0163
2184.00,0.0161
2183.00,0.0159
2182.00,0.0157
2181.00,0.0157
2180.00,0.0158
2179.00,0.0159
2178.00,0.0161
2177.00,0.0163
2176.00,0.0163
2175.00,0.0163
2174.00,0.0162
2173.00,0.0161
2172.00,0.0161
2171.00,0.0162
2170.00,0.0163
2169.00,0.0164
2168.00,0.0163
2167.00,0.0161
2166.00,0.0161
2165.00,0.0163
2164.00,0.0165
2163.00,0.0166
2162.00,0.0166
2161.00,0.0164
2160.00,0.0160
2159.00,0.0156
2158.00,0.0153
2157.00,0.0152
2156.00,0.0153
2155.00,0.0155
2154.00,0.0158
2153.00,0.0161
2152.00,0.0162
2151.00,0.0161
2150.00,0.0159
2149.00,0.0157
2148.00,0.0157
2147.00,0.0159
2146.00,0.0162
2145.00,0.0164
2144.00,0.0165
2143.00,0.0165
2142.00,0.0167
2141.00,0.0168
2140.00,0.0167
2139.00,0.0166
2138.00,0.0163
2137.00,0.0161
2136.00,0.0160
2135.00,0.0159
2134.00,0.0160
2133.00,0.0162
2132.00,0.0162
2131.00,0.0161
2130.00,0.0161
2129.00,0.0162
2128.00,0.0164
2127.00,0.0166
2126.00,0.0166
2125.00,0.0165
2124.00,0.0164
2123.00,0.0163
2122.00,0.0162
2121.00,0.0162
2120.00,0.0163
2119.00,0.0163
2118.00,0.0163
2117.00,0.0163
2116.00,0.0161
2115.00,0.0159
2114.00,0.0157
2113.00,0.0156
2112.00,0.0157
2111.00,0.0159
2110.00,0.0162
2109.00,0.0164
2108.00,0.0166
2107.00,0.0167
2106.00,0.0168
2105.00,0.0167
2104.00,0.0166
2103.00,0.0165
2102.00,0.0165
2101.00,0.0164
2100.00,0.0162
2099.00,0.0160
2098.00,0.0159
2097.00,0.0160
2096.00,0.0161
2095.00,0.0162
2094.00,0.0163
2093.00,0.0164
2092.00,0.0164
2091.00,0.0163
2090.00,0.0163
2089.00,0.0162
2088.00,0.0163
2087.00,0.0163
2086.00,0.0164
2085.00,0.0165
2084.00,0.0166
2083.00,0.0166
2082.00,0.0165
2081.00,0.0165
2080.00,0.0165
2079.00,0.0166
2078.00,0.0166
2077.00,0.0166
2076.00,0.0166
2075.00,0.0167
2074.00,0.0166
2073.00,0.0166
2072.00,0.0166
2071.00,0.0167
2070.00,0.0167
2069.00,0.0165
2068.00,0.0162
2067.00,0.0160
2066.00,0.0160
2065.00,0.0161
2064.00,0.0162
2063.00,0.0163
2062.00,0.0164
2061.00,0.0164
2060.00,0.0164
2059.00,0.0163
2058.00,0.0162
2057.00,0.0162
2056.00,0.0163
2055.00,0.0163
2054.00,0.0164
2053.00,0.0165
2052.00,0.0165
2051.00,0.0164
2050.00,0.0162
2049.00,0.0161
2048.00,0.0161
2047.00,0.0162
2046.00,0.0164
2045.00,0.0166
2044.00,0.0167
2043.00,0.0168
2042.00,0.0167
2041.00,0.0164
2040.00,0.0160
2039.00,0.0158
2038.00,0.0158
2037.00,0.0162
2036.00,0.0166
2035.00,0.0168
2034.00,0.0168
2033.00,0.0168
2032.00,0.0169
2031.00,0.0171
2030.00,0.0171
2029.00,0.0168
2028.00,0.0165
2027.00,0.0163
2026.00,0.0162
2025.00,0.0161
2024.00,0.0158
2023.00,0.0157
2022.00,0.0156
2021.00,0.0157
2020.00,0.0158
2019.00,0.0158
2018.00,0.0156
2017.00,0.0156
2016.00,0.0156
2015.00,0.0158
2014.00,0.0159
2013.00,0.0159
2012.00,0.0158
2011.00,0.0158
2010.00,0.0159
2009.00,0.0160
2008.00,0.0161
2007.00,0.0161
2006.00,0.0161
2005.00,0.0161
2004.00,0.0161
2003.00,0.0162
2002.00,0.0164
2001.00,0.0166
2000.00,0.0167
1999.00,0.0165
1998.00,0.0163
1997.00,0.0164
1996.00,0.0166
1995.00,0.0168
1994.00,0.0170
1993.00,0.0171
1992.00,0.0170
1991.00,0.0168
1990.00,0.0165
1989.00,0.0162
1988.00,0.0161
1987.00,0.0161
1986.00,0.0161
1985.00,0.0163
1984.00,0.0163
1983.00,0.0164
1982.00,0.0163
1981.00,0.0162
1980.00,0.0159
1979.00,0.0156
1978.00,0.0153
1977.00,0.0151
1976.00,0.0153
1975.00,0.0157
1974.00,0.0162
1973.00,0.0165
1972.00,0.0164
1971.00,0.0162
1970.00,0.0160
1969.00,0.0160
1968.00,0.0161
1967.00,0.0160
1966.00,0.0158
1965.00,0.0157
1964.00,0.0157
1963.00,0.0158
1962.00,0.0160
1961.00,0.0162
1960.00,0.0163
1959.00,0.0165
1958.00,0.0166
1957.00,0.0165
1956.00,0.0163
1955.00,0.0162
1954.00,0.0163
1953.00,0.0164
1952.00,0.0164
1951.00,0.0163
1950.00,0.0162
1949.00,0.0161
1948.00,0.0161
1947.00,0.0162
1946.00,0.0162
1945.00,0.0161
1944.00,0.0159
1943.00,0.0157
1942.00,0.0157
1941.00,0.0158
1940.00,0.0158
1939.00,0.0157
1938.00,0.0156
1937.00,0.0156
1936.00,0.0157
1935.00,0.0156
1934.00,0.0156
1933.00,0.0156
1932.00,0.0157
1931.00,0.0159
1930.00,0.0161
1929.00,0.0163
1928.00,0.0166
1927.00,0.0167
1926.00,0.0168
1925.00,0.0167
1924.00,0.0166
1923.00,0.0165
1922.00,0.0164
1921.00,0.0164
1920.00,0.0162
1919.00,0.0161
1918.00,0.0160
1917.00,0.0161
1916.00,0.0161
1915.00,0.0162
1914.00,0.0163
1913.00,0.0163
1912.00,0.0163
1911.00,0.0163
1910.00,0.0163
1909.00,0.0162
1908.00,0.0161
1907.00,0.0161
1906.00,0.0162
1905.00,0.0163
1904.00,0.0164
1903.00,0.0164
1902.00,0.0164
1901.00,0.0163
1900.00,0.0163
1899.00,0.0164
1898.00,0.0165
1897.00,0.0165
1896.00,0.0163
1895.00,0.0162
1894.00,0.0161
1893.00,0.0161
1892.00,0.0162
1891.00,0.0163
1890.00,0.0164
1889.00,0.0164
1888.00,0.0163
1887.00,0.0162
1886.00,0.0161
1885.00,0.0161
1884.00,0.0162
1883.00,0.0162
1882.00,0.0162
1881.00,0.0162
1880.00,0.0163
1879.00,0.0163
1878.00,0.0162
1877.00,0.0161
1876.00,0.0161
1875.00,0.0162
1874.00,0.0163
1873.00,0.0164
1872.00,0.0165
1871.00,0.0165
1870.00,0.0165
1869.00,0.0164
1868.00,0.0164
1867.00,0.0164
1866.00,0.0164
1865.00,0.0164
1864.00,0.0163
1863.00,0.0163
1862.00,0.0162
1861.00,0.0161
1860.00,0.0161
1859.00,0.0160
1858.00,0.0161
1857.00,0.0161
1856.00,0.0161
1855.00,0.0162
1854.00,0.0162
1853.00,0.0162
1852.00,0.0162
1851.00,0.0162
1850.00,0.0163
1849.00,0.0163
1848.00,0.0163
1847.00,0.0163
1846.00,0.0163
1845.00,0.0163
1844.00,0.0162
1843.00,0.0162
1842.00,0.0162
1841.00,0.0163
1840.00,0.0163
1839.00,0.0163
1838.00,0.0163
1837.00,0.0163
1836.00,0.0163
1835.00,0.0163
1834.00,0.0162
1833.00,0.0162
1832.00,0.0163
1831.00,0.0163
1830.00,0.0164
1829.00,0.0164
1828.00,0.0164
1827.00,0.0163
1826.00,0.0163
1825.00,0.0163
1824.00,0.0162
1823.00,0.0162
1822.00,0.0162
1821.00,0.0162
1820.00,0.0162
1819.00,0.0162
1818.00,0.0162
1817.00,0.0162
1816.00,0.0162
1815.00,0.0162
1814.00,0.0161
1813.00,0.0161
1812.00,0.0162
1811.00,0.0162
1810.00,0.0162
1809.00,0.0162
1808.00,0.0162
1807.00,0.0162
1806.00,0.0162
1805.00,0.0162
1804.00,0.0162
1803.00,0.0162
1802.00,0.0161
1801.00,0.0161
1800.00,0.0161
1799.00,0.0160
1798.00,0.0161
1797.00,0.0161
1796.00,0.0161
1795.00,0.0161
1794.00,0.0160
1793.00,0.0160
1792.00,0.0161
1791.00,0.0161
1790.00,0.0161
1789.00,0.0161
1788.00,0.0160
1787.00,0.0160
1786.00,0.0160
1785.00,0.0160
1784.00,0.0160
1783.00,0.0161
1782.00,0.0161
1781.00,0.0160
1780.00,0.0159
1779.00,0.0159
1778.00,0.0159
1777.00,0.0160
1776.00,0.0160
1775.00,0.0160
1774.00,0.0160
1773.00,0.0159
1772.00,0.0158
1771.00,0.0157
1770.00,0.0158
1769.00,0.0158
1768.00,0.0158
1767.00,0.0157
1766.00,0.0157
1765.00,0.0158
1764.00,0.0158
1763.00,0.0158
1762.00,0.0157
1761.00,0.0157
1760.00,0.0157
1759.00,0.0157
1758.00,0.0157
1757.00,0.0157
1756.00,0.0158
1755.00,0.0159
1754.00,0.0160
1753.00,0.0160
1752.00,0.0159
1751.00,0.0158
1750.00,0.0158
1749.00,0.0159
1748.00,0.0160
1747.00,0.0161
1746.00,0.0162
1745.00,0.0162
1744.00,0.0162
1743.00,0.0162
1742.00,0.0162
1741.00,0.0161
1740.00,0.0161
1739.00,0.0160
1738.00,0.0160
1737.00,0.0160
1736.00,0.0159
1735.00,0.0158
1734.00,0.0156
1733.00,0.0156
1732.00,0.0157
1731.00,0.0157
1730.00,0.0158
1729.00,0.0158
1728.00,0.0157
1727.00,0.0157
1726.00,0.0157
1725.00,0.0158
1724.00,0.0158
1723.00,0.0158
1722.00,0.0158
1721.00,0.0158
1720.00,0.0157
1719.00,0.0155
1718.00,0.0153
1717.00,0.0154
1716.00,0.0155
1715.00,0.0156
1714.00,0.0157
1713.00,0.0159
1712.00,0.0159
1711.00,0.0159
1710.00,0.0159
1709.00,0.0159
1708.00,0.0159
1707.00,0.0158
1706.00,0.0158
1705.00,0.0157
1704.00,0.0158
1703.00,0.0158
1702.00,0.0158
1701.00,0.0156
1700.00,0.0154
1699.00,0.0153
1698.00,0.0154
1697.00,0.0155
1696.00,0.0155
1695.00,0.0155
1694.00,0.0154
1693.00,0.0155
1692.00,0.0155
1691.00,0.0155
1690.00,0.0156
1689.00,0.0156
1688.00,0.0157
1687.00,0.0157
1686.00,0.0156
1685.00,0.0154
1684.00,0.0153
1683.00,0.0154
1682.00,0.0154
1681.00,0.0155
1680.00,0.0154
1679.00,0.0154
1678.00,0.0155
1677.00,0.0156
1676.00,0.0156
1675.00,0.0156
1674.00,0.0156
1673.00,0.0156
1672.00,0.0156
1671.00,0.0156
1670.00,0.0155
1669.00,0.0156
1668.00,0.0155
1667.00,0.0155
1666.00,0.0155
1665.00,0.0154
1664.00,0.0154
1663.00,0.0153
1662.00,0.0153
1661.00,0.0154
1660.00,0.0156
1659.00,0.0157
1658.00,0.0158
1657.00,0.0158
1656.00,0.0157
1655.00,0.0154
1654.00,0.0150
1653.00,0.0149
1652.00,0.0151
1651.00,0.0152
1650.00,0.0153
1649.00,0.0154
1648.00,0.0154
1647.00,0.0154
1646.00,0.0155
1645.00,0.0156
1644.00,0.0157
1643.00,0.0157
1642.00,0.0157
1641.00,0.0157
1640.00,0.0157
1639.00,0.0157
1638.00,0.0157
1637.00,0.0158
1636.00,0.0158
1635.00,0.0159
1634.00,0.0158
1633.00,0.0157
1632.00,0.0155
1631.00,0.0154
1630.00,0.0154
1629.00,0.0155
1628.00,0.0155
1627.00,0.0155
1626.00,0.0156
1625.00,0.0157
1624.00,0.0157
1623.00,0.0156
1622.00,0.0156
1621.00,0.0156
1620.00,0.0156
1619.00,0.0156
1618.00,0.0155
1617.00,0.0155
1616.00,0.0155
1615.00,0.0155
1614.00,0.0155
1613.00,0.0155
1612.00,0.0155
1611.00,0.0156
1610.00,0.0156
1609.00,0.0156
1608.00,0.0156
1607.00,0.0156
1606.00,0.0157
1605.00,0.0157
1604.00,0.0157
1603.00,0.0157
1602.00,0.0156
1601.00,0.0155
1600.00,0.0154
1599.00,0.0154
1598.00,0.0155
1597.00,0.0155
1596.00,0.0156
1595.00,0.0157
1594.00,0.0157
1593.00,0.0158
1592.00,0.0157
1591.00,0.0157
1590.00,0.0157
1589.00,0.0157
1588.00,0.0157
1587.00,0.0158
1586.00,0.0159
1585.00,0.0158
1584.00,0.0158
1583.00,0.0158
1582.00,0.0158
1581.00,0.0158
1580.00,0.0158
1579.00,0.0159
1578.00,0.0159
1577.00,0.0159
1576.00,0.0159
1575.00,0.0159
1574.00,0.0158
1573.00,0.0158
1572.00,0.0158
1571.00,0.0158
1570.00,0.0158
1569.00,0.0159
1568.00,0.0159
1567.00,0.0159
1566.00,0.0159
1565.00,0.0159
1564.00,0.0158
1563.00,0.0158
1562.00,0.0159
1561.00,0.0159
1560.00,0.0159
1559.00,0.0160
1558.00,0.0160
1557.00,0.0158
1556.00,0.0157
1555.00,0.0158
1554.00,0.0159
1553.00,0.0160
1552.00,0.0161
1551.00,0.0162
1550.00,0.0162
1549.00,0.0161
1548.00,0.0160
1547.00,0.0160
1546.00,0.0160
1545.00,0.0160
1544.00,0.0160
1543.00,0.0160
1542.00,0.0159
1541.00,0.0160
1540.00,0.0162
1539.00,0.0162
1538.00,0.0162
1537.00,0.0161
1536.00,0.0161
1535.00,0.0161
1534.00,0.0161
1533.00,0.0161
1532.00,0.0161
1531.00,0.0161
1530.00,0.0161
1529.00,0.0161
1528.00,0.0161
1527.00,0.0160
1526.00,0.0158
1525.00,0.0157
1524.00,0.0157
1523.00,0.0157
1522.00,0.0157
1521.00,0.0158
1520.00,0.0160
1519.00,0.0161
1518.00,0.0161
1517.00,0.0161
1516.00,0.0160
1515.00,0.0159
1514.00,0.0159
1513.00,0.0158
1512.00,0.0158
1511.00,0.0158
1510.00,0.0158
1509.00,0.0158
1508.00,0.0158
1507.00,0.0159
1506.00,0.0160
1505.00,0.0159
1504.00,0.0158
1503.00,0.0158
1502.00,0.0158
1501.00,0.0158
1500.00,0.0158
1499.00,0.0158
1498.00,0.0158
1497.00,0.0159
1496.00,0.0160
1495.00,0.0160
1494.00,0.0159
1493.00,0.0158
1492.00,0.0157
1491.00,0.0157
1490.00,0.0157
1489.00,0.0159
1488.00,0.0159
1487.00,0.0159
1486.00,0.0158
1485.00,0.0157
1484.00,0.0156
1483.00,0.0155
1482.00,0.0155
1481.00,0.0156
1480.00,0.0156
1479.00,0.0155
1478.00,0.0155
1477.00,0.0155
1476.00,0.0154
1475.00,0.0153
1474.00,0.0152
1473.00,0.0153
1472.00,0.0155
1471.00,0.0156
1470.00,0.0158
1469.00,0.0159
1468.00,0.0160
1467.00,0.0160
1466.00,0.0160
1465.00,0.0159
1464.00,0.0158
1463.00,0.0157
1462.00,0.0156
1461.00,0.0156
1460.00,0.0156
1459.00,0.0156
1458.00,0.0155
1457.00,0.0155
1456.00,0.0155
1455.00,0.0155
1454.00,0.0156
1453.00,0.0156
1452.00,0.0156
1451.00,0.0156
1450.00,0.0157
1449.00,0.0157
1448.00,0.0157
1447.00,0.0157
1446.00,0.0157
1445.00,0.0156
1444.00,0.0156
1443.00,0.0155
1442.00,0.0154
1441.00,0.0153
1440.00,0.0154
1439.00,0.0154
1438.00,0.0154
1437.00,0.0155
1436.00,0.0155
1435.00,0.0154
1434.00,0.0154
1433.00,0.0154
1432.00,0.0153
1431.00,0.0153
1430.00,0.0152
1429.00,0.0151
1428.00,0.0151
1427.00,0.0151
1426.00,0.0151
1425.00,0.0151
1424.00,0.0151
1423.00,0.0150
1422.00,0.0150
1421.00,0.0150
1420.00,0.0150
1419.00,0.0151
1418.00,0.0152
1417.00,0.0152
1416.00,0.0152
1415.00,0.0152
1414.00,0.0150
1413.00,0.0148
1412.00,0.0147
1411.00,0.0146
1410.00,0.0145
1409.00,0.0145
1408.00,0.0145
1407.00,0.0144
1406.00,0.0144
1405.00,0.0143
1404.00,0.0142
1403.00,0.0141
1402.00,0.0140
1401.00,0.0139
1400.00,0.0138
1399.00,0.0137
1398.00,0.0136
1397.00,0.0136
1396.00,0.0136
1395.00,0.0135
1394.00,0.0134
1393.00,0.0133
1392.00,0.0133
1391.00,0.0133
1390.00,0.0133
1389.00,0.0133
1388.00,0.0132
1387.00,0.0132
1386.00,0.0132
1385.00,0.0131
1384.00,0.0131
1383.00,0.0131
1382.00,0.0131
1381.00,0.0132
1380.00,0.0133
1379.00,0.0133
1378.00,0.0134
1377.00,0.0134
1376.00,0.0135
1375.00,0.0135
1374.00,0.0136
1373.00,0.0136
1372.00,0.0136
1371.00,0.0136
1370.00,0.0136
1369.00,0.0137
1368.00,0.0137
1367.00,0.0137
1366.00,0.0138
1365.00,0.0138
1364.00,0.0137
1363.00,0.0138
1362.00,0.0138
1361.00,0.0138
1360.00,0.0138
1359.00,0.0139
1358.00,0.0139
1357.00,0.0140
1356.00,0.0141
1355.00,0.0141
1354.00,0.0141
1353.00,0.0141
1352.00,0.0141
1351.00,0.0140
1350.00,0.0140
1349.00,0.0139
1348.00,0.0139
1347.00,0.0139
1346.00,0.0139
1345.00,0.0139
1344.00,0.0139
1343.00,0.0139
1342.00,0.0139
1341.00,0.0140
1340.00,0.0141
1339.00,0.0142
1338.00,0.0142
1337.00,0.0142
1336.00,0.0142
1335.00,0.0141
1334.00,0.0141
1333.00,0.0140
1332.00,0.0140
1331.00,0.0140
1330.00,0.0141
1329.00,0.0141
1328.00,0.0141
1327.00,0.0141
1326.00,0.0141
1325.00,0.0141
1324.00,0.0141
1323.00,0.0142
1322.00,0.0144
1321.00,0.0144
1320.00,0.0145
1319.00,0.0144
1318.00,0.0143
1317.00,0.0142
1316.00,0.0141
1315.00,0.0141
1314.00,0.0141
1313.00,0.0142
1312.00,0.0143
1311.00,0.0144
1310.00,0.0144
1309.00,0.0144
1308.00,0.0144
1307.00,0.0143
1306.00,0.0143
1305.00,0.0143
1304.00,0.0144
1303.00,0.0145
1302.00,0.0145
1301.00,0.0145
1300.00,0.0145
1299.00,0.0144
1298.00,0.0143
1297.00,0.0142
1296.00,0.0141
1295.00,0.0141
1294.00,0.0142
1293.00,0.0143
1292.00,0.0144
1291.00,0.0144
1290.00,0.0143
1289.00,0.0143
1288.00,0.0142
1287.00,0.0142
1286.00,0.0142
1285.00,0.0142
1284.00,0.0142
1283.00,0.0142
1282.00,0.0142
1281.00,0.0141
1280.00,0.0141
1279.00,0.0140
1278.00,0.0140
1277.00,0.0140
1276.00,0.0140
1275.00,0.0140
1274.00,0.0140
1273.00,0.0140
1272.00,0.0140
1271.00,0.0139
1270.00,0.0139
1269.00,0.0139
1268.00,0.0139
1267.00,0.0139
1266.00,0.0139
1265.00,0.0140
1264.00,0.0140
1263.00,0.0139
1262.00,0.0139
1261.00,0.0139
1260.00,0.0140
1259.00,0.0140
1258.00,0.0141
1257.00,0.0142
1256.00,0.0141
1255.00,0.0141
1254.00,0.0141
1253.00,0.0142
1252.00,0.0143
1251.00,0.0143
1250.00,0.0143
1249.00,0.0144
1248.00,0.0145
1247.00,0.0147
1246.00,0.0149
1245.00,0.0151
1244.00,0.0153
1243.00,0.0155
1242.00,0.0155
1241.00,0.0155
1240.00,0.0156
1239.00,0.0157
1238.00,0.0159
1237.00,0.0161
1236.00,0.0163
1235.00,0.0165
1234.00,0.0166
1233.00,0.0168
1232.00,0.0169
1231.00,0.0170
1230.00,0.0172
1229.00,0.0173
1228.00,0.0175
1227.00,0.0177
1226.00,0.0178
1225.00,0.0179
1224.00,0.0180
1223.00,0.0181
1222.00,0.0182
1221.00,0.0184
1220.00,0.0186
1219.00,0.0187
1218.00,0.0188
1217.00,0.0190
1216.00,0.0191
1215.00,0.0192
1214.00,0.0193
1213.00,0.0194
1212.00,0.0195
1211.00,0.0197
1210.00,0.0199
1209.00,0.0200
1208.00,0.0202
1207.00,0.0202
1206.00,0.0203
1205.00,0.0204
1204.00,0.0205
1203.00,0.0206
1202.00,0.0207
1201.00,0.0208
1200.00,0.0209
1199.00,0.0211
1198.00,0.0212
1197.00,0.0213
1196.00,0.0213
1195.00,0.0214
1194.00,0.0214
1193.00,0.0215
1192.00,0.0217
1191.00,0.0218
1190.00,0.0218
1189.00,0.0217
1188.00,0.0217
1187.00,0.0217
1186.00,0.0218
1185.00,0.0219
1184.00,0.0220
1183.00,0.0219
1182.00,0.0219
1181.00,0.0218
1180.00,0.0218
1179.00,0.0219
1178.00,0.0220
1177.00,0.0221
1176.00,0.0221
1175.00,0.0222
1174.00,0.0223
1173.00,0.0224
1172.00,0.0225
1171.00,0.0225
1170.00,0.0225
1169.00,0.0225
1168.00,0.0225
1167.00,0.0226
1166.00,0.0226
1165.00,0.0227
1164.00,0.0228
1163.00,0.0228
1162.00,0.0229
1161.00,0.0229
1160.00,0.0230
1159.00,0.0230
1158.00,0.0230
1157.00,0.0230
1156.00,0.0231
1155.00,0.0233
1154.00,0.0233
1153.00,0.0233
1152.00,0.0233
1151.00,0.0232
1150.00,0.0233
1149.00,0.0233
1148.00,0.0234
1147.00,0.0235
1146.00,0.0236
1145.00,0.0237
1144.00,0.0238
1143.00,0.0240
1142.00,0.0242
1141.00,0.0243
1140.00,0.0243
1139.00,0.0243
1138.00,0.0244
1137.00,0.0245
1136.00,0.0246
1135.00,0.0247
1134.00,0.0249
1133.00,0.0250
1132.00,0.0251
1131.00,0.0251
1130.00,0.0252
1129.00,0.0253
1128.00,0.0255
1127.00,0.0256
1126.00,0.0254
1125.00,0.0253
1124.00,0.0254
1123.00,0.0257
1122.00,0.0261
1121.00,0.0265
1120.00,0.0268
1119.00,0.0269
1118.00,0.0269
1117.00,0.0269
1116.00,0.0270
1115.00,0.0273
1114.00,0.0274
1113.00,0.0274
1112.00,0.0274
1111.00,0.0274
1110.00,0.0275
1109.00,0.0277
1108.00,0.0279
1107.00,0.0280
1106.00,0.0281
1105.00,0.0281
1104.00,0.0282
1103.00,0.0284
1102.00,0.0286
1101.00,0.0287
1100.00,0.0288
1099.00,0.0289
1098.00,0.0291
1097.00,0.0292
1096.00,0.0292
1095.00,0.0292
1094.00,0.0293
1093.00,0.0294
1092.00,0.0295
1091.00,0.0297
1090.00,0.0297
1089.00,0.0297
1088.00,0.0295
1087.00,0.0295
1086.00,0.0297
1085.00,0.0300
1084.00,0.0303
1083.00,0.0305
1082.00,0.0307
1081.00,0.0309
1080.00,0.0311
1079.00,0.0314
1078.00,0.0317
1077.00,0.0320
1076.00,0.0321
1075.00,0.0319
1074.00,0.0317
1073.00,0.0317
1072.00,0.0318
1071.00,0.0319
1070.00,0.0318
1069.00,0.0318
1068.00,0.0318
1067.00,0.0320
1066.00,0.0323
1065.00,0.0325
1064.00,0.0328
1063.00,0.0330
1062.00,0.0331
1061.00,0.0329
1060.00,0.0328
1059.00,0.0328
1058.00,0.0329
1057.00,0.0332
1056.00,0.0335
1055.00,0.0338
1054.00,0.0340
1053.00,0.0342
1052.00,0.0343
1051.00,0.0343
1050.00,0.0345
1049.00,0.0348
1048.00,0.0351
1047.00,0.0353
1046.00,0.0354
1045.00,0.0354
1044.00,0.0354
1043.00,0.0354
1042.00,0.0353
1041.00,0.0351
1040.00,0.0351
1039.00,0.0352
1038.00,0.0354
1037.00,0.0356
1036.00,0.0357
1035.00,0.0357
1034.00,0.0356
1033.00,0.0357
1032.00,0.0358
1031.00,0.0360
1030.00,0.0360
1029.00,0.0360
1028.00,0.0360
1027.00,0.0360
1026.00,0.0361
1025.00,0.0362
1024.00,0.0364
1023.00,0.0363
1022.00,0.0362
1021.00,0.0361
1020.00,0.0360
1019.00,0.0360
1018.00,0.0360
1017.00,0.0360
1016.00,0.0362
1015.00,0.0364
1014.00,0.0365
1013.00,0.0366
1012.00,0.0366
1011.00,0.0366
1010.00,0.0367
1009.00,0.0367
1008.00,0.0367
1007.00,0.0366
1006.00,0.0366
1005.00,0.0366
1004.00,0.0367
1003.00,0.0368
1002.00,0.0368
1001.00,0.0368
1000.00,0.0366
999.00,0.0364
998.00,0.0363
997.00,0.0362
996.00,0.0363
995.00,0.0364
994.00,0.0363
993.00,0.0362
992.00,0.0360
991.00,0.0358
990.00,0.0357
989.00,0.0357
988.00,0.0358
987.00,0.0359
986.00,0.0359
985.00,0.0360
984.00,0.0358
983.00,0.0356
982.00,0.0354
981.00,0.0353
980.00,0.0353
979.00,0.0352
978.00,0.0350
977.00,0.0348
976.00,0.0345
975.00,0.0343
974.00,0.0342
973.00,0.0341
972.00,0.0341
971.00,0.0339
970.00,0.0336
969.00,0.0334
968.00,0.0332
967.00,0.0330
966.00,0.0328
965.00,0.0326
964.00,0.0325
963.00,0.0325
962.00,0.0326
961.00,0.0326
960.00,0.0324
959.00,0.0322
958.00,0.0320
957.00,0.0319
956.00,0.0318
955.00,0.0317
954.00,0.0315
953.00,0.0314
952.00,0.0314
951.00,0.0314
950.00,0.0315
949.00,0.0315
948.00,0.0314
947.00,0.0311
946.00,0.0309
945.00,0.0307
944.00,0.0306
943.00,0.0306
942.00,0.0306
941.00,0.0306
940.00,0.0306
939.00,0.0306
938.00,0.0306
937.00,0.0306
936.00,0.0304
935.00,0.0302
934.00,0.0302
933.00,0.0303
932.00,0.0306
931.00,0.0308
930.00,0.0308
929.00,0.0308
928.00,0.0308
927.00,0.0308
926.00,0.0307
925.00,0.0307
924.00,0.0306
923.00,0.0307
922.00,0.0307
921.00,0.0307
920.00,0.0306
919.00,0.0304
918.00,0.0303
917.00,0.0303
916.00,0.0304
915.00,0.0305
914.00,0.0306
913.00,0.0305
912.00,0.0303
911.00,0.0301
910.00,0.0299
909.00,0.0297
908.00,0.0294
907.00,0.0292
906.00,0.0292
905.00,0.0294
904.00,0.0297
903.00,0.0300
902.00,0.0301
901.00,0.0300
900.00,0.0298
899.00,0.0297
898.00,0.0297
897.00,0.0299
896.00,0.0299
895.00,0.0297
894.00,0.0294
893.00,0.0292
892.00,0.0291
891.00,0.0290
890.00,0.0290
889.00,0.0292
888.00,0.0294
887.00,0.0293
886.00,0.0289
885.00,0.0286
884.00,0.0286
883.00,0.0288
882.00,0.0290
881.00,0.0291
880.00,0.0290
879.00,0.0289
878.00,0.0286
877.00,0.0284
876.00,0.0282
875.00,0.0280
874.00,0.0280
873.00,0.0280
872.00,0.0281
871.00,0.0281
870.00,0.0281
869.00,0.0280
868.00,0.0277
867.00,0.0275
866.00,0.0275
865.00,0.0275
864.00,0.0276
863.00,0.0276
862.00,0.0277
861.00,0.0278
860.00,0.0279
859.00,0.0277
858.00,0.0274
857.00,0.0272
856.00,0.0271
855.00,0.0271
854.00,0.0273
853.00,0.0274
852.00,0.0274
851.00,0.0273
850.00,0.0274
849.00,0.0275
848.00,0.0275
847.00,0.0276
846.00,0.0277
845.00,0.0279
844.00,0.0280
843.00,0.0280
842.00,0.0278
841.00,0.0275
840.00,0.0272
839.00,0.0268
838.00,0.0266
837.00,0.0267
836.00,0.0269
835.00,0.0270
834.00,0.0269
833.00,0.0267
832.00,0.0266
831.00,0.0267
830.00,0.0267
829.00,0.0267
828.00,0.0267
827.00,0.0268
826.00,0.0271
825.00,0.0273
824.00,0.0274
823.00,0.0276
822.00,0.0277
821.00,0.0278
820.00,0.0279
819.00,0.0280
818.00,0.0280
817.00,0.0277
816.00,0.0273
815.00,0.0271
814.00,0.0272
813.00,0.0276
812.00,0.0279
811.00,0.0280
810.00,0.0281
809.00,0.0282
808.00,0.0282
807.00,0.0281
806.00,0.0279
805.00,0.0279
804.00,0.0278
803.00,0.0278
802.00,0.0279
801.00,0.0282
800.00,0.0285
799.00,0.0287
798.00,0.0287
797.00,0.0286
796.00,0.0286
795.00,0.0285
794.00,0.0284
793.00,0.0285
792.00,0.0287
791.00,0.0290
790.00,0.0291
789.00,0.0291
788.00,0.0289
787.00,0.0288
786.00,0.0288
785.00,0.0289
784.00,0.0292
783.00,0.0293
782.00,0.0292
781.00,0.0290
780.00,0.0289
779.00,0.0288
778.00,0.0288
777.00,0.0289
776.00,0.0290
775.00,0.0290
774.00,0.0288
773.00,0.0285
772.00,0.0283
771.00,0.0282
770.00,0.0282
769.00,0.0281
768.00,0.0280
767.00,0.0279
766.00,0.0279
765.00,0.0279
764.00,0.0280
763.00,0.0279
762.00,0.0278
761.00,0.0277
760.00,0.0277
759.00,0.0279
758.00,0.0282
757.00,0.0284
756.00,0.0283
755.00,0.0281
754.00,0.0279
753.00,0.0277
752.00,0.0277
751.00,0.0278
750.00,0.0281
749.00,0.0284
748.00,0.0286
747.00,0.0285
746.00,0.0283
745.00,0.0280
744.00,0.0278
743.00,0.0277
742.00,0.0278
741.00,0.0278
740.00,0.0275
739.00,0.0271
738.00,0.0267
737.00,0.0266
736.00,0.0266
735.00,0.0266
734.00,0.0265
733.00,0.0263
732.00,0.0261
731.00,0.0261
730.00,0.0262
729.00,0.0265
728.00,0.0270
727.00,0.0276
726.00,0.0281
725.00,0.0282
724.00,0.0280
723.00,0.0277
722.00,0.0275
721.00,0.0275
720.00,0.0277
719.00,0.0277
718.00,0.0276
717.00,0.0275
716.00,0.0272
715.00,0.0269
714.00,0.0268
713.00,0.0269
712.00,0.0271
711.00,0.0273
710.00,0.0273
709.00,0.0273
708.00,0.0272
707.00,0.0271
706.00,0.0271
705.00,0.0274
704.00,0.0278
703.00,0.0281
702.00,0.0279
701.00,0.0276
700.00,0.0273
699.00,0.0273
698.00,0.0273
697.00,0.0273
696.00,0.0274
695.00,0.0277
694.00,0.0280
693.00,0.0280
692.00,0.0277
691.00,0.0274
690.00,0.0272
689.00,0.0272
688.00,0.0273
687.00,0.0272
686.00,0.0271
685.00,0.0269
684.00,0.0268
683.00,0.0265
682.00,0.0261
681.00,0.0257
680.00,0.0257
679.00,0.0261
678.00,0.0266
677.00,0.0268
676.00,0.0267
675.00,0.0266
674.00,0.0266
673.00,0.0266
672.00,0.0264
671.00,0.0264
670.00,0.0269
669.00,0.0278
668.00,0.0281
667.00,0.0278
666.00,0.0276
665.00,0.0276
664.00,0.0276
663.00,0.0274
662.00,0.0270
661.00,0.0268
660.00,0.0265
659.00,0.0261
658.00,0.0259
657.00,0.0265
656.00,0.0272
655.00,0.0274
654.00,0.0268
653.00,0.0260
652.00,0.0253
651.00,0.0250
650.00,0.0249
