Created as New Dataset,Monday, April 03 2023
cm-1,A
4000.00,0.0197
3999.00,0.0197
3998.00,0.0197
3997.00,0.0197
3996.00,0.0196
3995.00,0.0196
3994.00,0.0196
3993.00,0.0196
3992.00,0.0196
3991.00,0.0196
3990.00,0.0196
3989.00,0.0196
3988.00,0.0196
3987.00,0.0196
3986.00,0.0196
3985.00,0.0196
3984.00,0.0196
3983.00,0.0197
3982.00,0.0197
3981.00,0.0197
3980.00,0.0196
3979.00,0.0196
3978.00,0.0196
3977.00,0.0195
3976.00,0.0195
3975.00,0.0195
3974.00,0.0195
3973.00,0.0196
3972.00,0.0196
3971.00,0.0197
3970.00,0.0197
3969.00,0.0197
3968.00,0.0197
3967.00,0.0196
3966.00,0.0195
3965.00,0.0195
3964.00,0.0195
3963.00,0.0196
3962.00,0.0197
3961.00,0.0197
3960.00,0.0197
3959.00,0.0197
3958.00,0.0196
3957.00,0.0196
3956.00,0.0196
3955.00,0.0196
3954.00,0.0195
3953.00,0.0195
3952.00,0.0196
3951.00,0.0196
3950.00,0.0197
3949.00,0.0198
3948.00,0.0199
3947.00,0.0199
3946.00,0.0200
3945.00,0.0199
3944.00,0.0199
3943.00,0.0197
3942.00,0.0196
3941.00,0.0196
3940.00,0.0196
3939.00,0.0197
3938.00,0.0197
3937.00,0.0197
3936.00,0.0197
3935.00,0.0197
3934.00,0.0197
3933.00,0.0197
3932.00,0.0197
3931.00,0.0197
3930.00,0.0198
3929.00,0.0198
3928.00,0.0199
3927.00,0.0199
3926.00,0.0199
3925.00,0.0198
3924.00,0.0198
3923.00,0.0199
3922.00,0.0199
3921.00,0.0199
3920.00,0.0199
3919.00,0.0199
3918.00,0.0199
3917.00,0.0199
3916.00,0.0199
3915.00,0.0199
3914.00,0.0199
3913.00,0.0199
3912.00,0.0198
3911.00,0.0197
3910.00,0.0197
3909.00,0.0198
3908.00,0.0198
3907.00,0.0199
3906.00,0.0199
3905.00,0.0199
3904.00,0.0199
3903.00,0.0201
3902.00,0.0203
3901.00,0.0204
3900.00,0.0203
3899.00,0.0202
3898.00,0.0201
3897.00,0.0200
3896.00,0.0199
3895.00,0.0199
3894.00,0.0199
3893.00,0.0199
3892.00,0.0198
3891.00,0.0198
3890.00,0.0197
3889.00,0.0198
3888.00,0.0199
3887.00,0.0198
3886.00,0.0197
3885.00,0.0197
3884.00,0.0198
3883.00,0.0200
3882.00,0.0200
3881.00,0.0199
3880.00,0.0198
3879.00,0.0198
3878.00,0.0200
3877.00,0.0202
3876.00,0.0202
3875.00,0.0201
3874.00,0.0200
3873.00,0.0200
3872.00,0.0201
3871.00,0.0201
3870.00,0.0200
3869.00,0.0200
3868.00,0.0201
3867.00,0.0202
3866.00,0.0201
3865.00,0.0201
3864.00,0.0201
3863.00,0.0201
3862.00,0.0202
3861.00,0.0201
3860.00,0.0201
3859.00,0.0200
3858.00,0.0199
3857.00,0.0199
3856.00,0.0200
3855.00,0.0199
3854.00,0.0199
3853.00,0.0200
3852.00,0.0201
3851.00,0.0202
3850.00,0.0201
3849.00,0.0200
3848.00,0.0199
3847.00,0.0198
3846.00,0.0199
3845.00,0.0199
3844.00,0.0199
3843.00,0.0199
3842.00,0.0200
3841.00,0.0201
3840.00,0.0202
3839.00,0.0203
3838.00,0.0203
3837.00,0.0202
3836.00,0.0202
3835.00,0.0202
3834.00,0.0203
3833.00,0.0202
3832.00,0.0202
3831.00,0.0201
3830.00,0.0201
3829.00,0.0202
3828.00,0.0201
3827.00,0.0199
3826.00,0.0198
3825.00,0.0199
3824.00,0.0202
3823.00,0.0204
3822.00,0.0203
3821.00,0.0202
3820.00,0.0202
3819.00,0.0203
3818.00,0.0204
3817.00,0.0203
3816.00,0.0202
3815.00,0.0202
3814.00,0.0202
3813.00,0.0202
3812.00,0.0201
3811.00,0.0200
3810.00,0.0199
3809.00,0.0200
3808.00,0.0199
3807.00,0.0199
3806.00,0.0200
3805.00,0.0202
3804.00,0.0205
3803.00,0.0206
3802.00,0.0205
3801.00,0.0204
3800.00,0.0204
3799.00,0.0205
3798.00,0.0204
3797.00,0.0203
3796.00,0.0202
3795.00,0.0202
3794.00,0.0202
3793.00,0.0202
3792.00,0.0202
3791.00,0.0202
3790.00,0.0202
3789.00,0.0202
3788.00,0.0202
3787.00,0.0203
3786.00,0.0203
3785.00,0.0204
3784.00,0.0204
3783.00,0.0204
3782.00,0.0205
3781.00,0.0204
3780.00,0.0204
3779.00,0.0203
3778.00,0.0203
3777.00,0.0204
3776.00,0.0204
3775.00,0.0203
3774.00,0.0202
3773.00,0.0202
3772.00,0.0202
3771.00,0.0202
3770.00,0.0202
3769.00,0.0202
3768.00,0.0203
3767.00,0.0203
3766.00,0.0203
3765.00,0.0203
3764.00,0.0203
3763.00,0.0204
3762.00,0.0205
3761.00,0.0205
3760.00,0.0204
3759.00,0.0204
3758.00,0.0203
3757.00,0.0203
3756.00,0.0202
3755.00,0.0202
3754.00,0.0202
3753.00,0.0200
3752.00,0.0200
3751.00,0.0201
3750.00,0.0203
3749.00,0.0204
3748.00,0.0206
3747.00,0.0209
3746.00,0.0210
3745.00,0.0208
3744.00,0.0205
3743.00,0.0204
3742.00,0.0204
3741.00,0.0205
3740.00,0.0205
3739.00,0.0206
3738.00,0.0206
3737.00,0.0207
3736.00,0.0206
3735.00,0.0207
3734.00,0.0207
3733.00,0.0207
3732.00,0.0206
3731.00,0.0204
3730.00,0.0204
3729.00,0.0205
3728.00,0.0205
3727.00,0.0204
3726.00,0.0204
3725.00,0.0204
3724.00,0.0205
3723.00,0.0205
3722.00,0.0205
3721.00,0.0205
3720.00,0.0206
3719.00,0.0205
3718.00,0.0205
3717.00,0.0204
3716.00,0.0204
3715.00,0.0205
3714.00,0.0206
3713.00,0.0206
3712.00,0.0207
3711.00,0.0207
3710.00,0.0207
3709.00,0.0206
3708.00,0.0206
3707.00,0.0206
3706.00,0.0207
3705.00,0.0207
3704.00,0.0207
3703.00,0.0206
3702.00,0.0205
3701.00,0.0205
3700.00,0.0206
3699.00,0.0206
3698.00,0.0206
3697.00,0.0206
3696.00,0.0206
3695.00,0.0206
3694.00,0.0206
3693.00,0.0206
3692.00,0.0206
3691.00,0.0207
3690.00,0.0209
3689.00,0.0210
3688.00,0.0210
3687.00,0.0209
3686.00,0.0208
3685.00,0.0208
3684.00,0.0207
3683.00,0.0206
3682.00,0.0205
3681.00,0.0205
3680.00,0.0204
3679.00,0.0204
3678.00,0.0204
3677.00,0.0204
3676.00,0.0203
3675.00,0.0203
3674.00,0.0204
3673.00,0.0205
3672.00,0.0206
3671.00,0.0206
3670.00,0.0206
3669.00,0.0207
3668.00,0.0207
3667.00,0.0207
3666.00,0.0206
3665.00,0.0204
3664.00,0.0204
3663.00,0.0203
3662.00,0.0204
3661.00,0.0204
3660.00,0.0206
3659.00,0.0207
3658.00,0.0208
3657.00,0.0207
3656.00,0.0207
3655.00,0.0207
3654.00,0.0209
3653.00,0.0211
3652.00,0.0211
3651.00,0.0209
3650.00,0.0208
3649.00,0.0210
3648.00,0.0211
3647.00,0.0210
3646.00,0.0209
3645.00,0.0208
3644.00,0.0208
3643.00,0.0207
3642.00,0.0207
3641.00,0.0207
3640.00,0.0207
3639.00,0.0207
3638.00,0.0207
3637.00,0.0207
3636.00,0.0207
3635.00,0.0207
3634.00,0.0207
3633.00,0.0207
3632.00,0.0208
3631.00,0.0208
3630.00,0.0208
3629.00,0.0208
3628.00,0.0209
3627.00,0.0209
3626.00,0.0208
3625.00,0.0207
3624.00,0.0206
3623.00,0.0206
3622.00,0.0207
3621.00,0.0208
3620.00,0.0209
3619.00,0.0210
3618.00,0.0210
3617.00,0.0210
3616.00,0.0210
3615.00,0.0210
3614.00,0.0209
3613.00,0.0208
3612.00,0.0208
3611.00,0.0208
3610.00,0.0209
3609.00,0.0210
3608.00,0.0211
3607.00,0.0210
3606.00,0.0210
3605.00,0.0209
3604.00,0.0208
3603.00,0.0208
3602.00,0.0208
3601.00,0.0209
3600.00,0.0209
3599.00,0.0209
3598.00,0.0208
3597.00,0.0208
3596.00,0.0207
3595.00,0.0207
3594.00,0.0207
3593.00,0.0207
3592.00,0.0207
3591.00,0.0208
3590.00,0.0208
3589.00,0.0209
3588.00,0.0209
3587.00,0.0209
3586.00,0.0210
3585.00,0.0210
3584.00,0.0209
3583.00,0.0208
3582.00,0.0207
3581.00,0.0207
3580.00,0.0206
3579.00,0.0206
3578.00,0.0207
3577.00,0.0207
3576.00,0.0207
3575.00,0.0208
3574.00,0.0208
3573.00,0.0208
3572.00,0.0208
3571.00,0.0208
3570.00,0.0209
3569.00,0.0209
3568.00,0.0209
3567.00,0.0210
3566.00,0.0211
3565.00,0.0210
3564.00,0.0209
3563.00,0.0209
3562.00,0.0208
3561.00,0.0208
3560.00,0.0208
3559.00,0.0208
3558.00,0.0209
3557.00,0.0210
3556.00,0.0211
3555.00,0.0211
3554.00,0.0210
3553.00,0.0210
3552.00,0.0210
3551.00,0.0211
3550.00,0.0212
3549.00,0.0212
3548.00,0.0212
3547.00,0.0211
3546.00,0.0211
3545.00,0.0212
3544.00,0.0212
3543.00,0.0212
3542.00,0.0212
3541.00,0.0211
3540.00,0.0210
3539.00,0.0209
3538.00,0.0207
3537.00,0.0207
3536.00,0.0207
3535.00,0.0208
3534.00,0.0209
3533.00,0.0210
3532.00,0.0211
3531.00,0.0211
3530.00,0.0210
3529.00,0.0209
3528.00,0.0208
3527.00,0.0208
3526.00,0.0208
3525.00,0.0210
3524.00,0.0211
3523.00,0.0212
3522.00,0.0212
3521.00,0.0210
3520.00,0.0209
3519.00,0.0207
3518.00,0.0206
3517.00,0.0205
3516.00,0.0205
3515.00,0.0206
3514.00,0.0207
3513.00,0.0209
3512.00,0.0210
3511.00,0.0210
3510.00,0.0210
3509.00,0.0209
3508.00,0.0208
3507.00,0.0208
3506.00,0.0209
3505.00,0.0209
3504.00,0.0209
3503.00,0.0210
3502.00,0.0210
3501.00,0.0210
3500.00,0.0209
3499.00,0.0209
3498.00,0.0209
3497.00,0.0210
3496.00,0.0210
3495.00,0.0210
3494.00,0.0209
3493.00,0.0209
3492.00,0.0208
3491.00,0.0207
3490.00,0.0207
3489.00,0.0207
3488.00,0.0207
3487.00,0.0207
3486.00,0.0207
3485.00,0.0207
3484.00,0.0207
3483.00,0.0207
3482.00,0.0207
3481.00,0.0207
3480.00,0.0208
3479.00,0.0208
3478.00,0.0208
3477.00,0.0208
3476.00,0.0208
3475.00,0.0209
3474.00,0.0209
3473.00,0.0209
3472.00,0.0209
3471.00,0.0210
3470.00,0.0209
3469.00,0.0209
3468.00,0.0209
3467.00,0.0209
3466.00,0.0209
3465.00,0.0210
3464.00,0.0210
3463.00,0.0209
3462.00,0.0207
3461.00,0.0207
3460.00,0.0207
3459.00,0.0208
3458.00,0.0209
3457.00,0.0209
3456.00,0.0209
3455.00,0.0208
3454.00,0.0207
3453.00,0.0208
3452.00,0.0208
3451.00,0.0209
3450.00,0.0209
3449.00,0.0209
3448.00,0.0209
3447.00,0.0209
3446.00,0.0209
3445.00,0.0210
3444.00,0.0210
3443.00,0.0209
3442.00,0.0208
3441.00,0.0207
3440.00,0.0205
3439.00,0.0205
3438.00,0.0205
3437.00,0.0206
3436.00,0.0206
3435.00,0.0206
3434.00,0.0206
3433.00,0.0206
3432.00,0.0206
3431.00,0.0207
3430.00,0.0207
3429.00,0.0207
3428.00,0.0206
3427.00,0.0206
3426.00,0.0206
3425.00,0.0207
3424.00,0.0208
3423.00,0.0209
3422.00,0.0209
3421.00,0.0209
3420.00,0.0209
3419.00,0.0209
3418.00,0.0209
3417.00,0.0208
3416.00,0.0207
3415.00,0.0206
3414.00,0.0206
3413.00,0.0206
3412.00,0.0207
3411.00,0.0207
3410.00,0.0208
3409.00,0.0208
3408.00,0.0209
3407.00,0.0209
3406.00,0.0208
3405.00,0.0208
3404.00,0.0207
3403.00,0.0207
3402.00,0.0207
3401.00,0.0207
3400.00,0.0207
3399.00,0.0207
3398.00,0.0207
3397.00,0.0206
3396.00,0.0206
3395.00,0.0206
3394.00,0.0206
3393.00,0.0207
3392.00,0.0207
3391.00,0.0207
3390.00,0.0208
3389.00,0.0208
3388.00,0.0207
3387.00,0.0207
3386.00,0.0206
3385.00,0.0206
3384.00,0.0207
3383.00,0.0207
3382.00,0.0207
3381.00,0.0207
3380.00,0.0208
3379.00,0.0208
3378.00,0.0208
3377.00,0.0208
3376.00,0.0208
3375.00,0.0208
3374.00,0.0208
3373.00,0.0207
3372.00,0.0207
3371.00,0.0206
3370.00,0.0206
3369.00,0.0207
3368.00,0.0208
3367.00,0.0208
3366.00,0.0207
3365.00,0.0206
3364.00,0.0206
3363.00,0.0206
3362.00,0.0207
3361.00,0.0209
3360.00,0.0210
3359.00,0.0210
3358.00,0.0209
3357.00,0.0209
3356.00,0.0208
3355.00,0.0208
3354.00,0.0209
3353.00,0.0209
3352.00,0.0208
3351.00,0.0208
3350.00,0.0208
3349.00,0.0208
3348.00,0.0208
3347.00,0.0207
3346.00,0.0207
3345.00,0.0207
3344.00,0.0207
3343.00,0.0207
3342.00,0.0207
3341.00,0.0208
3340.00,0.0208
3339.00,0.0209
3338.00,0.0209
3337.00,0.0209
3336.00,0.0209
3335.00,0.0209
3334.00,0.0209
3333.00,0.0209
3332.00,0.0208
3331.00,0.0208
3330.00,0.0207
3329.00,0.0206
3328.00,0.0206
3327.00,0.0206
3326.00,0.0207
3325.00,0.0208
3324.00,0.0208
3323.00,0.0208
3322.00,0.0208
3321.00,0.0208
3320.00,0.0207
3319.00,0.0207
3318.00,0.0208
3317.00,0.0208
3316.00,0.0208
3315.00,0.0208
3314.00,0.0207
3313.00,0.0207
3312.00,0.0207
3311.00,0.0207
3310.00,0.0207
3309.00,0.0208
3308.00,0.0209
3307.00,0.0210
3306.00,0.0210
3305.00,0.0209
3304.00,0.0209
3303.00,0.0209
3302.00,0.0209
3301.00,0.0209
3300.00,0.0209
3299.00,0.0208
3298.00,0.0208
3297.00,0.0209
3296.00,0.0209
3295.00,0.0210
3294.00,0.0210
3293.00,0.0210
3292.00,0.0209
3291.00,0.0208
3290.00,0.0208
3289.00,0.0208
3288.00,0.0208
3287.00,0.0208
3286.00,0.0208
3285.00,0.0209
3284.00,0.0210
3283.00,0.0210
3282.00,0.0210
3281.00,0.0210
3280.00,0.0209
3279.00,0.0209
3278.00,0.0209
3277.00,0.0209
3276.00,0.0209
3275.00,0.0209
3274.00,0.0209
3273.00,0.0210
3272.00,0.0210
3271.00,0.0211
3270.00,0.0212
3269.00,0.0212
3268.00,0.0213
3267.00,0.0212
3266.00,0.0211
3265.00,0.0210
3264.00,0.0209
3263.00,0.0209
3262.00,0.0209
3261.00,0.0210
3260.00,0.0210
3259.00,0.0211
3258.00,0.0210
3257.00,0.0210
3256.00,0.0209
3255.00,0.0209
3254.00,0.0209
3253.00,0.0209
3252.00,0.0210
3251.00,0.0210
3250.00,0.0210
3249.00,0.0211
3248.00,0.0210
3247.00,0.0210
3246.00,0.0210
3245.00,0.0210
3244.00,0.0210
3243.00,0.0210
3242.00,0.0210
3241.00,0.0210
3240.00,0.0210
3239.00,0.0211
3238.00,0.0211
3237.00,0.0212
3236.00,0.0213
3235.00,0.0214
3234.00,0.0214
3233.00,0.0214
3232.00,0.0214
3231.00,0.0213
3230.00,0.0212
3229.00,0.0211
3228.00,0.0210
3227.00,0.0210
3226.00,0.0211
3225.00,0.0211
3224.00,0.0211
3223.00,0.0211
3222.00,0.0211
3221.00,0.0211
3220.00,0.0211
3219.00,0.0210
3218.00,0.0211
3217.00,0.0211
3216.00,0.0212
3215.00,0.0213
3214.00,0.0213
3213.00,0.0213
3212.00,0.0212
3211.00,0.0211
3210.00,0.0210
3209.00,0.0210
3208.00,0.0210
3207.00,0.0211
3206.00,0.0211
3205.00,0.0211
3204.00,0.0212
3203.00,0.0212
3202.00,0.0212
3201.00,0.0213
3200.00,0.0213
3199.00,0.0213
3198.00,0.0213
3197.00,0.0213
3196.00,0.0213
3195.00,0.0213
3194.00,0.0213
3193.00,0.0213
3192.00,0.0212
3191.00,0.0212
3190.00,0.0212
3189.00,0.0211
3188.00,0.0211
3187.00,0.0211
3186.00,0.0210
3185.00,0.0211
3184.00,0.0212
3183.00,0.0213
3182.00,0.0213
3181.00,0.0214
3180.00,0.0214
3179.00,0.0213
3178.00,0.0211
3177.00,0.0211
3176.00,0.0210
3175.00,0.0211
3174.00,0.0211
3173.00,0.0212
3172.00,0.0212
3171.00,0.0212
3170.00,0.0212
3169.00,0.0211
3168.00,0.0212
3167.00,0.0212
3166.00,0.0213
3165.00,0.0214
3164.00,0.0214
3163.00,0.0215
3162.00,0.0215
3161.00,0.0214
3160.00,0.0213
3159.00,0.0212
3158.00,0.0211
3157.00,0.0211
3156.00,0.0211
3155.00,0.0212
3154.00,0.0213
3153.00,0.0213
3152.00,0.0214
3151.00,0.0214
3150.00,0.0213
3149.00,0.0213
3148.00,0.0213
3147.00,0.0212
3146.00,0.0212
3145.00,0.0212
3144.00,0.0212
3143.00,0.0213
3142.00,0.0213
3141.00,0.0213
3140.00,0.0213
3139.00,0.0213
3138.00,0.0213
3137.00,0.0213
3136.00,0.0214
3135.00,0.0214
3134.00,0.0213
3133.00,0.0213
3132.00,0.0213
3131.00,0.0213
3130.00,0.0213
3129.00,0.0214
3128.00,0.0214
3127.00,0.0213
3126.00,0.0214
3125.00,0.0214
3124.00,0.0214
3123.00,0.0214
3122.00,0.0214
3121.00,0.0214
3120.00,0.0214
3119.00,0.0214
3118.00,0.0215
3117.00,0.0215
3116.00,0.0214
3115.00,0.0214
3114.00,0.0214
3113.00,0.0214
3112.00,0.0214
3111.00,0.0214
3110.00,0.0214
3109.00,0.0214
3108.00,0.0214
3107.00,0.0214
3106.00,0.0215
3105.00,0.0215
3104.00,0.0216
3103.00,0.0215
3102.00,0.0214
3101.00,0.0213
3100.00,0.0213
3099.00,0.0213
3098.00,0.0213
3097.00,0.0214
3096.00,0.0214
3095.00,0.0215
3094.00,0.0216
3093.00,0.0216
3092.00,0.0216
3091.00,0.0215
3090.00,0.0215
3089.00,0.0214
3088.00,0.0213
3087.00,0.0213
3086.00,0.0214
3085.00,0.0215
3084.00,0.0215
3083.00,0.0215
3082.00,0.0215
3081.00,0.0216
3080.00,0.0216
3079.00,0.0216
3078.00,0.0216
3077.00,0.0216
3076.00,0.0216
3075.00,0.0216
3074.00,0.0216
3073.00,0.0217
3072.00,0.0217
3071.00,0.0218
3070.00,0.0218
3069.00,0.0218
3068.00,0.0218
3067.00,0.0218
3066.00,0.0217
3065.00,0.0216
3064.00,0.0216
3063.00,0.0215
3062.00,0.0215
3061.00,0.0216
3060.00,0.0216
3059.00,0.0216
3058.00,0.0216
3057.00,0.0216
3056.00,0.0216
3055.00,0.0216
3054.00,0.0216
3053.00,0.0216
3052.00,0.0216
3051.00,0.0217
3050.00,0.0218
3049.00,0.0218
3048.00,0.0219
3047.00,0.0218
3046.00,0.0218
3045.00,0.0218
3044.00,0.0218
3043.00,0.0217
3042.00,0.0217
3041.00,0.0216
3040.00,0.0216
3039.00,0.0217
3038.00,0.0217
3037.00,0.0218
3036.00,0.0218
3035.00,0.0218
3034.00,0.0218
3033.00,0.0218
3032.00,0.0218
3031.00,0.0218
3030.00,0.0217
3029.00,0.0217
3028.00,0.0217
3027.00,0.0217
3026.00,0.0217
3025.00,0.0217
3024.00,0.0217
3023.00,0.0217
3022.00,0.0217
3021.00,0.0217
3020.00,0.0217
3019.00,0.0216
3018.00,0.0216
3017.00,0.0215
3016.00,0.0215
3015.00,0.0215
3014.00,0.0215
3013.00,0.0214
3012.00,0.0214
3011.00,0.0214
3010.00,0.0214
3009.00,0.0213
3008.00,0.0212
3007.00,0.0210
3006.00,0.0210
3005.00,0.0209
3004.00,0.0208
3003.00,0.0207
3002.00,0.0206
3001.00,0.0205
3000.00,0.0203
2999.00,0.0202
2998.00,0.0201
2997.00,0.0200
2996.00,0.0200
2995.00,0.0200
2994.00,0.0200
2993.00,0.0199
2992.00,0.0199
2991.00,0.0198
2990.00,0.0198
2989.00,0.0197
2988.00,0.0196
2987.00,0.0195
2986.00,0.0193
2985.00,0.0190
2984.00,0.0187
2983.00,0.0184
2982.00,0.0183
2981.00,0.0183
2980.00,0.0185
2979.00,0.0186
2978.00,0.0188
2977.00,0.0190
2976.00,0.0191
2975.00,0.0192
2974.00,0.0191
2973.00,0.0190
2972.00,0.0190
2971.00,0.0190
2970.00,0.0191
2969.00,0.0192
2968.00,0.0193
2967.00,0.0195
2966.00,0.0195
2965.00,0.0196
2964.00,0.0197
2963.00,0.0198
2962.00,0.0198
2961.00,0.0199
2960.00,0.0199
2959.00,0.0199
2958.00,0.0199
2957.00,0.0199
2956.00,0.0200
2955.00,0.0201
2954.00,0.0202
2953.00,0.0203
2952.00,0.0204
2951.00,0.0205
2950.00,0.0206
2949.00,0.0206
2948.00,0.0206
2947.00,0.0206
2946.00,0.0206
2945.00,0.0207
2944.00,0.0207
2943.00,0.0208
2942.00,0.0209
2941.00,0.0209
2940.00,0.0209
2939.00,0.0208
2938.00,0.0208
2937.00,0.0207
2936.00,0.0207
2935.00,0.0207
2934.00,0.0206
2933.00,0.0206
2932.00,0.0206
2931.00,0.0205
2930.00,0.0205
2929.00,0.0205
2928.00,0.0206
2927.00,0.0206
2926.00,0.0206
2925.00,0.0205
2924.00,0.0205
2923.00,0.0205
2922.00,0.0205
2921.00,0.0204
2920.00,0.0204
2919.00,0.0203
2918.00,0.0203
2917.00,0.0203
2916.00,0.0204
2915.00,0.0205
2914.00,0.0206
2913.00,0.0207
2912.00,0.0208
2911.00,0.0209
2910.00,0.0210
2909.00,0.0210
2908.00,0.0210
2907.00,0.0210
2906.00,0.0210
2905.00,0.0210
2904.00,0.0210
2903.00,0.0210
2902.00,0.0210
2901.00,0.0210
2900.00,0.0210
2899.00,0.0210
2898.00,0.0210
2897.00,0.0210
2896.00,0.0210
2895.00,0.0210
2894.00,0.0210
2893.00,0.0210
2892.00,0.0211
2891.00,0.0211
2890.00,0.0211
2889.00,0.0211
2888.00,0.0212
2887.00,0.0212
2886.00,0.0212
2885.00,0.0212
2884.00,0.0212
2883.00,0.0212
2882.00,0.0212
2881.00,0.0212
2880.00,0.0212
2879.00,0.0213
2878.00,0.0213
2877.00,0.0214
2876.00,0.0214
2875.00,0.0214
2874.00,0.0214
2873.00,0.0214
2872.00,0.0214
2871.00,0.0214
2870.00,0.0214
2869.00,0.0215
2868.00,0.0215
2867.00,0.0215
2866.00,0.0215
2865.00,0.0215
2864.00,0.0215
2863.00,0.0215
2862.00,0.0215
2861.00,0.0215
2860.00,0.0216
2859.00,0.0216
2858.00,0.0217
2857.00,0.0218
2856.00,0.0218
2855.00,0.0218
2854.00,0.0217
2853.00,0.0217
2852.00,0.0217
2851.00,0.0218
2850.00,0.0219
2849.00,0.0220
2848.00,0.0220
2847.00,0.0220
2846.00,0.0220
2845.00,0.0221
2844.00,0.0221
2843.00,0.0222
2842.00,0.0222
2841.00,0.0222
2840.00,0.0222
2839.00,0.0221
2838.00,0.0221
2837.00,0.0222
2836.00,0.0223
2835.00,0.0224
2834.00,0.0224
2833.00,0.0224
2832.00,0.0224
2831.00,0.0223
2830.00,0.0223
2829.00,0.0223
2828.00,0.0223
2827.00,0.0224
2826.00,0.0224
2825.00,0.0224
2824.00,0.0225
2823.00,0.0225
2822.00,0.0225
2821.00,0.0224
2820.00,0.0224
2819.00,0.0223
2818.00,0.0223
2817.00,0.0223
2816.00,0.0223
2815.00,0.0223
2814.00,0.0223
2813.00,0.0223
2812.00,0.0223
2811.00,0.0223
2810.00,0.0224
2809.00,0.0224
2808.00,0.0224
2807.00,0.0224
2806.00,0.0224
2805.00,0.0225
2804.00,0.0225
2803.00,0.0225
2802.00,0.0225
2801.00,0.0225
2800.00,0.0225
2799.00,0.0226
2798.00,0.0226
2797.00,0.0226
2796.00,0.0226
2795.00,0.0226
2794.00,0.0226
2793.00,0.0225
2792.00,0.0225
2791.00,0.0226
2790.00,0.0226
2789.00,0.0226
2788.00,0.0226
2787.00,0.0226
2786.00,0.0226
2785.00,0.0226
2784.00,0.0226
2783.00,0.0225
2782.00,0.0225
2781.00,0.0224
2780.00,0.0224
2779.00,0.0224
2778.00,0.0225
2777.00,0.0225
2776.00,0.0226
2775.00,0.0226
2774.00,0.0226
2773.00,0.0226
2772.00,0.0226
2771.00,0.0226
2770.00,0.0225
2769.00,0.0225
2768.00,0.0224
2767.00,0.0224
2766.00,0.0225
2765.00,0.0225
2764.00,0.0225
2763.00,0.0226
2762.00,0.0226
2761.00,0.0226
2760.00,0.0226
2759.00,0.0226
2758.00,0.0226
2757.00,0.0226
2756.00,0.0226
2755.00,0.0226
2754.00,0.0226
2753.00,0.0226
2752.00,0.0226
2751.00,0.0226
2750.00,0.0227
2749.00,0.0227
2748.00,0.0227
2747.00,0.0227
2746.00,0.0227
2745.00,0.0227
2744.00,0.0227
2743.00,0.0227
2742.00,0.0228
2741.00,0.0228
2740.00,0.0227
2739.00,0.0227
2738.00,0.0226
2737.00,0.0226
2736.00,0.0226
2735.00,0.0226
2734.00,0.0226
2733.00,0.0227
2732.00,0.0227
2731.00,0.0227
2730.00,0.0227
2729.00,0.0227
2728.00,0.0227
2727.00,0.0227
2726.00,0.0227
2725.00,0.0227
2724.00,0.0227
2723.00,0.0228
2722.00,0.0228
2721.00,0.0227
2720.00,0.0227
2719.00,0.0227
2718.00,0.0228
2717.00,0.0228
2716.00,0.0228
2715.00,0.0228
2714.00,0.0228
2713.00,0.0228
2712.00,0.0228
2711.00,0.0228
2710.00,0.0228
2709.00,0.0228
2708.00,0.0228
2707.00,0.0228
2706.00,0.0228
2705.00,0.0228
2704.00,0.0228
2703.00,0.0228
2702.00,0.0228
2701.00,0.0228
2700.00,0.0228
2699.00,0.0229
2698.00,0.0229
2697.00,0.0228
2696.00,0.0228
2695.00,0.0228
2694.00,0.0229
2693.00,0.0229
2692.00,0.0230
2691.00,0.0230
2690.00,0.0230
2689.00,0.0229
2688.00,0.0229
2687.00,0.0229
2686.00,0.0229
2685.00,0.0229
2684.00,0.0229
2683.00,0.0229
2682.00,0.0229
2681.00,0.0229
2680.00,0.0229
2679.00,0.0229
2678.00,0.0229
2677.00,0.0228
2676.00,0.0228
2675.00,0.0228
2674.00,0.0229
2673.00,0.0229
2672.00,0.0229
2671.00,0.0229
2670.00,0.0229
2669.00,0.0229
2668.00,0.0229
2667.00,0.0229
2666.00,0.0229
2665.00,0.0230
2664.00,0.0230
2663.00,0.0230
2662.00,0.0230
2661.00,0.0230
2660.00,0.0230
2659.00,0.0230
2658.00,0.0231
2657.00,0.0231
2656.00,0.0231
2655.00,0.0231
2654.00,0.0231
2653.00,0.0232
2652.00,0.0232
2651.00,0.0232
2650.00,0.0232
2649.00,0.0232
2648.00,0.0232
2647.00,0.0231
2646.00,0.0230
2645.00,0.0231
2644.00,0.0231
2643.00,0.0232
2642.00,0.0232
2641.00,0.0232
2640.00,0.0232
2639.00,0.0232
2638.00,0.0232
2637.00,0.0232
2636.00,0.0232
2635.00,0.0232
2634.00,0.0232
2633.00,0.0233
2632.00,0.0233
2631.00,0.0232
2630.00,0.0232
2629.00,0.0231
2628.00,0.0231
2627.00,0.0231
2626.00,0.0231
2625.00,0.0232
2624.00,0.0233
2623.00,0.0233
2622.00,0.0234
2621.00,0.0234
2620.00,0.0234
2619.00,0.0234
2618.00,0.0233
2617.00,0.0233
2616.00,0.0233
2615.00,0.0232
2614.00,0.0232
2613.00,0.0233
2612.00,0.0233
2611.00,0.0234
2610.00,0.0234
2609.00,0.0233
2608.00,0.0233
2607.00,0.0233
2606.00,0.0234
2605.00,0.0235
2604.00,0.0235
2603.00,0.0235
2602.00,0.0235
2601.00,0.0235
2600.00,0.0235
2599.00,0.0234
2598.00,0.0234
2597.00,0.0233
2596.00,0.0233
2595.00,0.0233
2594.00,0.0233
2593.00,0.0234
2592.00,0.0235
2591.00,0.0235
2590.00,0.0235
2589.00,0.0235
2588.00,0.0235
2587.00,0.0234
2586.00,0.0233
2585.00,0.0233
2584.00,0.0233
2583.00,0.0233
2582.00,0.0234
2581.00,0.0235
2580.00,0.0235
2579.00,0.0236
2578.00,0.0236
2577.00,0.0235
2576.00,0.0234
2575.00,0.0234
2574.00,0.0234
2573.00,0.0234
2572.00,0.0235
2571.00,0.0234
2570.00,0.0234
2569.00,0.0234
2568.00,0.0235
2567.00,0.0236
2566.00,0.0237
2565.00,0.0238
2564.00,0.0237
2563.00,0.0237
2562.00,0.0237
2561.00,0.0237
2560.00,0.0237
2559.00,0.0237
2558.00,0.0237
2557.00,0.0237
2556.00,0.0238
2555.00,0.0238
2554.00,0.0238
2553.00,0.0237
2552.00,0.0236
2551.00,0.0235
2550.00,0.0234
2549.00,0.0234
2548.00,0.0233
2547.00,0.0233
2546.00,0.0234
2545.00,0.0234
2544.00,0.0235
2543.00,0.0235
2542.00,0.0234
2541.00,0.0234
2540.00,0.0233
2539.00,0.0232
2538.00,0.0232
2537.00,0.0232
2536.00,0.0233
2535.00,0.0234
2534.00,0.0235
2533.00,0.0236
2532.00,0.0236
2531.00,0.0235
2530.00,0.0234
2529.00,0.0234
2528.00,0.0233
2527.00,0.0234
2526.00,0.0234
2525.00,0.0234
2524.00,0.0234
2523.00,0.0234
2522.00,0.0234
2521.00,0.0235
2520.00,0.0235
2519.00,0.0236
2518.00,0.0237
2517.00,0.0238
2516.00,0.0238
2515.00,0.0238
2514.00,0.0237
2513.00,0.0236
2512.00,0.0236
2511.00,0.0236
2510.00,0.0237
2509.00,0.0237
2508.00,0.0237
2507.00,0.0237
2506.00,0.0237
2505.00,0.0237
2504.00,0.0237
2503.00,0.0238
2502.00,0.0238
2501.00,0.0239
2500.00,0.0239
2499.00,0.0239
2498.00,0.0239
2497.00,0.0239
2496.00,0.0239
2495.00,0.0240
2494.00,0.0240
2493.00,0.0241
2492.00,0.0241
2491.00,0.0241
2490.00,0.0241
2489.00,0.0241
2488.00,0.0241
2487.00,0.0241
2486.00,0.0240
2485.00,0.0239
2484.00,0.0238
2483.00,0.0238
2482.00,0.0239
2481.00,0.0240
2480.00,0.0240
2479.00,0.0240
2478.00,0.0240
2477.00,0.0240
2476.00,0.0239
2475.00,0.0239
2474.00,0.0240
2473.00,0.0240
2472.00,0.0240
2471.00,0.0241
2470.00,0.0241
2469.00,0.0241
2468.00,0.0240
2467.00,0.0239
2466.00,0.0239
2465.00,0.0239
2464.00,0.0239
2463.00,0.0239
2462.00,0.0239
2461.00,0.0239
2460.00,0.0239
2459.00,0.0240
2458.00,0.0241
2457.00,0.0241
2456.00,0.0242
2455.00,0.0242
2454.00,0.0243
2453.00,0.0244
2452.00,0.0244
2451.00,0.0244
2450.00,0.0244
2449.00,0.0243
2448.00,0.0243
2447.00,0.0242
2446.00,0.0242
2445.00,0.0241
2444.00,0.0241
2443.00,0.0241
2442.00,0.0241
2441.00,0.0241
2440.00,0.0242
2439.00,0.0242
2438.00,0.0242
2437.00,0.0242
2436.00,0.0241
2435.00,0.0241
2434.00,0.0241
2433.00,0.0241
2432.00,0.0241
2431.00,0.0242
2430.00,0.0242
2429.00,0.0243
2428.00,0.0243
2427.00,0.0243
2426.00,0.0243
2425.00,0.0243
2424.00,0.0243
2423.00,0.0243
2422.00,0.0243
2421.00,0.0242
2420.00,0.0242
2419.00,0.0242
2418.00,0.0242
2417.00,0.0243
2416.00,0.0242
2415.00,0.0242
2414.00,0.0242
2413.00,0.0242
2412.00,0.0243
2411.00,0.0243
2410.00,0.0243
2409.00,0.0244
2408.00,0.0244
2407.00,0.0244
2406.00,0.0244
2405.00,0.0244
2404.00,0.0244
2403.00,0.0243
2402.00,0.0243
2401.00,0.0243
2400.00,0.0243
2399.00,0.0243
2398.00,0.0244
2397.00,0.0244
2396.00,0.0243
2395.00,0.0243
2394.00,0.0243
2393.00,0.0242
2392.00,0.0242
2391.00,0.0242
2390.00,0.0242
2389.00,0.0242
2388.00,0.0242
2387.00,0.0242
2386.00,0.0242
2385.00,0.0242
2384.00,0.0241
2383.00,0.0240
2382.00,0.0240
2381.00,0.0241
2380.00,0.0241
2379.00,0.0241
2378.00,0.0241
2377.00,0.0241
2376.00,0.0241
2375.00,0.0241
2374.00,0.0242
2373.00,0.0242
2372.00,0.0242
2371.00,0.0242
2370.00,0.0240
2369.00,0.0237
2368.00,0.0234
2367.00,0.0233
2366.00,0.0235
2365.00,0.0238
2364.00,0.0240
2363.00,0.0240
2362.00,0.0240
2361.00,0.0241
2360.00,0.0242
2359.00,0.0241
2358.00,0.0240
2357.00,0.0240
2356.00,0.0240
2355.00,0.0239
2354.00,0.0239
2353.00,0.0239
2352.00,0.0239
2351.00,0.0240
2350.00,0.0241
2349.00,0.0241
2348.00,0.0241
2347.00,0.0240
2346.00,0.0239
2345.00,0.0240
2344.00,0.0242
2343.00,0.0243
2342.00,0.0245
2341.00,0.0245
2340.00,0.0245
2339.00,0.0244
2338.00,0.0242
2337.00,0.0240
2336.00,0.0240
2335.00,0.0241
2334.00,0.0243
2333.00,0.0244
2332.00,0.0244
2331.00,0.0244
2330.00,0.0243
2329.00,0.0242
2328.00,0.0243
2327.00,0.0244
2326.00,0.0245
2325.00,0.0246
2324.00,0.0245
2323.00,0.0245
2322.00,0.0245
2321.00,0.0245
2320.00,0.0245
2319.00,0.0244
2318.00,0.0243
2317.00,0.0243
2316.00,0.0244
2315.00,0.0244
2314.00,0.0245
2313.00,0.0245
2312.00,0.0245
2311.00,0.0246
2310.00,0.0246
2309.00,0.0247
2308.00,0.0248
2307.00,0.0248
2306.00,0.0247
2305.00,0.0247
2304.00,0.0245
2303.00,0.0244
2302.00,0.0244
2301.00,0.0244
2300.00,0.0245
2299.00,0.0246
2298.00,0.0246
2297.00,0.0246
2296.00,0.0246
2295.00,0.0247
2294.00,0.0248
2293.00,0.0249
2292.00,0.0251
2291.00,0.0252
2290.00,0.0252
2289.00,0.0251
2288.00,0.0251
2287.00,0.0252
2286.00,0.0253
2285.00,0.0254
2284.00,0.0255
2283.00,0.0256
2282.00,0.0256
2281.00,0.0255
2280.00,0.0255
2279.00,0.0254
2278.00,0.0254
2277.00,0.0254
2276.00,0.0254
2275.00,0.0253
2274.00,0.0251
2273.00,0.0250
2272.00,0.0250
2271.00,0.0250
2270.00,0.0251
2269.00,0.0251
2268.00,0.0251
2267.00,0.0251
2266.00,0.0252
2265.00,0.0252
2264.00,0.0253
2263.00,0.0253
2262.00,0.0254
2261.00,0.0254
2260.00,0.0255
2259.00,0.0254
2258.00,0.0252
2257.00,0.0249
2256.00,0.0247
2255.00,0.0247
2254.00,0.0248
2253.00,0.0249
2252.00,0.0250
2251.00,0.0251
2250.00,0.0251
2249.00,0.0251
2248.00,0.0251
2247.00,0.0251
2246.00,0.0252
2245.00,0.0254
2244.00,0.0254
2243.00,0.0254
2242.00,0.0254
2241.00,0.0253
2240.00,0.0252
2239.00,0.0251
2238.00,0.0250
2237.00,0.0250
2236.00,0.0250
2235.00,0.0251
2234.00,0.0252
2233.00,0.0253
2232.00,0.0252
2231.00,0.0251
2230.00,0.0249
2229.00,0.0249
2228.00,0.0250
2227.00,0.0251
2226.00,0.0251
2225.00,0.0252
2224.00,0.0251
2223.00,0.0250
2222.00,0.0248
2221.00,0.0248
2220.00,0.0248
2219.00,0.0249
2218.00,0.0249
2217.00,0.0250
2216.00,0.0250
2215.00,0.0251
2214.00,0.0252
2213.00,0.0252
2212.00,0.0251
2211.00,0.0250
2210.00,0.0249
2209.00,0.0249
2208.00,0.0250
2207.00,0.0251
2206.00,0.0252
2205.00,0.0252
2204.00,0.0252
2203.00,0.0251
2202.00,0.0251
2201.00,0.0251
2200.00,0.0251
2199.00,0.0250
2198.00,0.0250
2197.00,0.0250
2196.00,0.0250
2195.00,0.0248
2194.00,0.0247
2193.00,0.0246
2192.00,0.0245
2191.00,0.0244
2190.00,0.0244
2189.00,0.0244
2188.00,0.0246
2187.00,0.0250
2186.00,0.0253
2185.00,0.0254
2184.00,0.0252
2183.00,0.0249
2182.00,0.0247
2181.00,0.0247
2180.00,0.0248
2179.00,0.0250
2178.00,0.0252
2177.00,0.0255
2176.00,0.0255
2175.00,0.0255
2174.00,0.0254
2173.00,0.0253
2172.00,0.0253
2171.00,0.0254
2170.00,0.0255
2169.00,0.0257
2168.00,0.0258
2167.00,0.0259
2166.00,0.0260
2165.00,0.0261
2164.00,0.0262
2163.00,0.0263
2162.00,0.0263
2161.00,0.0261
2160.00,0.0256
2159.00,0.0250
2158.00,0.0245
2157.00,0.0243
2156.00,0.0244
2155.00,0.0246
2154.00,0.0249
2153.00,0.0253
2152.00,0.0254
2151.00,0.0252
2150.00,0.0249
2149.00,0.0248
2148.00,0.0248
2147.00,0.0249
2146.00,0.0251
2145.00,0.0252
2144.00,0.0254
2143.00,0.0255
2142.00,0.0258
2141.00,0.0259
2140.00,0.0259
2139.00,0.0258
2138.00,0.0256
2137.00,0.0254
2136.00,0.0254
2135.00,0.0253
2134.00,0.0254
2133.00,0.0254
2132.00,0.0255
2131.00,0.0256
2130.00,0.0256
2129.00,0.0258
2128.00,0.0259
2127.00,0.0260
2126.00,0.0260
2125.00,0.0260
2124.00,0.0259
2123.00,0.0259
2122.00,0.0258
2121.00,0.0258
2120.00,0.0258
2119.00,0.0258
2118.00,0.0259
2117.00,0.0259
2116.00,0.0258
2115.00,0.0257
2114.00,0.0256
2113.00,0.0256
2112.00,0.0257
2111.00,0.0258
2110.00,0.0260
2109.00,0.0261
2108.00,0.0263
2107.00,0.0264
2106.00,0.0264
2105.00,0.0264
2104.00,0.0263
2103.00,0.0262
2102.00,0.0263
2101.00,0.0263
2100.00,0.0261
2099.00,0.0259
2098.00,0.0258
2097.00,0.0258
2096.00,0.0259
2095.00,0.0260
2094.00,0.0260
2093.00,0.0261
2092.00,0.0261
2091.00,0.0261
2090.00,0.0260
2089.00,0.0261
2088.00,0.0261
2087.00,0.0261
2086.00,0.0262
2085.00,0.0263
2084.00,0.0265
2083.00,0.0265
2082.00,0.0265
2081.00,0.0264
2080.00,0.0264
2079.00,0.0263
2078.00,0.0263
2077.00,0.0262
2076.00,0.0263
2075.00,0.0264
2074.00,0.0265
2073.00,0.0265
2072.00,0.0266
2071.00,0.0267
2070.00,0.0267
2069.00,0.0266
2068.00,0.0263
2067.00,0.0261
2066.00,0.0260
2065.00,0.0261
2064.00,0.0262
2063.00,0.0263
2062.00,0.0264
2061.00,0.0263
2060.00,0.0262
2059.00,0.0262
2058.00,0.0262
2057.00,0.0263
2056.00,0.0263
2055.00,0.0264
2054.00,0.0265
2053.00,0.0267
2052.00,0.0268
2051.00,0.0267
2050.00,0.0265
2049.00,0.0263
2048.00,0.0262
2047.00,0.0262
2046.00,0.0264
2045.00,0.0267
2044.00,0.0270
2043.00,0.0272
2042.00,0.0271
2041.00,0.0268
2040.00,0.0265
2039.00,0.0262
2038.00,0.0263
2037.00,0.0266
2036.00,0.0269
2035.00,0.0269
2034.00,0.0267
2033.00,0.0267
2032.00,0.0270
2031.00,0.0274
2030.00,0.0275
2029.00,0.0273
2028.00,0.0270
2027.00,0.0268
2026.00,0.0267
2025.00,0.0266
2024.00,0.0264
2023.00,0.0262
2022.00,0.0260
2021.00,0.0259
2020.00,0.0258
2019.00,0.0256
2018.00,0.0253
2017.00,0.0253
2016.00,0.0255
2015.00,0.0258
2014.00,0.0261
2013.00,0.0262
2012.00,0.0262
2011.00,0.0262
2010.00,0.0263
2009.00,0.0265
2008.00,0.0266
2007.00,0.0266
2006.00,0.0265
2005.00,0.0263
2004.00,0.0264
2003.00,0.0267
2002.00,0.0272
2001.00,0.0275
2000.00,0.0275
1999.00,0.0272
1998.00,0.0269
1997.00,0.0269
1996.00,0.0271
1995.00,0.0275
1994.00,0.0278
1993.00,0.0279
1992.00,0.0279
1991.00,0.0276
1990.00,0.0272
1989.00,0.0270
1988.00,0.0268
1987.00,0.0268
1986.00,0.0268
1985.00,0.0269
1984.00,0.0270
1983.00,0.0271
1982.00,0.0272
1981.00,0.0271
1980.00,0.0268
1979.00,0.0264
1978.00,0.0260
1977.00,0.0258
1976.00,0.0260
1975.00,0.0264
1974.00,0.0269
1973.00,0.0271
1972.00,0.0270
1971.00,0.0268
1970.00,0.0268
1969.00,0.0270
1968.00,0.0272
1967.00,0.0272
1966.00,0.0270
1965.00,0.0268
1964.00,0.0268
1963.00,0.0269
1962.00,0.0269
1961.00,0.0270
1960.00,0.0271
1959.00,0.0272
1958.00,0.0273
1957.00,0.0273
1956.00,0.0272
1955.00,0.0271
1954.00,0.0271
1953.00,0.0272
1952.00,0.0272
1951.00,0.0272
1950.00,0.0271
1949.00,0.0270
1948.00,0.0270
1947.00,0.0271
1946.00,0.0272
1945.00,0.0272
1944.00,0.0271
1943.00,0.0269
1942.00,0.0269
1941.00,0.0270
1940.00,0.0269
1939.00,0.0268
1938.00,0.0267
1937.00,0.0267
1936.00,0.0268
1935.00,0.0268
1934.00,0.0267
1933.00,0.0267
1932.00,0.0268
1931.00,0.0270
1930.00,0.0273
1929.00,0.0276
1928.00,0.0277
1927.00,0.0278
1926.00,0.0278
1925.00,0.0278
1924.00,0.0278
1923.00,0.0277
1922.00,0.0277
1921.00,0.0276
1920.00,0.0275
1919.00,0.0273
1918.00,0.0273
1917.00,0.0273
1916.00,0.0274
1915.00,0.0275
1914.00,0.0276
1913.00,0.0276
1912.00,0.0276
1911.00,0.0276
1910.00,0.0275
1909.00,0.0274
1908.00,0.0274
1907.00,0.0274
1906.00,0.0274
1905.00,0.0275
1904.00,0.0276
1903.00,0.0276
1902.00,0.0276
1901.00,0.0276
1900.00,0.0276
1899.00,0.0277
1898.00,0.0278
1897.00,0.0278
1896.00,0.0277
1895.00,0.0276
1894.00,0.0276
1893.00,0.0277
1892.00,0.0277
1891.00,0.0277
1890.00,0.0277
1889.00,0.0277
1888.00,0.0277
1887.00,0.0277
1886.00,0.0277
1885.00,0.0278
1884.00,0.0278
1883.00,0.0278
1882.00,0.0278
1881.00,0.0278
1880.00,0.0279
1879.00,0.0279
1878.00,0.0278
1877.00,0.0278
1876.00,0.0278
1875.00,0.0278
1874.00,0.0280
1873.00,0.0281
1872.00,0.0281
1871.00,0.0282
1870.00,0.0282
1869.00,0.0282
1868.00,0.0282
1867.00,0.0282
1866.00,0.0282
1865.00,0.0282
1864.00,0.0281
1863.00,0.0280
1862.00,0.0279
1861.00,0.0278
1860.00,0.0278
1859.00,0.0278
1858.00,0.0279
1857.00,0.0280
1856.00,0.0281
1855.00,0.0282
1854.00,0.0282
1853.00,0.0281
1852.00,0.0281
1851.00,0.0281
1850.00,0.0282
1849.00,0.0282
1848.00,0.0282
1847.00,0.0282
1846.00,0.0283
1845.00,0.0283
1844.00,0.0283
1843.00,0.0283
1842.00,0.0283
1841.00,0.0283
1840.00,0.0283
1839.00,0.0283
1838.00,0.0283
1837.00,0.0283
1836.00,0.0283
1835.00,0.0284
1834.00,0.0284
1833.00,0.0285
1832.00,0.0286
1831.00,0.0287
1830.00,0.0288
1829.00,0.0287
1828.00,0.0286
1827.00,0.0285
1826.00,0.0285
1825.00,0.0285
1824.00,0.0285
1823.00,0.0285
1822.00,0.0285
1821.00,0.0285
1820.00,0.0285
1819.00,0.0285
1818.00,0.0284
1817.00,0.0284
1816.00,0.0284
1815.00,0.0284
1814.00,0.0284
1813.00,0.0284
1812.00,0.0285
1811.00,0.0285
1810.00,0.0286
1809.00,0.0286
1808.00,0.0287
1807.00,0.0287
1806.00,0.0287
1805.00,0.0287
1804.00,0.0287
1803.00,0.0287
1802.00,0.0287
1801.00,0.0287
1800.00,0.0287
1799.00,0.0287
1798.00,0.0288
1797.00,0.0288
1796.00,0.0288
1795.00,0.0288
1794.00,0.0287
1793.00,0.0287
1792.00,0.0288
1791.00,0.0288
1790.00,0.0288
1789.00,0.0288
1788.00,0.0288
1787.00,0.0288
1786.00,0.0288
1785.00,0.0288
1784.00,0.0288
1783.00,0.0289
1782.00,0.0288
1781.00,0.0288
1780.00,0.0287
1779.00,0.0287
1778.00,0.0287
1777.00,0.0288
1776.00,0.0288
1775.00,0.0289
1774.00,0.0289
1773.00,0.0288
1772.00,0.0287
1771.00,0.0286
1770.00,0.0286
1769.00,0.0286
1768.00,0.0287
1767.00,0.0287
1766.00,0.0287
1765.00,0.0287
1764.00,0.0287
1763.00,0.0287
1762.00,0.0287
1761.00,0.0287
1760.00,0.0287
1759.00,0.0286
1758.00,0.0285
1757.00,0.0285
1756.00,0.0285
1755.00,0.0286
1754.00,0.0286
1753.00,0.0286
1752.00,0.0285
1751.00,0.0284
1750.00,0.0283
1749.00,0.0284
1748.00,0.0284
1747.00,0.0285
1746.00,0.0285
1745.00,0.0285
1744.00,0.0285
1743.00,0.0285
1742.00,0.0284
1741.00,0.0284
1740.00,0.0284
1739.00,0.0283
1738.00,0.0283
1737.00,0.0283
1736.00,0.0283
1735.00,0.0282
1734.00,0.0282
1733.00,0.0282
1732.00,0.0283
1731.00,0.0283
1730.00,0.0283
1729.00,0.0283
1728.00,0.0283
1727.00,0.0282
1726.00,0.0282
1725.00,0.0282
1724.00,0.0283
1723.00,0.0283
1722.00,0.0283
1721.00,0.0283
1720.00,0.0283
1719.00,0.0282
1718.00,0.0281
1717.00,0.0281
1716.00,0.0281
1715.00,0.0281
1714.00,0.0281
1713.00,0.0282
1712.00,0.0282
1711.00,0.0282
1710.00,0.0282
1709.00,0.0282
1708.00,0.0283
1707.00,0.0283
1706.00,0.0282
1705.00,0.0282
1704.00,0.0283
1703.00,0.0283
1702.00,0.0283
1701.00,0.0282
1700.00,0.0281
1699.00,0.0281
1698.00,0.0282
1697.00,0.0282
1696.00,0.0283
1695.00,0.0283
1694.00,0.0282
1693.00,0.0282
1692.00,0.0283
1691.00,0.0283
1690.00,0.0284
1689.00,0.0284
1688.00,0.0284
1687.00,0.0285
1686.00,0.0284
1685.00,0.0283
1684.00,0.0282
1683.00,0.0282
1682.00,0.0281
1681.00,0.0280
1680.00,0.0280
1679.00,0.0279
1678.00,0.0280
1677.00,0.0280
1676.00,0.0280
1675.00,0.0281
1674.00,0.0281
1673.00,0.0280
1672.00,0.0280
1671.00,0.0280
1670.00,0.0279
1669.00,0.0280
1668.00,0.0279
1667.00,0.0279
1666.00,0.0278
1665.00,0.0278
1664.00,0.0277
1663.00,0.0276
1662.00,0.0276
1661.00,0.0276
1660.00,0.0277
1659.00,0.0279
1658.00,0.0280
1657.00,0.0280
1656.00,0.0279
1655.00,0.0278
1654.00,0.0275
1653.00,0.0275
1652.00,0.0276
1651.00,0.0276
1650.00,0.0276
1649.00,0.0276
1648.00,0.0274
1647.00,0.0273
1646.00,0.0273
1645.00,0.0274
1644.00,0.0275
1643.00,0.0275
1642.00,0.0275
1641.00,0.0274
1640.00,0.0274
1639.00,0.0274
1638.00,0.0274
1637.00,0.0274
1636.00,0.0274
1635.00,0.0275
1634.00,0.0274
1633.00,0.0272
1632.00,0.0270
1631.00,0.0269
1630.00,0.0269
1629.00,0.0269
1628.00,0.0269
1627.00,0.0269
1626.00,0.0270
1625.00,0.0271
1624.00,0.0271
1623.00,0.0270
1622.00,0.0269
1621.00,0.0269
1620.00,0.0269
1619.00,0.0269
1618.00,0.0269
1617.00,0.0267
1616.00,0.0267
1615.00,0.0267
1614.00,0.0267
1613.00,0.0267
1612.00,0.0267
1611.00,0.0268
1610.00,0.0268
1609.00,0.0267
1608.00,0.0266
1607.00,0.0266
1606.00,0.0267
1605.00,0.0267
1604.00,0.0267
1603.00,0.0266
1602.00,0.0265
1601.00,0.0264
1600.00,0.0264
1599.00,0.0264
1598.00,0.0264
1597.00,0.0265
1596.00,0.0265
1595.00,0.0266
1594.00,0.0266
1593.00,0.0266
1592.00,0.0266
1591.00,0.0265
1590.00,0.0265
1589.00,0.0265
1588.00,0.0266
1587.00,0.0266
1586.00,0.0267
1585.00,0.0267
1584.00,0.0266
1583.00,0.0267
1582.00,0.0267
1581.00,0.0267
1580.00,0.0267
1579.00,0.0269
1578.00,0.0270
1577.00,0.0271
1576.00,0.0270
1575.00,0.0269
1574.00,0.0268
1573.00,0.0268
1572.00,0.0268
1571.00,0.0268
1570.00,0.0268
1569.00,0.0268
1568.00,0.0268
1567.00,0.0269
1566.00,0.0270
1565.00,0.0269
1564.00,0.0269
1563.00,0.0270
1562.00,0.0271
1561.00,0.0273
1560.00,0.0274
1559.00,0.0273
1558.00,0.0273
1557.00,0.0272
1556.00,0.0270
1555.00,0.0270
1554.00,0.0271
1553.00,0.0272
1552.00,0.0273
1551.00,0.0274
1550.00,0.0273
1549.00,0.0273
1548.00,0.0272
1547.00,0.0272
1546.00,0.0273
1545.00,0.0274
1544.00,0.0274
1543.00,0.0274
1542.00,0.0273
1541.00,0.0273
1540.00,0.0274
1539.00,0.0276
1538.00,0.0275
1537.00,0.0275
1536.00,0.0275
1535.00,0.0276
1534.00,0.0277
1533.00,0.0278
1532.00,0.0279
1531.00,0.0279
1530.00,0.0280
1529.00,0.0281
1528.00,0.0281
1527.00,0.0280
1526.00,0.0280
1525.00,0.0280
1524.00,0.0280
1523.00,0.0280
1522.00,0.0281
1521.00,0.0283
1520.00,0.0284
1519.00,0.0286
1518.00,0.0286
1517.00,0.0285
1516.00,0.0285
1515.00,0.0285
1514.00,0.0285
1513.00,0.0285
1512.00,0.0285
1511.00,0.0286
1510.00,0.0287
1509.00,0.0288
1508.00,0.0288
1507.00,0.0288
1506.00,0.0289
1505.00,0.0288
1504.00,0.0288
1503.00,0.0287
1502.00,0.0287
1501.00,0.0287
1500.00,0.0288
1499.00,0.0289
1498.00,0.0291
1497.00,0.0292
1496.00,0.0292
1495.00,0.0292
1494.00,0.0292
1493.00,0.0291
1492.00,0.0291
1491.00,0.0291
1490.00,0.0292
1489.00,0.0292
1488.00,0.0292
1487.00,0.0291
1486.00,0.0291
1485.00,0.0290
1484.00,0.0290
1483.00,0.0289
1482.00,0.0290
1481.00,0.0290
1480.00,0.0290
1479.00,0.0290
1478.00,0.0290
1477.00,0.0290
1476.00,0.0290
1475.00,0.0289
1474.00,0.0289
1473.00,0.0288
1472.00,0.0289
1471.00,0.0290
1470.00,0.0290
1469.00,0.0291
1468.00,0.0292
1467.00,0.0291
1466.00,0.0291
1465.00,0.0290
1464.00,0.0289
1463.00,0.0289
1462.00,0.0289
1461.00,0.0288
1460.00,0.0288
1459.00,0.0288
1458.00,0.0287
1457.00,0.0288
1456.00,0.0288
1455.00,0.0288
1454.00,0.0288
1453.00,0.0288
1452.00,0.0289
1451.00,0.0289
1450.00,0.0290
1449.00,0.0290
1448.00,0.0291
1447.00,0.0292
1446.00,0.0293
1445.00,0.0293
1444.00,0.0292
1443.00,0.0292
1442.00,0.0291
1441.00,0.0291
1440.00,0.0291
1439.00,0.0292
1438.00,0.0293
1437.00,0.0293
1436.00,0.0293
1435.00,0.0292
1434.00,0.0292
1433.00,0.0292
1432.00,0.0292
1431.00,0.0292
1430.00,0.0292
1429.00,0.0291
1428.00,0.0291
1427.00,0.0291
1426.00,0.0292
1425.00,0.0292
1424.00,0.0292
1423.00,0.0291
1422.00,0.0291
1421.00,0.0291
1420.00,0.0291
1419.00,0.0292
1418.00,0.0292
1417.00,0.0292
1416.00,0.0292
1415.00,0.0292
1414.00,0.0291
1413.00,0.0290
1412.00,0.0289
1411.00,0.0288
1410.00,0.0288
1409.00,0.0288
1408.00,0.0288
1407.00,0.0288
1406.00,0.0287
1405.00,0.0286
1404.00,0.0285
1403.00,0.0284
1402.00,0.0283
1401.00,0.0282
1400.00,0.0282
1399.00,0.0281
1398.00,0.0281
1397.00,0.0281
1396.00,0.0281
1395.00,0.0280
1394.00,0.0280
1393.00,0.0279
1392.00,0.0279
1391.00,0.0279
1390.00,0.0279
1389.00,0.0279
1388.00,0.0279
1387.00,0.0278
1386.00,0.0278
1385.00,0.0278
1384.00,0.0277
1383.00,0.0277
1382.00,0.0278
1381.00,0.0278
1380.00,0.0279
1379.00,0.0280
1378.00,0.0280
1377.00,0.0281
1376.00,0.0282
1375.00,0.0283
1374.00,0.0284
1373.00,0.0284
1372.00,0.0284
1371.00,0.0284
1370.00,0.0285
1369.00,0.0285
1368.00,0.0285
1367.00,0.0285
1366.00,0.0286
1365.00,0.0286
1364.00,0.0286
1363.00,0.0287
1362.00,0.0287
1361.00,0.0288
1360.00,0.0288
1359.00,0.0288
1358.00,0.0289
1357.00,0.0290
1356.00,0.0291
1355.00,0.0292
1354.00,0.0293
1353.00,0.0293
1352.00,0.0292
1351.00,0.0292
1350.00,0.0291
1349.00,0.0291
1348.00,0.0291
1347.00,0.0292
1346.00,0.0292
1345.00,0.0293
1344.00,0.0293
1343.00,0.0293
1342.00,0.0294
1341.00,0.0295
1340.00,0.0295
1339.00,0.0296
1338.00,0.0297
1337.00,0.0297
1336.00,0.0297
1335.00,0.0297
1334.00,0.0297
1333.00,0.0297
1332.00,0.0297
1331.00,0.0297
1330.00,0.0297
1329.00,0.0298
1328.00,0.0298
1327.00,0.0298
1326.00,0.0298
1325.00,0.0298
1324.00,0.0299
1323.00,0.0300
1322.00,0.0301
1321.00,0.0303
1320.00,0.0303
1319.00,0.0303
1318.00,0.0302
1317.00,0.0301
1316.00,0.0300
1315.00,0.0300
1314.00,0.0301
1313.00,0.0302
1312.00,0.0303
1311.00,0.0304
1310.00,0.0305
1309.00,0.0305
1308.00,0.0305
1307.00,0.0305
1306.00,0.0305
1305.00,0.0306
1304.00,0.0307
1303.00,0.0308
1302.00,0.0308
1301.00,0.0309
1300.00,0.0308
1299.00,0.0308
1298.00,0.0307
1297.00,0.0307
1296.00,0.0306
1295.00,0.0307
1294.00,0.0307
1293.00,0.0308
1292.00,0.0309
1291.00,0.0309
1290.00,0.0310
1289.00,0.0311
1288.00,0.0311
1287.00,0.0311
1286.00,0.0311
1285.00,0.0311
1284.00,0.0312
1283.00,0.0312
1282.00,0.0312
1281.00,0.0312
1280.00,0.0312
1279.00,0.0311
1278.00,0.0311
1277.00,0.0311
1276.00,0.0311
1275.00,0.0311
1274.00,0.0311
1273.00,0.0311
1272.00,0.0311
1271.00,0.0312
1270.00,0.0312
1269.00,0.0313
1268.00,0.0313
1267.00,0.0313
1266.00,0.0313
1265.00,0.0313
1264.00,0.0313
1263.00,0.0313
1262.00,0.0313
1261.00,0.0313
1260.00,0.0314
1259.00,0.0315
1258.00,0.0316
1257.00,0.0316
1256.00,0.0315
1255.00,0.0315
1254.00,0.0316
1253.00,0.0317
1252.00,0.0318
1251.00,0.0318
1250.00,0.0318
1249.00,0.0318
1248.00,0.0318
1247.00,0.0319
1246.00,0.0321
1245.00,0.0322
1244.00,0.0323
1243.00,0.0324
1242.00,0.0324
1241.00,0.0323
1240.00,0.0323
1239.00,0.0323
1238.00,0.0324
1237.00,0.0326
1236.00,0.0327
1235.00,0.0328
1234.00,0.0328
1233.00,0.0329
1232.00,0.0329
1231.00,0.0329
1230.00,0.0330
1229.00,0.0330
1228.00,0.0331
1227.00,0.0333
1226.00,0.0333
1225.00,0.0333
1224.00,0.0333
1223.00,0.0333
1222.00,0.0334
1221.00,0.0336
1220.00,0.0337
1219.00,0.0339
1218.00,0.0340
1217.00,0.0340
1216.00,0.0341
1215.00,0.0341
1214.00,0.0341
1213.00,0.0341
1212.00,0.0342
1211.00,0.0344
1210.00,0.0345
1209.00,0.0346
1208.00,0.0347
1207.00,0.0347
1206.00,0.0346
1205.00,0.0346
1204.00,0.0346
1203.00,0.0346
1202.00,0.0347
1201.00,0.0348
1200.00,0.0349
1199.00,0.0350
1198.00,0.0351
1197.00,0.0351
1196.00,0.0351
1195.00,0.0351
1194.00,0.0351
1193.00,0.0352
1192.00,0.0353
1191.00,0.0353
1190.00,0.0354
1189.00,0.0353
1188.00,0.0353
1187.00,0.0354
1186.00,0.0354
1185.00,0.0355
1184.00,0.0355
1183.00,0.0355
1182.00,0.0354
1181.00,0.0353
1180.00,0.0352
1179.00,0.0352
1178.00,0.0352
1177.00,0.0353
1176.00,0.0353
1175.00,0.0354
1174.00,0.0355
1173.00,0.0355
1172.00,0.0354
1171.00,0.0353
1170.00,0.0353
1169.00,0.0353
1168.00,0.0353
1167.00,0.0354
1166.00,0.0355
1165.00,0.0355
1164.00,0.0356
1163.00,0.0356
1162.00,0.0356
1161.00,0.0356
1160.00,0.0357
1159.00,0.0357
1158.00,0.0358
1157.00,0.0358
1156.00,0.0359
1155.00,0.0360
1154.00,0.0361
1153.00,0.0362
1152.00,0.0362
1151.00,0.0362
1150.00,0.0362
1149.00,0.0362
1148.00,0.0362
1147.00,0.0362
1146.00,0.0363
1145.00,0.0365
1144.00,0.0366
1143.00,0.0369
1142.00,0.0371
1141.00,0.0372
1140.00,0.0373
1139.00,0.0374
1138.00,0.0374
1137.00,0.0374
1136.00,0.0375
1135.00,0.0376
1134.00,0.0378
1133.00,0.0380
1132.00,0.0380
1131.00,0.0381
1130.00,0.0381
1129.00,0.0384
1128.00,0.0386
1127.00,0.0387
1126.00,0.0385
1125.00,0.0384
1124.00,0.0384
1123.00,0.0386
1122.00,0.0390
1121.00,0.0393
1120.00,0.0396
1119.00,0.0396
1118.00,0.0396
1117.00,0.0397
1116.00,0.0399
1115.00,0.0401
1114.00,0.0402
1113.00,0.0403
1112.00,0.0402
1111.00,0.0402
1110.00,0.0403
1109.00,0.0404
1108.00,0.0405
1107.00,0.0406
1106.00,0.0405
1105.00,0.0404
1104.00,0.0404
1103.00,0.0405
1102.00,0.0407
1101.00,0.0408
1100.00,0.0409
1099.00,0.0409
1098.00,0.0410
1097.00,0.0410
1096.00,0.0410
1095.00,0.0409
1094.00,0.0409
1093.00,0.0409
1092.00,0.0409
1091.00,0.0409
1090.00,0.0409
1089.00,0.0407
1088.00,0.0406
1087.00,0.0406
1086.00,0.0407
1085.00,0.0409
1084.00,0.0411
1083.00,0.0412
1082.00,0.0413
1081.00,0.0415
1080.00,0.0416
1079.00,0.0418
1078.00,0.0420
1077.00,0.0421
1076.00,0.0420
1075.00,0.0419
1074.00,0.0417
1073.00,0.0417
1072.00,0.0418
1071.00,0.0418
1070.00,0.0417
1069.00,0.0416
1068.00,0.0415
1067.00,0.0415
1066.00,0.0417
1065.00,0.0419
1064.00,0.0422
1063.00,0.0424
1062.00,0.0425
1061.00,0.0424
1060.00,0.0422
1059.00,0.0421
1058.00,0.0422
1057.00,0.0423
1056.00,0.0425
1055.00,0.0426
1054.00,0.0428
1053.00,0.0429
1052.00,0.0430
1051.00,0.0431
1050.00,0.0431
1049.00,0.0433
1048.00,0.0436
1047.00,0.0437
1046.00,0.0438
1045.00,0.0439
1044.00,0.0440
1043.00,0.0441
1042.00,0.0441
1041.00,0.0440
1040.00,0.0439
1039.00,0.0440
1038.00,0.0440
1037.00,0.0441
1036.00,0.0441
1035.00,0.0441
1034.00,0.0441
1033.00,0.0441
1032.00,0.0441
1031.00,0.0441
1030.00,0.0440
1029.00,0.0439
1028.00,0.0438
1027.00,0.0438
1026.00,0.0438
1025.00,0.0439
1024.00,0.0439
1023.00,0.0439
1022.00,0.0438
1021.00,0.0438
1020.00,0.0437
1019.00,0.0436
1018.00,0.0436
1017.00,0.0436
1016.00,0.0437
1015.00,0.0439
1014.00,0.0441
1013.00,0.0442
1012.00,0.0442
1011.00,0.0442
1010.00,0.0442
1009.00,0.0443
1008.00,0.0443
1007.00,0.0442
1006.00,0.0441
1005.00,0.0441
1004.00,0.0443
1003.00,0.0444
1002.00,0.0444
1001.00,0.0444
1000.00,0.0441
999.00,0.0438
998.00,0.0436
997.00,0.0436
996.00,0.0438
995.00,0.0440
994.00,0.0440
993.00,0.0438
992.00,0.0436
991.00,0.0434
990.00,0.0434
989.00,0.0434
988.00,0.0435
987.00,0.0436
986.00,0.0437
985.00,0.0437
984.00,0.0436
983.00,0.0434
982.00,0.0432
981.00,0.0432
980.00,0.0433
979.00,0.0433
978.00,0.0432
977.00,0.0430
976.00,0.0428
975.00,0.0427
974.00,0.0428
973.00,0.0429
972.00,0.0430
971.00,0.0429
970.00,0.0428
969.00,0.0426
968.00,0.0425
967.00,0.0424
966.00,0.0424
965.00,0.0424
964.00,0.0424
963.00,0.0425
962.00,0.0426
961.00,0.0426
960.00,0.0425
959.00,0.0424
958.00,0.0423
957.00,0.0423
956.00,0.0423
955.00,0.0424
954.00,0.0423
953.00,0.0423
952.00,0.0423
951.00,0.0425
950.00,0.0426
949.00,0.0427
948.00,0.0428
947.00,0.0427
946.00,0.0427
945.00,0.0427
944.00,0.0427
943.00,0.0427
942.00,0.0427
941.00,0.0427
940.00,0.0428
939.00,0.0430
938.00,0.0431
937.00,0.0431
936.00,0.0430
935.00,0.0429
934.00,0.0429
933.00,0.0431
932.00,0.0433
931.00,0.0435
930.00,0.0436
929.00,0.0438
928.00,0.0440
927.00,0.0441
926.00,0.0441
925.00,0.0441
924.00,0.0441
923.00,0.0442
922.00,0.0443
921.00,0.0444
920.00,0.0445
919.00,0.0444
918.00,0.0445
917.00,0.0446
916.00,0.0447
915.00,0.0449
914.00,0.0449
913.00,0.0448
912.00,0.0448
911.00,0.0447
910.00,0.0446
909.00,0.0444
908.00,0.0441
907.00,0.0440
906.00,0.0441
905.00,0.0444
904.00,0.0448
903.00,0.0452
902.00,0.0454
901.00,0.0453
900.00,0.0450
899.00,0.0449
898.00,0.0450
897.00,0.0452
896.00,0.0453
895.00,0.0454
894.00,0.0453
893.00,0.0450
892.00,0.0448
891.00,0.0447
890.00,0.0447
889.00,0.0450
888.00,0.0452
887.00,0.0452
886.00,0.0450
885.00,0.0448
884.00,0.0449
883.00,0.0453
882.00,0.0456
881.00,0.0457
880.00,0.0455
879.00,0.0453
878.00,0.0450
877.00,0.0447
876.00,0.0445
875.00,0.0445
874.00,0.0446
873.00,0.0447
872.00,0.0448
871.00,0.0448
870.00,0.0449
869.00,0.0449
868.00,0.0448
867.00,0.0447
866.00,0.0447
865.00,0.0448
864.00,0.0449
863.00,0.0450
862.00,0.0451
861.00,0.0453
860.00,0.0453
859.00,0.0452
858.00,0.0449
857.00,0.0447
856.00,0.0447
855.00,0.0450
854.00,0.0453
853.00,0.0454
852.00,0.0453
851.00,0.0452
850.00,0.0453
849.00,0.0455
848.00,0.0457
847.00,0.0459
846.00,0.0461
845.00,0.0463
844.00,0.0464
843.00,0.0463
842.00,0.0460
841.00,0.0458
840.00,0.0456
839.00,0.0454
838.00,0.0453
837.00,0.0453
836.00,0.0453
835.00,0.0453
834.00,0.0453
833.00,0.0452
832.00,0.0453
831.00,0.0453
830.00,0.0453
829.00,0.0453
828.00,0.0453
827.00,0.0455
826.00,0.0457
825.00,0.0460
824.00,0.0463
823.00,0.0464
822.00,0.0464
821.00,0.0464
820.00,0.0464
819.00,0.0465
818.00,0.0464
817.00,0.0461
816.00,0.0458
815.00,0.0457
814.00,0.0457
813.00,0.0458
812.00,0.0461
811.00,0.0463
810.00,0.0464
809.00,0.0465
808.00,0.0465
807.00,0.0465
806.00,0.0465
805.00,0.0463
804.00,0.0462
803.00,0.0461
802.00,0.0462
801.00,0.0465
800.00,0.0469
799.00,0.0473
798.00,0.0475
797.00,0.0476
796.00,0.0476
795.00,0.0475
794.00,0.0473
793.00,0.0471
792.00,0.0471
791.00,0.0474
790.00,0.0476
789.00,0.0477
788.00,0.0476
787.00,0.0474
786.00,0.0474
785.00,0.0476
784.00,0.0479
783.00,0.0481
782.00,0.0481
781.00,0.0480
780.00,0.0479
779.00,0.0477
778.00,0.0477
777.00,0.0478
776.00,0.0479
775.00,0.0479
774.00,0.0477
773.00,0.0475
772.00,0.0474
771.00,0.0474
770.00,0.0474
769.00,0.0475
768.00,0.0475
767.00,0.0474
766.00,0.0473
765.00,0.0472
764.00,0.0471
763.00,0.0470
762.00,0.0469
761.00,0.0468
760.00,0.0468
759.00,0.0471
758.00,0.0475
757.00,0.0478
756.00,0.0479
755.00,0.0478
754.00,0.0477
753.00,0.0477
752.00,0.0479
751.00,0.0480
750.00,0.0483
749.00,0.0485
748.00,0.0487
747.00,0.0489
746.00,0.0488
745.00,0.0487
744.00,0.0486
743.00,0.0487
742.00,0.0489
741.00,0.0488
740.00,0.0484
739.00,0.0478
738.00,0.0474
737.00,0.0471
736.00,0.0470
735.00,0.0469
734.00,0.0469
733.00,0.0470
732.00,0.0472
731.00,0.0475
730.00,0.0477
729.00,0.0477
728.00,0.0476
727.00,0.0476
726.00,0.0478
725.00,0.0480
724.00,0.0480
723.00,0.0479
722.00,0.0477
721.00,0.0476
720.00,0.0478
719.00,0.0482
718.00,0.0484
717.00,0.0486
716.00,0.0486
715.00,0.0485
714.00,0.0485
713.00,0.0487
712.00,0.0489
711.00,0.0490
710.00,0.0489
709.00,0.0488
708.00,0.0487
707.00,0.0489
706.00,0.0493
705.00,0.0498
704.00,0.0503
703.00,0.0505
702.00,0.0503
701.00,0.0500
700.00,0.0497
699.00,0.0495
698.00,0.0495
697.00,0.0496
696.00,0.0499
695.00,0.0504
694.00,0.0507
693.00,0.0508
692.00,0.0506
691.00,0.0504
690.00,0.0503
689.00,0.0502
688.00,0.0500
687.00,0.0496
686.00,0.0495
685.00,0.0495
684.00,0.0494
683.00,0.0490
682.00,0.0485
681.00,0.0482
680.00,0.0484
679.00,0.0487
678.00,0.0490
677.00,0.0494
676.00,0.0498
675.00,0.0499
674.00,0.0496
673.00,0.0493
672.00,0.0495
671.00,0.0501
670.00,0.0511
669.00,0.0519
668.00,0.0520
667.00,0.0516
666.00,0.0513
665.00,0.0512
664.00,0.0513
663.00,0.0513
662.00,0.0512
661.00,0.0509
660.00,0.0503
659.00,0.0498
658.00,0.0497
657.00,0.0501
656.00,0.0508
655.00,0.0510
654.00,0.0508
653.00,0.0503
652.00,0.0501
651.00,0.0497
650.00,0.0486
