Created as New Dataset,Monday, April 03 2023
cm-1,A
4000.00,0.0152
3999.00,0.0152
3998.00,0.0152
3997.00,0.0151
3996.00,0.0151
3995.00,0.0151
3994.00,0.0150
3993.00,0.0150
3992.00,0.0150
3991.00,0.0150
3990.00,0.0150
3989.00,0.0150
3988.00,0.0149
3987.00,0.0150
3986.00,0.0150
3985.00,0.0150
3984.00,0.0150
3983.00,0.0150
3982.00,0.0150
3981.00,0.0150
3980.00,0.0149
3979.00,0.0149
3978.00,0.0149
3977.00,0.0148
3976.00,0.0148
3975.00,0.0147
3974.00,0.0147
3973.00,0.0147
3972.00,0.0147
3971.00,0.0148
3970.00,0.0148
3969.00,0.0149
3968.00,0.0148
3967.00,0.0148
3966.00,0.0147
3965.00,0.0147
3964.00,0.0148
3963.00,0.0148
3962.00,0.0148
3961.00,0.0147
3960.00,0.0146
3959.00,0.0145
3958.00,0.0145
3957.00,0.0146
3956.00,0.0146
3955.00,0.0145
3954.00,0.0145
3953.00,0.0145
3952.00,0.0144
3951.00,0.0145
3950.00,0.0145
3949.00,0.0145
3948.00,0.0145
3947.00,0.0144
3946.00,0.0143
3945.00,0.0143
3944.00,0.0142
3943.00,0.0142
3942.00,0.0141
3941.00,0.0141
3940.00,0.0142
3939.00,0.0143
3938.00,0.0144
3937.00,0.0144
3936.00,0.0143
3935.00,0.0142
3934.00,0.0142
3933.00,0.0141
3932.00,0.0140
3931.00,0.0140
3930.00,0.0140
3929.00,0.0140
3928.00,0.0141
3927.00,0.0142
3926.00,0.0142
3925.00,0.0142
3924.00,0.0141
3923.00,0.0141
3922.00,0.0140
3921.00,0.0140
3920.00,0.0139
3919.00,0.0139
3918.00,0.0140
3917.00,0.0140
3916.00,0.0140
3915.00,0.0140
3914.00,0.0140
3913.00,0.0141
3912.00,0.0141
3911.00,0.0142
3910.00,0.0142
3909.00,0.0141
3908.00,0.0139
3907.00,0.0138
3906.00,0.0136
3905.00,0.0134
3904.00,0.0132
3903.00,0.0131
3902.00,0.0130
3901.00,0.0131
3900.00,0.0132
3899.00,0.0133
3898.00,0.0134
3897.00,0.0134
3896.00,0.0135
3895.00,0.0136
3894.00,0.0136
3893.00,0.0136
3892.00,0.0136
3891.00,0.0135
3890.00,0.0133
3889.00,0.0131
3888.00,0.0131
3887.00,0.0132
3886.00,0.0132
3885.00,0.0132
3884.00,0.0130
3883.00,0.0130
3882.00,0.0130
3881.00,0.0130
3880.00,0.0130
3879.00,0.0130
3878.00,0.0131
3877.00,0.0133
3876.00,0.0134
3875.00,0.0135
3874.00,0.0133
3873.00,0.0130
3872.00,0.0128
3871.00,0.0128
3870.00,0.0129
3869.00,0.0129
3868.00,0.0128
3867.00,0.0128
3866.00,0.0130
3865.00,0.0131
3864.00,0.0132
3863.00,0.0132
3862.00,0.0132
3861.00,0.0132
3860.00,0.0132
3859.00,0.0131
3858.00,0.0128
3857.00,0.0125
3856.00,0.0120
3855.00,0.0119
3854.00,0.0121
3853.00,0.0123
3852.00,0.0122
3851.00,0.0122
3850.00,0.0125
3849.00,0.0128
3848.00,0.0130
3847.00,0.0131
3846.00,0.0131
3845.00,0.0130
3844.00,0.0129
3843.00,0.0127
3842.00,0.0125
3841.00,0.0124
3840.00,0.0123
3839.00,0.0124
3838.00,0.0124
3837.00,0.0123
3836.00,0.0124
3835.00,0.0125
3834.00,0.0126
3833.00,0.0128
3832.00,0.0129
3831.00,0.0130
3830.00,0.0130
3829.00,0.0130
3828.00,0.0130
3827.00,0.0129
3826.00,0.0128
3825.00,0.0126
3824.00,0.0124
3823.00,0.0124
3822.00,0.0125
3821.00,0.0125
3820.00,0.0123
3819.00,0.0121
3818.00,0.0121
3817.00,0.0124
3816.00,0.0127
3815.00,0.0128
3814.00,0.0128
3813.00,0.0129
3812.00,0.0130
3811.00,0.0129
3810.00,0.0127
3809.00,0.0126
3808.00,0.0126
3807.00,0.0126
3806.00,0.0125
3805.00,0.0124
3804.00,0.0123
3803.00,0.0124
3802.00,0.0125
3801.00,0.0125
3800.00,0.0123
3799.00,0.0122
3798.00,0.0123
3797.00,0.0124
3796.00,0.0124
3795.00,0.0125
3794.00,0.0125
3793.00,0.0127
3792.00,0.0128
3791.00,0.0129
3790.00,0.0129
3789.00,0.0128
3788.00,0.0128
3787.00,0.0128
3786.00,0.0128
3785.00,0.0128
3784.00,0.0127
3783.00,0.0126
3782.00,0.0126
3781.00,0.0125
3780.00,0.0125
3779.00,0.0125
3778.00,0.0125
3777.00,0.0125
3776.00,0.0125
3775.00,0.0125
3774.00,0.0125
3773.00,0.0124
3772.00,0.0123
3771.00,0.0122
3770.00,0.0121
3769.00,0.0120
3768.00,0.0120
3767.00,0.0120
3766.00,0.0121
3765.00,0.0122
3764.00,0.0122
3763.00,0.0121
3762.00,0.0121
3761.00,0.0121
3760.00,0.0121
3759.00,0.0120
3758.00,0.0118
3757.00,0.0116
3756.00,0.0114
3755.00,0.0112
3754.00,0.0110
3753.00,0.0108
3752.00,0.0108
3751.00,0.0109
3750.00,0.0110
3749.00,0.0110
3748.00,0.0109
3747.00,0.0110
3746.00,0.0111
3745.00,0.0112
3744.00,0.0112
3743.00,0.0110
3742.00,0.0110
3741.00,0.0113
3740.00,0.0114
3739.00,0.0114
3738.00,0.0112
3737.00,0.0111
3736.00,0.0110
3735.00,0.0107
3734.00,0.0106
3733.00,0.0106
3732.00,0.0108
3731.00,0.0110
3730.00,0.0112
3729.00,0.0114
3728.00,0.0115
3727.00,0.0115
3726.00,0.0114
3725.00,0.0112
3724.00,0.0111
3723.00,0.0111
3722.00,0.0113
3721.00,0.0114
3720.00,0.0116
3719.00,0.0117
3718.00,0.0117
3717.00,0.0116
3716.00,0.0115
3715.00,0.0114
3714.00,0.0113
3713.00,0.0113
3712.00,0.0114
3711.00,0.0114
3710.00,0.0114
3709.00,0.0114
3708.00,0.0116
3707.00,0.0118
3706.00,0.0120
3705.00,0.0122
3704.00,0.0122
3703.00,0.0122
3702.00,0.0122
3701.00,0.0122
3700.00,0.0122
3699.00,0.0122
3698.00,0.0123
3697.00,0.0124
3696.00,0.0124
3695.00,0.0122
3694.00,0.0120
3693.00,0.0118
3692.00,0.0117
3691.00,0.0117
3690.00,0.0119
3689.00,0.0120
3688.00,0.0119
3687.00,0.0118
3686.00,0.0119
3685.00,0.0121
3684.00,0.0122
3683.00,0.0123
3682.00,0.0122
3681.00,0.0120
3680.00,0.0117
3679.00,0.0113
3678.00,0.0109
3677.00,0.0108
3676.00,0.0109
3675.00,0.0109
3674.00,0.0108
3673.00,0.0108
3672.00,0.0111
3671.00,0.0116
3670.00,0.0121
3669.00,0.0123
3668.00,0.0123
3667.00,0.0125
3666.00,0.0127
3665.00,0.0130
3664.00,0.0132
3663.00,0.0134
3662.00,0.0135
3661.00,0.0136
3660.00,0.0137
3659.00,0.0138
3658.00,0.0140
3657.00,0.0142
3656.00,0.0143
3655.00,0.0143
3654.00,0.0143
3653.00,0.0141
3652.00,0.0140
3651.00,0.0140
3650.00,0.0142
3649.00,0.0145
3648.00,0.0148
3647.00,0.0149
3646.00,0.0152
3645.00,0.0156
3644.00,0.0161
3643.00,0.0165
3642.00,0.0168
3641.00,0.0171
3640.00,0.0172
3639.00,0.0174
3638.00,0.0176
3637.00,0.0177
3636.00,0.0178
3635.00,0.0179
3634.00,0.0180
3633.00,0.0179
3632.00,0.0178
3631.00,0.0178
3630.00,0.0182
3629.00,0.0188
3628.00,0.0191
3627.00,0.0191
3626.00,0.0192
3625.00,0.0195
3624.00,0.0197
3623.00,0.0197
3622.00,0.0198
3621.00,0.0199
3620.00,0.0202
3619.00,0.0205
3618.00,0.0206
3617.00,0.0206
3616.00,0.0207
3615.00,0.0209
3614.00,0.0210
3613.00,0.0211
3612.00,0.0211
3611.00,0.0212
3610.00,0.0215
3609.00,0.0219
3608.00,0.0223
3607.00,0.0225
3606.00,0.0226
3605.00,0.0226
3604.00,0.0227
3603.00,0.0228
3602.00,0.0231
3601.00,0.0233
3600.00,0.0235
3599.00,0.0235
3598.00,0.0235
3597.00,0.0235
3596.00,0.0235
3595.00,0.0237
3594.00,0.0238
3593.00,0.0239
3592.00,0.0238
3591.00,0.0237
3590.00,0.0237
3589.00,0.0238
3588.00,0.0242
3587.00,0.0245
3586.00,0.0247
3585.00,0.0248
3584.00,0.0250
3583.00,0.0252
3582.00,0.0254
3581.00,0.0256
3580.00,0.0257
3579.00,0.0258
3578.00,0.0259
3577.00,0.0261
3576.00,0.0262
3575.00,0.0264
3574.00,0.0265
3573.00,0.0265
3572.00,0.0264
3571.00,0.0262
3570.00,0.0259
3569.00,0.0259
3568.00,0.0262
3567.00,0.0266
3566.00,0.0269
3565.00,0.0269
3564.00,0.0270
3563.00,0.0272
3562.00,0.0274
3561.00,0.0277
3560.00,0.0279
3559.00,0.0281
3558.00,0.0282
3557.00,0.0283
3556.00,0.0284
3555.00,0.0285
3554.00,0.0285
3553.00,0.0287
3552.00,0.0288
3551.00,0.0289
3550.00,0.0290
3549.00,0.0290
3548.00,0.0291
3547.00,0.0292
3546.00,0.0294
3545.00,0.0296
3544.00,0.0297
3543.00,0.0299
3542.00,0.0300
3541.00,0.0301
3540.00,0.0302
3539.00,0.0302
3538.00,0.0302
3537.00,0.0302
3536.00,0.0304
3535.00,0.0305
3534.00,0.0306
3533.00,0.0307
3532.00,0.0308
3531.00,0.0309
3530.00,0.0309
3529.00,0.0309
3528.00,0.0309
3527.00,0.0310
3526.00,0.0311
3525.00,0.0314
3524.00,0.0316
3523.00,0.0318
3522.00,0.0319
3521.00,0.0319
3520.00,0.0319
3519.00,0.0319
3518.00,0.0319
3517.00,0.0320
3516.00,0.0321
3515.00,0.0321
3514.00,0.0323
3513.00,0.0324
3512.00,0.0326
3511.00,0.0327
3510.00,0.0327
3509.00,0.0328
3508.00,0.0328
3507.00,0.0328
3506.00,0.0328
3505.00,0.0330
3504.00,0.0332
3503.00,0.0334
3502.00,0.0336
3501.00,0.0337
3500.00,0.0338
3499.00,0.0339
3498.00,0.0340
3497.00,0.0342
3496.00,0.0343
3495.00,0.0343
3494.00,0.0343
3493.00,0.0343
3492.00,0.0343
3491.00,0.0343
3490.00,0.0343
3489.00,0.0344
3488.00,0.0345
3487.00,0.0346
3486.00,0.0346
3485.00,0.0347
3484.00,0.0347
3483.00,0.0348
3482.00,0.0349
3481.00,0.0351
3480.00,0.0351
3479.00,0.0352
3478.00,0.0353
3477.00,0.0354
3476.00,0.0356
3475.00,0.0358
3474.00,0.0359
3473.00,0.0360
3472.00,0.0360
3471.00,0.0361
3470.00,0.0362
3469.00,0.0362
3468.00,0.0363
3467.00,0.0363
3466.00,0.0364
3465.00,0.0365
3464.00,0.0365
3463.00,0.0365
3462.00,0.0364
3461.00,0.0364
3460.00,0.0365
3459.00,0.0367
3458.00,0.0369
3457.00,0.0370
3456.00,0.0370
3455.00,0.0370
3454.00,0.0370
3453.00,0.0371
3452.00,0.0372
3451.00,0.0373
3450.00,0.0373
3449.00,0.0374
3448.00,0.0375
3447.00,0.0376
3446.00,0.0377
3445.00,0.0378
3444.00,0.0379
3443.00,0.0379
3442.00,0.0379
3441.00,0.0379
3440.00,0.0379
3439.00,0.0378
3438.00,0.0379
3437.00,0.0380
3436.00,0.0380
3435.00,0.0381
3434.00,0.0381
3433.00,0.0382
3432.00,0.0383
3431.00,0.0384
3430.00,0.0385
3429.00,0.0385
3428.00,0.0386
3427.00,0.0386
3426.00,0.0387
3425.00,0.0388
3424.00,0.0389
3423.00,0.0390
3422.00,0.0390
3421.00,0.0391
3420.00,0.0392
3419.00,0.0393
3418.00,0.0393
3417.00,0.0394
3416.00,0.0394
3415.00,0.0394
3414.00,0.0394
3413.00,0.0395
3412.00,0.0396
3411.00,0.0397
3410.00,0.0397
3409.00,0.0398
3408.00,0.0399
3407.00,0.0400
3406.00,0.0400
3405.00,0.0400
3404.00,0.0400
3403.00,0.0400
3402.00,0.0400
3401.00,0.0401
3400.00,0.0401
3399.00,0.0402
3398.00,0.0402
3397.00,0.0402
3396.00,0.0402
3395.00,0.0402
3394.00,0.0402
3393.00,0.0403
3392.00,0.0404
3391.00,0.0405
3390.00,0.0406
3389.00,0.0406
3388.00,0.0406
3387.00,0.0406
3386.00,0.0406
3385.00,0.0406
3384.00,0.0407
3383.00,0.0408
3382.00,0.0408
3381.00,0.0409
3380.00,0.0410
3379.00,0.0411
3378.00,0.0412
3377.00,0.0412
3376.00,0.0411
3375.00,0.0411
3374.00,0.0411
3373.00,0.0410
3372.00,0.0410
3371.00,0.0410
3370.00,0.0410
3369.00,0.0411
3368.00,0.0411
3367.00,0.0412
3366.00,0.0411
3365.00,0.0411
3364.00,0.0411
3363.00,0.0412
3362.00,0.0413
3361.00,0.0415
3360.00,0.0416
3359.00,0.0416
3358.00,0.0416
3357.00,0.0415
3356.00,0.0415
3355.00,0.0416
3354.00,0.0417
3353.00,0.0417
3352.00,0.0418
3351.00,0.0418
3350.00,0.0418
3349.00,0.0418
3348.00,0.0418
3347.00,0.0418
3346.00,0.0418
3345.00,0.0418
3344.00,0.0417
3343.00,0.0417
3342.00,0.0417
3341.00,0.0418
3340.00,0.0418
3339.00,0.0419
3338.00,0.0419
3337.00,0.0419
3336.00,0.0419
3335.00,0.0418
3334.00,0.0418
3333.00,0.0418
3332.00,0.0418
3331.00,0.0417
3330.00,0.0417
3329.00,0.0417
3328.00,0.0417
3327.00,0.0418
3326.00,0.0419
3325.00,0.0420
3324.00,0.0421
3323.00,0.0421
3322.00,0.0420
3321.00,0.0420
3320.00,0.0419
3319.00,0.0419
3318.00,0.0419
3317.00,0.0419
3316.00,0.0419
3315.00,0.0419
3314.00,0.0419
3313.00,0.0419
3312.00,0.0419
3311.00,0.0419
3310.00,0.0419
3309.00,0.0420
3308.00,0.0421
3307.00,0.0421
3306.00,0.0421
3305.00,0.0421
3304.00,0.0420
3303.00,0.0420
3302.00,0.0420
3301.00,0.0421
3300.00,0.0421
3299.00,0.0421
3298.00,0.0421
3297.00,0.0421
3296.00,0.0421
3295.00,0.0421
3294.00,0.0421
3293.00,0.0421
3292.00,0.0421
3291.00,0.0421
3290.00,0.0421
3289.00,0.0421
3288.00,0.0421
3287.00,0.0421
3286.00,0.0422
3285.00,0.0422
3284.00,0.0422
3283.00,0.0422
3282.00,0.0421
3281.00,0.0421
3280.00,0.0421
3279.00,0.0421
3278.00,0.0421
3277.00,0.0422
3276.00,0.0422
3275.00,0.0422
3274.00,0.0422
3273.00,0.0423
3272.00,0.0424
3271.00,0.0424
3270.00,0.0425
3269.00,0.0425
3268.00,0.0425
3267.00,0.0425
3266.00,0.0424
3265.00,0.0423
3264.00,0.0422
3263.00,0.0422
3262.00,0.0422
3261.00,0.0422
3260.00,0.0423
3259.00,0.0423
3258.00,0.0423
3257.00,0.0423
3256.00,0.0422
3255.00,0.0422
3254.00,0.0422
3253.00,0.0423
3252.00,0.0423
3251.00,0.0424
3250.00,0.0424
3249.00,0.0424
3248.00,0.0424
3247.00,0.0423
3246.00,0.0424
3245.00,0.0424
3244.00,0.0424
3243.00,0.0424
3242.00,0.0424
3241.00,0.0423
3240.00,0.0423
3239.00,0.0423
3238.00,0.0424
3237.00,0.0425
3236.00,0.0426
3235.00,0.0426
3234.00,0.0427
3233.00,0.0426
3232.00,0.0426
3231.00,0.0426
3230.00,0.0425
3229.00,0.0425
3228.00,0.0425
3227.00,0.0425
3226.00,0.0425
3225.00,0.0425
3224.00,0.0425
3223.00,0.0425
3222.00,0.0425
3221.00,0.0424
3220.00,0.0424
3219.00,0.0424
3218.00,0.0423
3217.00,0.0424
3216.00,0.0425
3215.00,0.0425
3214.00,0.0426
3213.00,0.0426
3212.00,0.0425
3211.00,0.0424
3210.00,0.0424
3209.00,0.0424
3208.00,0.0424
3207.00,0.0424
3206.00,0.0424
3205.00,0.0424
3204.00,0.0425
3203.00,0.0425
3202.00,0.0425
3201.00,0.0425
3200.00,0.0424
3199.00,0.0424
3198.00,0.0424
3197.00,0.0424
3196.00,0.0424
3195.00,0.0424
3194.00,0.0423
3193.00,0.0423
3192.00,0.0423
3191.00,0.0422
3190.00,0.0422
3189.00,0.0421
3188.00,0.0421
3187.00,0.0420
3186.00,0.0420
3185.00,0.0420
3184.00,0.0421
3183.00,0.0421
3182.00,0.0421
3181.00,0.0421
3180.00,0.0420
3179.00,0.0419
3178.00,0.0419
3177.00,0.0418
3176.00,0.0418
3175.00,0.0418
3174.00,0.0418
3173.00,0.0419
3172.00,0.0419
3171.00,0.0418
3170.00,0.0418
3169.00,0.0418
3168.00,0.0418
3167.00,0.0418
3166.00,0.0418
3165.00,0.0418
3164.00,0.0419
3163.00,0.0418
3162.00,0.0417
3161.00,0.0416
3160.00,0.0415
3159.00,0.0414
3158.00,0.0413
3157.00,0.0413
3156.00,0.0413
3155.00,0.0413
3154.00,0.0414
3153.00,0.0414
3152.00,0.0414
3151.00,0.0413
3150.00,0.0413
3149.00,0.0412
3148.00,0.0412
3147.00,0.0412
3146.00,0.0412
3145.00,0.0411
3144.00,0.0411
3143.00,0.0411
3142.00,0.0410
3141.00,0.0410
3140.00,0.0409
3139.00,0.0409
3138.00,0.0409
3137.00,0.0409
3136.00,0.0409
3135.00,0.0409
3134.00,0.0408
3133.00,0.0407
3132.00,0.0407
3131.00,0.0407
3130.00,0.0407
3129.00,0.0406
3128.00,0.0406
3127.00,0.0405
3126.00,0.0405
3125.00,0.0405
3124.00,0.0405
3123.00,0.0405
3122.00,0.0404
3121.00,0.0404
3120.00,0.0403
3119.00,0.0403
3118.00,0.0403
3117.00,0.0403
3116.00,0.0403
3115.00,0.0402
3114.00,0.0402
3113.00,0.0402
3112.00,0.0401
3111.00,0.0401
3110.00,0.0400
3109.00,0.0400
3108.00,0.0400
3107.00,0.0400
3106.00,0.0401
3105.00,0.0401
3104.00,0.0401
3103.00,0.0400
3102.00,0.0399
3101.00,0.0398
3100.00,0.0398
3099.00,0.0397
3098.00,0.0397
3097.00,0.0397
3096.00,0.0397
3095.00,0.0398
3094.00,0.0399
3093.00,0.0399
3092.00,0.0398
3091.00,0.0398
3090.00,0.0396
3089.00,0.0395
3088.00,0.0394
3087.00,0.0393
3086.00,0.0394
3085.00,0.0394
3084.00,0.0394
3083.00,0.0394
3082.00,0.0394
3081.00,0.0394
3080.00,0.0394
3079.00,0.0393
3078.00,0.0393
3077.00,0.0393
3076.00,0.0392
3075.00,0.0392
3074.00,0.0392
3073.00,0.0392
3072.00,0.0392
3071.00,0.0391
3070.00,0.0391
3069.00,0.0391
3068.00,0.0391
3067.00,0.0390
3066.00,0.0390
3065.00,0.0389
3064.00,0.0387
3063.00,0.0387
3062.00,0.0386
3061.00,0.0386
3060.00,0.0386
3059.00,0.0386
3058.00,0.0385
3057.00,0.0385
3056.00,0.0384
3055.00,0.0384
3054.00,0.0383
3053.00,0.0383
3052.00,0.0383
3051.00,0.0383
3050.00,0.0383
3049.00,0.0383
3048.00,0.0383
3047.00,0.0382
3046.00,0.0382
3045.00,0.0381
3044.00,0.0380
3043.00,0.0379
3042.00,0.0378
3041.00,0.0377
3040.00,0.0376
3039.00,0.0376
3038.00,0.0376
3037.00,0.0376
3036.00,0.0376
3035.00,0.0376
3034.00,0.0376
3033.00,0.0375
3032.00,0.0374
3031.00,0.0373
3030.00,0.0372
3029.00,0.0371
3028.00,0.0370
3027.00,0.0370
3026.00,0.0370
3025.00,0.0370
3024.00,0.0370
3023.00,0.0369
3022.00,0.0369
3021.00,0.0368
3020.00,0.0367
3019.00,0.0366
3018.00,0.0365
3017.00,0.0364
3016.00,0.0364
3015.00,0.0363
3014.00,0.0361
3013.00,0.0360
3012.00,0.0359
3011.00,0.0358
3010.00,0.0357
3009.00,0.0356
3008.00,0.0353
3007.00,0.0351
3006.00,0.0350
3005.00,0.0348
3004.00,0.0347
3003.00,0.0346
3002.00,0.0344
3001.00,0.0342
3000.00,0.0341
2999.00,0.0339
2998.00,0.0337
2997.00,0.0336
2996.00,0.0334
2995.00,0.0334
2994.00,0.0333
2993.00,0.0332
2992.00,0.0331
2991.00,0.0330
2990.00,0.0329
2989.00,0.0328
2988.00,0.0326
2987.00,0.0324
2986.00,0.0321
2985.00,0.0317
2984.00,0.0312
2983.00,0.0309
2982.00,0.0307
2981.00,0.0307
2980.00,0.0308
2979.00,0.0310
2978.00,0.0312
2977.00,0.0314
2976.00,0.0315
2975.00,0.0316
2974.00,0.0315
2973.00,0.0314
2972.00,0.0313
2971.00,0.0313
2970.00,0.0314
2969.00,0.0316
2968.00,0.0318
2967.00,0.0319
2966.00,0.0320
2965.00,0.0320
2964.00,0.0321
2963.00,0.0322
2962.00,0.0323
2961.00,0.0324
2960.00,0.0324
2959.00,0.0323
2958.00,0.0323
2957.00,0.0323
2956.00,0.0324
2955.00,0.0326
2954.00,0.0327
2953.00,0.0328
2952.00,0.0328
2951.00,0.0329
2950.00,0.0329
2949.00,0.0329
2948.00,0.0330
2947.00,0.0329
2946.00,0.0330
2945.00,0.0330
2944.00,0.0331
2943.00,0.0331
2942.00,0.0332
2941.00,0.0332
2940.00,0.0332
2939.00,0.0331
2938.00,0.0331
2937.00,0.0330
2936.00,0.0330
2935.00,0.0330
2934.00,0.0329
2933.00,0.0329
2932.00,0.0329
2931.00,0.0328
2930.00,0.0328
2929.00,0.0328
2928.00,0.0328
2927.00,0.0328
2926.00,0.0327
2925.00,0.0326
2924.00,0.0326
2923.00,0.0325
2922.00,0.0325
2921.00,0.0324
2920.00,0.0322
2919.00,0.0321
2918.00,0.0320
2917.00,0.0320
2916.00,0.0319
2915.00,0.0319
2914.00,0.0319
2913.00,0.0319
2912.00,0.0319
2911.00,0.0319
2910.00,0.0319
2909.00,0.0318
2908.00,0.0318
2907.00,0.0317
2906.00,0.0317
2905.00,0.0316
2904.00,0.0316
2903.00,0.0315
2902.00,0.0315
2901.00,0.0315
2900.00,0.0314
2899.00,0.0313
2898.00,0.0313
2897.00,0.0312
2896.00,0.0311
2895.00,0.0311
2894.00,0.0310
2893.00,0.0310
2892.00,0.0309
2891.00,0.0309
2890.00,0.0308
2889.00,0.0308
2888.00,0.0308
2887.00,0.0308
2886.00,0.0307
2885.00,0.0307
2884.00,0.0306
2883.00,0.0306
2882.00,0.0306
2881.00,0.0306
2880.00,0.0307
2879.00,0.0307
2878.00,0.0307
2877.00,0.0307
2876.00,0.0307
2875.00,0.0307
2874.00,0.0307
2873.00,0.0306
2872.00,0.0306
2871.00,0.0306
2870.00,0.0306
2869.00,0.0306
2868.00,0.0305
2867.00,0.0305
2866.00,0.0305
2865.00,0.0305
2864.00,0.0305
2863.00,0.0305
2862.00,0.0305
2861.00,0.0305
2860.00,0.0305
2859.00,0.0306
2858.00,0.0307
2857.00,0.0307
2856.00,0.0306
2855.00,0.0305
2854.00,0.0304
2853.00,0.0303
2852.00,0.0303
2851.00,0.0304
2850.00,0.0304
2849.00,0.0304
2848.00,0.0304
2847.00,0.0303
2846.00,0.0303
2845.00,0.0303
2844.00,0.0303
2843.00,0.0303
2842.00,0.0302
2841.00,0.0301
2840.00,0.0300
2839.00,0.0299
2838.00,0.0299
2837.00,0.0299
2836.00,0.0299
2835.00,0.0299
2834.00,0.0299
2833.00,0.0298
2832.00,0.0298
2831.00,0.0297
2830.00,0.0296
2829.00,0.0296
2828.00,0.0296
2827.00,0.0296
2826.00,0.0296
2825.00,0.0296
2824.00,0.0295
2823.00,0.0295
2822.00,0.0294
2821.00,0.0293
2820.00,0.0293
2819.00,0.0292
2818.00,0.0291
2817.00,0.0291
2816.00,0.0291
2815.00,0.0291
2814.00,0.0290
2813.00,0.0290
2812.00,0.0289
2811.00,0.0289
2810.00,0.0289
2809.00,0.0288
2808.00,0.0288
2807.00,0.0288
2806.00,0.0288
2805.00,0.0288
2804.00,0.0288
2803.00,0.0287
2802.00,0.0287
2801.00,0.0287
2800.00,0.0287
2799.00,0.0286
2798.00,0.0286
2797.00,0.0286
2796.00,0.0285
2795.00,0.0285
2794.00,0.0285
2793.00,0.0284
2792.00,0.0284
2791.00,0.0284
2790.00,0.0284
2789.00,0.0284
2788.00,0.0283
2787.00,0.0282
2786.00,0.0282
2785.00,0.0281
2784.00,0.0281
2783.00,0.0281
2782.00,0.0280
2781.00,0.0279
2780.00,0.0278
2779.00,0.0278
2778.00,0.0278
2777.00,0.0278
2776.00,0.0279
2775.00,0.0279
2774.00,0.0278
2773.00,0.0278
2772.00,0.0278
2771.00,0.0277
2770.00,0.0276
2769.00,0.0275
2768.00,0.0275
2767.00,0.0274
2766.00,0.0275
2765.00,0.0275
2764.00,0.0275
2763.00,0.0274
2762.00,0.0274
2761.00,0.0274
2760.00,0.0273
2759.00,0.0273
2758.00,0.0272
2757.00,0.0272
2756.00,0.0272
2755.00,0.0272
2754.00,0.0272
2753.00,0.0271
2752.00,0.0271
2751.00,0.0271
2750.00,0.0271
2749.00,0.0271
2748.00,0.0271
2747.00,0.0270
2746.00,0.0270
2745.00,0.0270
2744.00,0.0270
2743.00,0.0269
2742.00,0.0269
2741.00,0.0269
2740.00,0.0268
2739.00,0.0268
2738.00,0.0267
2737.00,0.0266
2736.00,0.0266
2735.00,0.0266
2734.00,0.0266
2733.00,0.0266
2732.00,0.0266
2731.00,0.0266
2730.00,0.0265
2729.00,0.0265
2728.00,0.0265
2727.00,0.0265
2726.00,0.0264
2725.00,0.0264
2724.00,0.0263
2723.00,0.0263
2722.00,0.0263
2721.00,0.0262
2720.00,0.0262
2719.00,0.0262
2718.00,0.0262
2717.00,0.0261
2716.00,0.0261
2715.00,0.0261
2714.00,0.0261
2713.00,0.0261
2712.00,0.0261
2711.00,0.0260
2710.00,0.0260
2709.00,0.0260
2708.00,0.0259
2707.00,0.0259
2706.00,0.0258
2705.00,0.0258
2704.00,0.0258
2703.00,0.0257
2702.00,0.0257
2701.00,0.0257
2700.00,0.0257
2699.00,0.0257
2698.00,0.0257
2697.00,0.0256
2696.00,0.0256
2695.00,0.0256
2694.00,0.0256
2693.00,0.0256
2692.00,0.0256
2691.00,0.0256
2690.00,0.0255
2689.00,0.0255
2688.00,0.0255
2687.00,0.0255
2686.00,0.0254
2685.00,0.0254
2684.00,0.0254
2683.00,0.0254
2682.00,0.0253
2681.00,0.0253
2680.00,0.0252
2679.00,0.0251
2678.00,0.0250
2677.00,0.0250
2676.00,0.0249
2675.00,0.0250
2674.00,0.0250
2673.00,0.0250
2672.00,0.0250
2671.00,0.0250
2670.00,0.0249
2669.00,0.0249
2668.00,0.0249
2667.00,0.0249
2666.00,0.0249
2665.00,0.0249
2664.00,0.0249
2663.00,0.0249
2662.00,0.0250
2661.00,0.0250
2660.00,0.0250
2659.00,0.0249
2658.00,0.0249
2657.00,0.0249
2656.00,0.0249
2655.00,0.0249
2654.00,0.0249
2653.00,0.0250
2652.00,0.0250
2651.00,0.0250
2650.00,0.0250
2649.00,0.0250
2648.00,0.0249
2647.00,0.0249
2646.00,0.0248
2645.00,0.0248
2644.00,0.0248
2643.00,0.0248
2642.00,0.0248
2641.00,0.0248
2640.00,0.0248
2639.00,0.0248
2638.00,0.0248
2637.00,0.0248
2636.00,0.0248
2635.00,0.0248
2634.00,0.0248
2633.00,0.0248
2632.00,0.0248
2631.00,0.0248
2630.00,0.0247
2629.00,0.0246
2628.00,0.0245
2627.00,0.0245
2626.00,0.0246
2625.00,0.0246
2624.00,0.0247
2623.00,0.0247
2622.00,0.0247
2621.00,0.0247
2620.00,0.0247
2619.00,0.0247
2618.00,0.0246
2617.00,0.0246
2616.00,0.0246
2615.00,0.0245
2614.00,0.0245
2613.00,0.0245
2612.00,0.0246
2611.00,0.0246
2610.00,0.0246
2609.00,0.0245
2608.00,0.0244
2607.00,0.0244
2606.00,0.0245
2605.00,0.0245
2604.00,0.0246
2603.00,0.0245
2602.00,0.0245
2601.00,0.0245
2600.00,0.0244
2599.00,0.0244
2598.00,0.0243
2597.00,0.0243
2596.00,0.0243
2595.00,0.0242
2594.00,0.0242
2593.00,0.0243
2592.00,0.0243
2591.00,0.0243
2590.00,0.0243
2589.00,0.0243
2588.00,0.0243
2587.00,0.0242
2586.00,0.0242
2585.00,0.0241
2584.00,0.0240
2583.00,0.0241
2582.00,0.0241
2581.00,0.0241
2580.00,0.0242
2579.00,0.0242
2578.00,0.0242
2577.00,0.0241
2576.00,0.0240
2575.00,0.0239
2574.00,0.0239
2573.00,0.0239
2572.00,0.0239
2571.00,0.0239
2570.00,0.0238
2569.00,0.0238
2568.00,0.0239
2567.00,0.0240
2566.00,0.0241
2565.00,0.0241
2564.00,0.0241
2563.00,0.0240
2562.00,0.0240
2561.00,0.0240
2560.00,0.0240
2559.00,0.0239
2558.00,0.0239
2557.00,0.0239
2556.00,0.0240
2555.00,0.0239
2554.00,0.0239
2553.00,0.0238
2552.00,0.0237
2551.00,0.0236
2550.00,0.0235
2549.00,0.0234
2548.00,0.0233
2547.00,0.0232
2546.00,0.0233
2545.00,0.0233
2544.00,0.0234
2543.00,0.0234
2542.00,0.0233
2541.00,0.0232
2540.00,0.0231
2539.00,0.0230
2538.00,0.0230
2537.00,0.0230
2536.00,0.0230
2535.00,0.0231
2534.00,0.0231
2533.00,0.0232
2532.00,0.0232
2531.00,0.0231
2530.00,0.0230
2529.00,0.0230
2528.00,0.0230
2527.00,0.0230
2526.00,0.0229
2525.00,0.0229
2524.00,0.0228
2523.00,0.0228
2522.00,0.0228
2521.00,0.0228
2520.00,0.0229
2519.00,0.0229
2518.00,0.0231
2517.00,0.0231
2516.00,0.0232
2515.00,0.0231
2514.00,0.0230
2513.00,0.0228
2512.00,0.0228
2511.00,0.0228
2510.00,0.0228
2509.00,0.0229
2508.00,0.0230
2507.00,0.0230
2506.00,0.0229
2505.00,0.0228
2504.00,0.0228
2503.00,0.0227
2502.00,0.0228
2501.00,0.0229
2500.00,0.0229
2499.00,0.0230
2498.00,0.0230
2497.00,0.0229
2496.00,0.0229
2495.00,0.0229
2494.00,0.0229
2493.00,0.0229
2492.00,0.0229
2491.00,0.0228
2490.00,0.0228
2489.00,0.0228
2488.00,0.0228
2487.00,0.0227
2486.00,0.0227
2485.00,0.0226
2484.00,0.0225
2483.00,0.0224
2482.00,0.0225
2481.00,0.0225
2480.00,0.0226
2479.00,0.0226
2478.00,0.0226
2477.00,0.0225
2476.00,0.0224
2475.00,0.0223
2474.00,0.0223
2473.00,0.0224
2472.00,0.0224
2471.00,0.0224
2470.00,0.0224
2469.00,0.0224
2468.00,0.0223
2467.00,0.0222
2466.00,0.0221
2465.00,0.0221
2464.00,0.0220
2463.00,0.0220
2462.00,0.0220
2461.00,0.0220
2460.00,0.0221
2459.00,0.0222
2458.00,0.0223
2457.00,0.0223
2456.00,0.0222
2455.00,0.0222
2454.00,0.0222
2453.00,0.0223
2452.00,0.0224
2451.00,0.0224
2450.00,0.0223
2449.00,0.0222
2448.00,0.0221
2447.00,0.0221
2446.00,0.0220
2445.00,0.0220
2444.00,0.0219
2443.00,0.0218
2442.00,0.0218
2441.00,0.0218
2440.00,0.0219
2439.00,0.0219
2438.00,0.0219
2437.00,0.0218
2436.00,0.0218
2435.00,0.0217
2434.00,0.0217
2433.00,0.0217
2432.00,0.0216
2431.00,0.0217
2430.00,0.0217
2429.00,0.0217
2428.00,0.0217
2427.00,0.0217
2426.00,0.0217
2425.00,0.0216
2424.00,0.0216
2423.00,0.0215
2422.00,0.0215
2421.00,0.0214
2420.00,0.0214
2419.00,0.0214
2418.00,0.0214
2417.00,0.0214
2416.00,0.0214
2415.00,0.0213
2414.00,0.0213
2413.00,0.0213
2412.00,0.0213
2411.00,0.0213
2410.00,0.0213
2409.00,0.0213
2408.00,0.0213
2407.00,0.0212
2406.00,0.0211
2405.00,0.0211
2404.00,0.0210
2403.00,0.0210
2402.00,0.0209
2401.00,0.0209
2400.00,0.0209
2399.00,0.0209
2398.00,0.0209
2397.00,0.0209
2396.00,0.0208
2395.00,0.0208
2394.00,0.0208
2393.00,0.0207
2392.00,0.0207
2391.00,0.0206
2390.00,0.0206
2389.00,0.0206
2388.00,0.0205
2387.00,0.0205
2386.00,0.0205
2385.00,0.0204
2384.00,0.0204
2383.00,0.0203
2382.00,0.0203
2381.00,0.0204
2380.00,0.0204
2379.00,0.0205
2378.00,0.0204
2377.00,0.0203
2376.00,0.0202
2375.00,0.0201
2374.00,0.0201
2373.00,0.0201
2372.00,0.0201
2371.00,0.0201
2370.00,0.0199
2369.00,0.0197
2368.00,0.0196
2367.00,0.0196
2366.00,0.0199
2365.00,0.0202
2364.00,0.0203
2363.00,0.0201
2362.00,0.0199
2361.00,0.0198
2360.00,0.0199
2359.00,0.0199
2358.00,0.0199
2357.00,0.0200
2356.00,0.0199
2355.00,0.0198
2354.00,0.0197
2353.00,0.0196
2352.00,0.0197
2351.00,0.0197
2350.00,0.0198
2349.00,0.0198
2348.00,0.0197
2347.00,0.0196
2346.00,0.0195
2345.00,0.0195
2344.00,0.0198
2343.00,0.0200
2342.00,0.0202
2341.00,0.0203
2340.00,0.0203
2339.00,0.0201
2338.00,0.0199
2337.00,0.0197
2336.00,0.0196
2335.00,0.0197
2334.00,0.0197
2333.00,0.0197
2332.00,0.0197
2331.00,0.0196
2330.00,0.0195
2329.00,0.0195
2328.00,0.0196
2327.00,0.0198
2326.00,0.0200
2325.00,0.0201
2324.00,0.0201
2323.00,0.0200
2322.00,0.0199
2321.00,0.0198
2320.00,0.0198
2319.00,0.0197
2318.00,0.0196
2317.00,0.0196
2316.00,0.0196
2315.00,0.0195
2314.00,0.0195
2313.00,0.0196
2312.00,0.0196
2311.00,0.0196
2310.00,0.0197
2309.00,0.0198
2308.00,0.0199
2307.00,0.0199
2306.00,0.0198
2305.00,0.0198
2304.00,0.0197
2303.00,0.0196
2302.00,0.0195
2301.00,0.0195
2300.00,0.0196
2299.00,0.0197
2298.00,0.0197
2297.00,0.0197
2296.00,0.0197
2295.00,0.0197
2294.00,0.0199
2293.00,0.0201
2292.00,0.0203
2291.00,0.0204
2290.00,0.0204
2289.00,0.0203
2288.00,0.0202
2287.00,0.0203
2286.00,0.0204
2285.00,0.0206
2284.00,0.0207
2283.00,0.0208
2282.00,0.0208
2281.00,0.0206
2280.00,0.0205
2279.00,0.0204
2278.00,0.0204
2277.00,0.0204
2276.00,0.0203
2275.00,0.0202
2274.00,0.0201
2273.00,0.0200
2272.00,0.0199
2271.00,0.0199
2270.00,0.0200
2269.00,0.0200
2268.00,0.0200
2267.00,0.0200
2266.00,0.0200
2265.00,0.0201
2264.00,0.0202
2263.00,0.0203
2262.00,0.0204
2261.00,0.0204
2260.00,0.0204
2259.00,0.0203
2258.00,0.0201
2257.00,0.0198
2256.00,0.0195
2255.00,0.0195
2254.00,0.0196
2253.00,0.0197
2252.00,0.0197
2251.00,0.0198
2250.00,0.0198
2249.00,0.0198
2248.00,0.0198
2247.00,0.0198
2246.00,0.0199
2245.00,0.0200
2244.00,0.0201
2243.00,0.0201
2242.00,0.0201
2241.00,0.0200
2240.00,0.0198
2239.00,0.0197
2238.00,0.0197
2237.00,0.0196
2236.00,0.0196
2235.00,0.0197
2234.00,0.0198
2233.00,0.0199
2232.00,0.0198
2231.00,0.0196
2230.00,0.0195
2229.00,0.0195
2228.00,0.0196
2227.00,0.0197
2226.00,0.0197
2225.00,0.0197
2224.00,0.0195
2223.00,0.0193
2222.00,0.0192
2221.00,0.0192
2220.00,0.0192
2219.00,0.0192
2218.00,0.0193
2217.00,0.0193
2216.00,0.0195
2215.00,0.0196
2214.00,0.0197
2213.00,0.0197
2212.00,0.0195
2211.00,0.0193
2210.00,0.0192
2209.00,0.0192
2208.00,0.0193
2207.00,0.0193
2206.00,0.0194
2205.00,0.0194
2204.00,0.0194
2203.00,0.0193
2202.00,0.0192
2201.00,0.0192
2200.00,0.0192
2199.00,0.0192
2198.00,0.0192
2197.00,0.0193
2196.00,0.0193
2195.00,0.0193
2194.00,0.0191
2193.00,0.0190
2192.00,0.0189
2191.00,0.0187
2190.00,0.0186
2189.00,0.0185
2188.00,0.0187
2187.00,0.0190
2186.00,0.0194
2185.00,0.0194
2184.00,0.0192
2183.00,0.0188
2182.00,0.0185
2181.00,0.0185
2180.00,0.0187
2179.00,0.0189
2178.00,0.0191
2177.00,0.0191
2176.00,0.0190
2175.00,0.0188
2174.00,0.0187
2173.00,0.0188
2172.00,0.0189
2171.00,0.0191
2170.00,0.0194
2169.00,0.0197
2168.00,0.0199
2167.00,0.0199
2166.00,0.0199
2165.00,0.0200
2164.00,0.0202
2163.00,0.0204
2162.00,0.0203
2161.00,0.0198
2160.00,0.0188
2159.00,0.0177
2158.00,0.0171
2157.00,0.0169
2156.00,0.0171
2155.00,0.0173
2154.00,0.0176
2153.00,0.0179
2152.00,0.0180
2151.00,0.0178
2150.00,0.0175
2149.00,0.0172
2148.00,0.0172
2147.00,0.0173
2146.00,0.0175
2145.00,0.0176
2144.00,0.0177
2143.00,0.0178
2142.00,0.0179
2141.00,0.0180
2140.00,0.0181
2139.00,0.0179
2138.00,0.0176
2137.00,0.0172
2136.00,0.0169
2135.00,0.0168
2134.00,0.0167
2133.00,0.0168
2132.00,0.0168
2131.00,0.0169
2130.00,0.0170
2129.00,0.0171
2128.00,0.0173
2127.00,0.0173
2126.00,0.0173
2125.00,0.0172
2124.00,0.0171
2123.00,0.0171
2122.00,0.0172
2121.00,0.0172
2120.00,0.0172
2119.00,0.0172
2118.00,0.0171
2117.00,0.0171
2116.00,0.0171
2115.00,0.0169
2114.00,0.0168
2113.00,0.0168
2112.00,0.0169
2111.00,0.0170
2110.00,0.0173
2109.00,0.0175
2108.00,0.0177
2107.00,0.0177
2106.00,0.0177
2105.00,0.0176
2104.00,0.0175
2103.00,0.0174
2102.00,0.0174
2101.00,0.0174
2100.00,0.0172
2099.00,0.0170
2098.00,0.0167
2097.00,0.0166
2096.00,0.0166
2095.00,0.0166
2094.00,0.0166
2093.00,0.0167
2092.00,0.0167
2091.00,0.0166
2090.00,0.0165
2089.00,0.0165
2088.00,0.0166
2087.00,0.0166
2086.00,0.0167
2085.00,0.0168
2084.00,0.0169
2083.00,0.0170
2082.00,0.0170
2081.00,0.0170
2080.00,0.0170
2079.00,0.0170
2078.00,0.0168
2077.00,0.0168
2076.00,0.0167
2075.00,0.0168
2074.00,0.0168
2073.00,0.0167
2072.00,0.0167
2071.00,0.0167
2070.00,0.0167
2069.00,0.0166
2068.00,0.0164
2067.00,0.0163
2066.00,0.0162
2065.00,0.0162
2064.00,0.0162
2063.00,0.0163
2062.00,0.0165
2061.00,0.0166
2060.00,0.0165
2059.00,0.0164
2058.00,0.0164
2057.00,0.0163
2056.00,0.0163
2055.00,0.0163
2054.00,0.0164
2053.00,0.0167
2052.00,0.0169
2051.00,0.0169
2050.00,0.0167
2049.00,0.0164
2048.00,0.0163
2047.00,0.0164
2046.00,0.0165
2045.00,0.0167
2044.00,0.0169
2043.00,0.0170
2042.00,0.0170
2041.00,0.0167
2040.00,0.0164
2039.00,0.0162
2038.00,0.0163
2037.00,0.0167
2036.00,0.0169
2035.00,0.0167
2034.00,0.0164
2033.00,0.0162
2032.00,0.0163
2031.00,0.0166
2030.00,0.0168
2029.00,0.0167
2028.00,0.0164
2027.00,0.0161
2026.00,0.0159
2025.00,0.0157
2024.00,0.0154
2023.00,0.0152
2022.00,0.0151
2021.00,0.0150
2020.00,0.0150
2019.00,0.0148
2018.00,0.0146
2017.00,0.0145
2016.00,0.0146
2015.00,0.0148
2014.00,0.0152
2013.00,0.0154
2012.00,0.0154
2011.00,0.0153
2010.00,0.0152
2009.00,0.0152
2008.00,0.0152
2007.00,0.0150
2006.00,0.0147
2005.00,0.0145
2004.00,0.0145
2003.00,0.0148
2002.00,0.0152
2001.00,0.0156
2000.00,0.0156
1999.00,0.0154
1998.00,0.0151
1997.00,0.0150
1996.00,0.0151
1995.00,0.0154
1994.00,0.0155
1993.00,0.0156
1992.00,0.0155
1991.00,0.0152
1990.00,0.0149
1989.00,0.0147
1988.00,0.0147
1987.00,0.0148
1986.00,0.0149
1985.00,0.0150
1984.00,0.0151
1983.00,0.0152
1982.00,0.0153
1981.00,0.0153
1980.00,0.0151
1979.00,0.0145
1978.00,0.0138
1977.00,0.0134
1976.00,0.0133
1975.00,0.0136
1974.00,0.0139
1973.00,0.0140
1972.00,0.0138
1971.00,0.0134
1970.00,0.0133
1969.00,0.0135
1968.00,0.0136
1967.00,0.0134
1966.00,0.0132
1965.00,0.0131
1964.00,0.0132
1963.00,0.0133
1962.00,0.0134
1961.00,0.0135
1960.00,0.0135
1959.00,0.0135
1958.00,0.0134
1957.00,0.0134
1956.00,0.0134
1955.00,0.0134
1954.00,0.0134
1953.00,0.0134
1952.00,0.0134
1951.00,0.0132
1950.00,0.0130
1949.00,0.0129
1948.00,0.0128
1947.00,0.0129
1946.00,0.0130
1945.00,0.0129
1944.00,0.0126
1943.00,0.0122
1942.00,0.0120
1941.00,0.0120
1940.00,0.0120
1939.00,0.0120
1938.00,0.0120
1937.00,0.0120
1936.00,0.0120
1935.00,0.0119
1934.00,0.0118
1933.00,0.0118
1932.00,0.0119
1931.00,0.0120
1930.00,0.0122
1929.00,0.0123
1928.00,0.0124
1927.00,0.0125
1926.00,0.0125
1925.00,0.0125
1924.00,0.0124
1923.00,0.0122
1922.00,0.0120
1921.00,0.0120
1920.00,0.0120
1919.00,0.0119
1918.00,0.0117
1917.00,0.0115
1916.00,0.0116
1915.00,0.0117
1914.00,0.0117
1913.00,0.0117
1912.00,0.0116
1911.00,0.0115
1910.00,0.0114
1909.00,0.0112
1908.00,0.0111
1907.00,0.0110
1906.00,0.0111
1905.00,0.0112
1904.00,0.0113
1903.00,0.0113
1902.00,0.0113
1901.00,0.0112
1900.00,0.0112
1899.00,0.0112
1898.00,0.0112
1897.00,0.0112
1896.00,0.0110
1895.00,0.0107
1894.00,0.0106
1893.00,0.0107
1892.00,0.0109
1891.00,0.0109
1890.00,0.0107
1889.00,0.0105
1888.00,0.0104
1887.00,0.0104
1886.00,0.0104
1885.00,0.0104
1884.00,0.0105
1883.00,0.0104
1882.00,0.0104
1881.00,0.0104
1880.00,0.0104
1879.00,0.0103
1878.00,0.0101
1877.00,0.0100
1876.00,0.0100
1875.00,0.0101
1874.00,0.0102
1873.00,0.0103
1872.00,0.0105
1871.00,0.0105
1870.00,0.0104
1869.00,0.0101
1868.00,0.0097
1867.00,0.0095
1866.00,0.0096
1865.00,0.0097
1864.00,0.0096
1863.00,0.0095
1862.00,0.0094
1861.00,0.0093
1860.00,0.0092
1859.00,0.0092
1858.00,0.0092
1857.00,0.0092
1856.00,0.0093
1855.00,0.0093
1854.00,0.0093
1853.00,0.0091
1852.00,0.0091
1851.00,0.0091
1850.00,0.0092
1849.00,0.0091
1848.00,0.0091
1847.00,0.0092
1846.00,0.0093
1845.00,0.0092
1844.00,0.0088
1843.00,0.0085
1842.00,0.0085
1841.00,0.0087
1840.00,0.0088
1839.00,0.0088
1838.00,0.0086
1837.00,0.0085
1836.00,0.0085
1835.00,0.0085
1834.00,0.0086
1833.00,0.0088
1832.00,0.0090
1831.00,0.0089
1830.00,0.0085
1829.00,0.0082
1828.00,0.0082
1827.00,0.0084
1826.00,0.0084
1825.00,0.0083
1824.00,0.0081
1823.00,0.0081
1822.00,0.0081
1821.00,0.0081
1820.00,0.0081
1819.00,0.0080
1818.00,0.0079
1817.00,0.0078
1816.00,0.0078
1815.00,0.0079
1814.00,0.0079
1813.00,0.0080
1812.00,0.0080
1811.00,0.0078
1810.00,0.0077
1809.00,0.0078
1808.00,0.0079
1807.00,0.0080
1806.00,0.0081
1805.00,0.0082
1804.00,0.0083
1803.00,0.0083
1802.00,0.0083
1801.00,0.0082
1800.00,0.0081
1799.00,0.0081
1798.00,0.0082
1797.00,0.0084
1796.00,0.0086
1795.00,0.0088
1794.00,0.0089
1793.00,0.0089
1792.00,0.0088
1791.00,0.0087
1790.00,0.0088
1789.00,0.0091
1788.00,0.0094
1787.00,0.0097
1786.00,0.0100
1785.00,0.0101
1784.00,0.0101
1783.00,0.0103
1782.00,0.0104
1781.00,0.0105
1780.00,0.0105
1779.00,0.0107
1778.00,0.0109
1777.00,0.0113
1776.00,0.0116
1775.00,0.0119
1774.00,0.0121
1773.00,0.0121
1772.00,0.0119
1771.00,0.0119
1770.00,0.0123
1769.00,0.0129
1768.00,0.0132
1767.00,0.0134
1766.00,0.0135
1765.00,0.0139
1764.00,0.0142
1763.00,0.0144
1762.00,0.0143
1761.00,0.0143
1760.00,0.0145
1759.00,0.0148
1758.00,0.0150
1757.00,0.0151
1756.00,0.0152
1755.00,0.0155
1754.00,0.0159
1753.00,0.0163
1752.00,0.0163
1751.00,0.0162
1750.00,0.0162
1749.00,0.0163
1748.00,0.0164
1747.00,0.0167
1746.00,0.0170
1745.00,0.0173
1744.00,0.0176
1743.00,0.0179
1742.00,0.0182
1741.00,0.0185
1740.00,0.0187
1739.00,0.0188
1738.00,0.0191
1737.00,0.0197
1736.00,0.0203
1735.00,0.0206
1734.00,0.0206
1733.00,0.0204
1732.00,0.0207
1731.00,0.0211
1730.00,0.0215
1729.00,0.0219
1728.00,0.0222
1727.00,0.0226
1726.00,0.0229
1725.00,0.0233
1724.00,0.0236
1723.00,0.0239
1722.00,0.0242
1721.00,0.0246
1720.00,0.0249
1719.00,0.0250
1718.00,0.0251
1717.00,0.0253
1716.00,0.0256
1715.00,0.0261
1714.00,0.0265
1713.00,0.0269
1712.00,0.0272
1711.00,0.0274
1710.00,0.0275
1709.00,0.0277
1708.00,0.0278
1707.00,0.0280
1706.00,0.0280
1705.00,0.0281
1704.00,0.0284
1703.00,0.0289
1702.00,0.0294
1701.00,0.0297
1700.00,0.0295
1699.00,0.0292
1698.00,0.0294
1697.00,0.0298
1696.00,0.0299
1695.00,0.0296
1694.00,0.0297
1693.00,0.0300
1692.00,0.0302
1691.00,0.0302
1690.00,0.0302
1689.00,0.0303
1688.00,0.0304
1687.00,0.0306
1686.00,0.0306
1685.00,0.0306
1684.00,0.0306
1683.00,0.0307
1682.00,0.0311
1681.00,0.0314
1680.00,0.0316
1679.00,0.0317
1678.00,0.0321
1677.00,0.0326
1676.00,0.0330
1675.00,0.0332
1674.00,0.0332
1673.00,0.0332
1672.00,0.0333
1671.00,0.0334
1670.00,0.0336
1669.00,0.0339
1668.00,0.0341
1667.00,0.0343
1666.00,0.0345
1665.00,0.0347
1664.00,0.0348
1663.00,0.0349
1662.00,0.0351
1661.00,0.0354
1660.00,0.0358
1659.00,0.0361
1658.00,0.0362
1657.00,0.0363
1656.00,0.0363
1655.00,0.0363
1654.00,0.0367
1653.00,0.0372
1652.00,0.0371
1651.00,0.0373
1650.00,0.0375
1649.00,0.0376
1648.00,0.0378
1647.00,0.0381
1646.00,0.0386
1645.00,0.0391
1644.00,0.0395
1643.00,0.0398
1642.00,0.0400
1641.00,0.0400
1640.00,0.0401
1639.00,0.0401
1638.00,0.0402
1637.00,0.0406
1636.00,0.0414
1635.00,0.0420
1634.00,0.0423
1633.00,0.0424
1632.00,0.0425
1631.00,0.0425
1630.00,0.0426
1629.00,0.0429
1628.00,0.0432
1627.00,0.0434
1626.00,0.0437
1625.00,0.0441
1624.00,0.0445
1623.00,0.0449
1622.00,0.0452
1621.00,0.0453
1620.00,0.0454
1619.00,0.0455
1618.00,0.0456
1617.00,0.0460
1616.00,0.0464
1615.00,0.0468
1614.00,0.0471
1613.00,0.0474
1612.00,0.0475
1611.00,0.0477
1610.00,0.0479
1609.00,0.0482
1608.00,0.0485
1607.00,0.0488
1606.00,0.0491
1605.00,0.0494
1604.00,0.0497
1603.00,0.0499
1602.00,0.0500
1601.00,0.0502
1600.00,0.0503
1599.00,0.0506
1598.00,0.0508
1597.00,0.0511
1596.00,0.0514
1595.00,0.0518
1594.00,0.0521
1593.00,0.0523
1592.00,0.0525
1591.00,0.0527
1590.00,0.0529
1589.00,0.0532
1588.00,0.0535
1587.00,0.0538
1586.00,0.0540
1585.00,0.0542
1584.00,0.0543
1583.00,0.0545
1582.00,0.0547
1581.00,0.0547
1580.00,0.0547
1579.00,0.0547
1578.00,0.0548
1577.00,0.0552
1576.00,0.0557
1575.00,0.0559
1574.00,0.0560
1573.00,0.0560
1572.00,0.0559
1571.00,0.0560
1570.00,0.0564
1569.00,0.0567
1568.00,0.0568
1567.00,0.0569
1566.00,0.0568
1565.00,0.0566
1564.00,0.0564
1563.00,0.0562
1562.00,0.0559
1561.00,0.0553
1560.00,0.0555
1559.00,0.0569
1558.00,0.0575
1557.00,0.0574
1556.00,0.0573
1555.00,0.0570
1554.00,0.0568
1553.00,0.0565
1552.00,0.0564
1551.00,0.0562
1550.00,0.0560
1549.00,0.0558
1548.00,0.0555
1547.00,0.0551
1546.00,0.0547
1545.00,0.0543
1544.00,0.0539
1543.00,0.0534
1542.00,0.0529
1541.00,0.0527
1540.00,0.0529
1539.00,0.0528
1538.00,0.0526
1537.00,0.0524
1536.00,0.0521
1535.00,0.0517
1534.00,0.0514
1533.00,0.0512
1532.00,0.0510
1531.00,0.0507
1530.00,0.0503
1529.00,0.0498
1528.00,0.0494
1527.00,0.0490
1526.00,0.0486
1525.00,0.0483
1524.00,0.0480
1523.00,0.0476
1522.00,0.0473
1521.00,0.0471
1520.00,0.0470
1519.00,0.0469
1518.00,0.0467
1517.00,0.0463
1516.00,0.0460
1515.00,0.0458
1514.00,0.0456
1513.00,0.0453
1512.00,0.0449
1511.00,0.0444
1510.00,0.0440
1509.00,0.0436
1508.00,0.0434
1507.00,0.0435
1506.00,0.0433
1505.00,0.0432
1504.00,0.0430
1503.00,0.0427
1502.00,0.0424
1501.00,0.0420
1500.00,0.0419
1499.00,0.0418
1498.00,0.0417
1497.00,0.0418
1496.00,0.0418
1495.00,0.0417
1494.00,0.0414
1493.00,0.0412
1492.00,0.0409
1491.00,0.0407
1490.00,0.0406
1489.00,0.0406
1488.00,0.0406
1487.00,0.0405
1486.00,0.0405
1485.00,0.0404
1484.00,0.0403
1483.00,0.0403
1482.00,0.0402
1481.00,0.0402
1480.00,0.0402
1479.00,0.0401
1478.00,0.0401
1477.00,0.0401
1476.00,0.0401
1475.00,0.0401
1474.00,0.0401
1473.00,0.0403
1472.00,0.0406
1471.00,0.0408
1470.00,0.0410
1469.00,0.0411
1468.00,0.0411
1467.00,0.0411
1466.00,0.0412
1465.00,0.0412
1464.00,0.0413
1463.00,0.0413
1462.00,0.0412
1461.00,0.0410
1460.00,0.0409
1459.00,0.0409
1458.00,0.0413
1457.00,0.0420
1456.00,0.0424
1455.00,0.0425
1454.00,0.0425
1453.00,0.0426
1452.00,0.0427
1451.00,0.0428
1450.00,0.0430
1449.00,0.0433
1448.00,0.0436
1447.00,0.0439
1446.00,0.0440
1445.00,0.0441
1444.00,0.0442
1443.00,0.0442
1442.00,0.0443
1441.00,0.0443
1440.00,0.0445
1439.00,0.0447
1438.00,0.0451
1437.00,0.0456
1436.00,0.0459
1435.00,0.0459
1434.00,0.0458
1433.00,0.0457
1432.00,0.0457
1431.00,0.0458
1430.00,0.0459
1429.00,0.0460
1428.00,0.0462
1427.00,0.0463
1426.00,0.0464
1425.00,0.0464
1424.00,0.0466
1423.00,0.0467
1422.00,0.0469
1421.00,0.0470
1420.00,0.0473
1419.00,0.0477
1418.00,0.0480
1417.00,0.0482
1416.00,0.0484
1415.00,0.0484
1414.00,0.0483
1413.00,0.0483
1412.00,0.0483
1411.00,0.0484
1410.00,0.0485
1409.00,0.0486
1408.00,0.0487
1407.00,0.0488
1406.00,0.0489
1405.00,0.0490
1404.00,0.0491
1403.00,0.0492
1402.00,0.0492
1401.00,0.0491
1400.00,0.0492
1399.00,0.0493
1398.00,0.0495
1397.00,0.0496
1396.00,0.0498
1395.00,0.0501
1394.00,0.0503
1393.00,0.0504
1392.00,0.0504
1391.00,0.0504
1390.00,0.0504
1389.00,0.0505
1388.00,0.0507
1387.00,0.0510
1386.00,0.0511
1385.00,0.0511
1384.00,0.0511
1383.00,0.0510
1382.00,0.0511
1381.00,0.0512
1380.00,0.0513
1379.00,0.0514
1378.00,0.0515
1377.00,0.0516
1376.00,0.0516
1375.00,0.0518
1374.00,0.0520
1373.00,0.0521
1372.00,0.0522
1371.00,0.0522
1370.00,0.0522
1369.00,0.0522
1368.00,0.0522
1367.00,0.0522
1366.00,0.0521
1365.00,0.0520
1364.00,0.0519
1363.00,0.0520
1362.00,0.0522
1361.00,0.0523
1360.00,0.0524
1359.00,0.0523
1358.00,0.0522
1357.00,0.0521
1356.00,0.0521
1355.00,0.0521
1354.00,0.0520
1353.00,0.0519
1352.00,0.0518
1351.00,0.0516
1350.00,0.0514
1349.00,0.0513
1348.00,0.0512
1347.00,0.0511
1346.00,0.0510
1345.00,0.0509
1344.00,0.0508
1343.00,0.0506
1342.00,0.0504
1341.00,0.0503
1340.00,0.0503
1339.00,0.0504
1338.00,0.0504
1337.00,0.0503
1336.00,0.0503
1335.00,0.0502
1334.00,0.0500
1333.00,0.0499
1332.00,0.0498
1331.00,0.0497
1330.00,0.0496
1329.00,0.0496
1328.00,0.0495
1327.00,0.0494
1326.00,0.0493
1325.00,0.0493
1324.00,0.0492
1323.00,0.0492
1322.00,0.0493
1321.00,0.0493
1320.00,0.0492
1319.00,0.0491
1318.00,0.0490
1317.00,0.0488
1316.00,0.0487
1315.00,0.0487
1314.00,0.0487
1313.00,0.0488
1312.00,0.0489
1311.00,0.0490
1310.00,0.0490
1309.00,0.0490
1308.00,0.0489
1307.00,0.0488
1306.00,0.0488
1305.00,0.0488
1304.00,0.0488
1303.00,0.0489
1302.00,0.0489
1301.00,0.0489
1300.00,0.0489
1299.00,0.0488
1298.00,0.0488
1297.00,0.0487
1296.00,0.0486
1295.00,0.0486
1294.00,0.0487
1293.00,0.0487
1292.00,0.0488
1291.00,0.0488
1290.00,0.0489
1289.00,0.0489
1288.00,0.0489
1287.00,0.0489
1286.00,0.0489
1285.00,0.0489
1284.00,0.0490
1283.00,0.0490
1282.00,0.0490
1281.00,0.0490
1280.00,0.0489
1279.00,0.0489
1278.00,0.0489
1277.00,0.0489
1276.00,0.0489
1275.00,0.0489
1274.00,0.0488
1273.00,0.0488
1272.00,0.0487
1271.00,0.0487
1270.00,0.0487
1269.00,0.0487
1268.00,0.0487
1267.00,0.0487
1266.00,0.0487
1265.00,0.0488
1264.00,0.0487
1263.00,0.0487
1262.00,0.0487
1261.00,0.0486
1260.00,0.0487
1259.00,0.0487
1258.00,0.0488
1257.00,0.0487
1256.00,0.0486
1255.00,0.0486
1254.00,0.0486
1253.00,0.0486
1252.00,0.0487
1251.00,0.0486
1250.00,0.0486
1249.00,0.0485
1248.00,0.0485
1247.00,0.0486
1246.00,0.0487
1245.00,0.0488
1244.00,0.0488
1243.00,0.0488
1242.00,0.0487
1241.00,0.0486
1240.00,0.0485
1239.00,0.0485
1238.00,0.0485
1237.00,0.0486
1236.00,0.0486
1235.00,0.0486
1234.00,0.0485
1233.00,0.0485
1232.00,0.0484
1231.00,0.0484
1230.00,0.0483
1229.00,0.0483
1228.00,0.0483
1227.00,0.0484
1226.00,0.0484
1225.00,0.0483
1224.00,0.0481
1223.00,0.0480
1222.00,0.0480
1221.00,0.0480
1220.00,0.0480
1219.00,0.0480
1218.00,0.0479
1217.00,0.0478
1216.00,0.0478
1215.00,0.0477
1214.00,0.0477
1213.00,0.0476
1212.00,0.0476
1211.00,0.0476
1210.00,0.0477
1209.00,0.0477
1208.00,0.0476
1207.00,0.0475
1206.00,0.0474
1205.00,0.0472
1204.00,0.0471
1203.00,0.0470
1202.00,0.0470
1201.00,0.0469
1200.00,0.0469
1199.00,0.0469
1198.00,0.0468
1197.00,0.0467
1196.00,0.0466
1195.00,0.0464
1194.00,0.0463
1193.00,0.0463
1192.00,0.0462
1191.00,0.0462
1190.00,0.0461
1189.00,0.0459
1188.00,0.0458
1187.00,0.0458
1186.00,0.0457
1185.00,0.0457
1184.00,0.0456
1183.00,0.0454
1182.00,0.0452
1181.00,0.0450
1180.00,0.0449
1179.00,0.0447
1178.00,0.0446
1177.00,0.0446
1176.00,0.0445
1175.00,0.0445
1174.00,0.0445
1173.00,0.0445
1172.00,0.0444
1171.00,0.0442
1170.00,0.0440
1169.00,0.0439
1168.00,0.0438
1167.00,0.0437
1166.00,0.0436
1165.00,0.0435
1164.00,0.0434
1163.00,0.0434
1162.00,0.0433
1161.00,0.0433
1160.00,0.0432
1159.00,0.0431
1158.00,0.0430
1157.00,0.0429
1156.00,0.0429
1155.00,0.0429
1154.00,0.0429
1153.00,0.0428
1152.00,0.0427
1151.00,0.0425
1150.00,0.0423
1149.00,0.0422
1148.00,0.0422
1147.00,0.0422
1146.00,0.0422
1145.00,0.0422
1144.00,0.0422
1143.00,0.0423
1142.00,0.0423
1141.00,0.0423
1140.00,0.0423
1139.00,0.0422
1138.00,0.0422
1137.00,0.0421
1136.00,0.0422
1135.00,0.0423
1134.00,0.0424
1133.00,0.0424
1132.00,0.0424
1131.00,0.0423
1130.00,0.0422
1129.00,0.0422
1128.00,0.0423
1127.00,0.0423
1126.00,0.0422
1125.00,0.0420
1124.00,0.0421
1123.00,0.0423
1122.00,0.0426
1121.00,0.0429
1120.00,0.0430
1119.00,0.0430
1118.00,0.0429
1117.00,0.0428
1116.00,0.0429
1115.00,0.0430
1114.00,0.0431
1113.00,0.0431
1112.00,0.0430
1111.00,0.0430
1110.00,0.0430
1109.00,0.0431
1108.00,0.0432
1107.00,0.0431
1106.00,0.0430
1105.00,0.0429
1104.00,0.0429
1103.00,0.0430
1102.00,0.0432
1101.00,0.0432
1100.00,0.0432
1099.00,0.0432
1098.00,0.0433
1097.00,0.0434
1096.00,0.0434
1095.00,0.0434
1094.00,0.0433
1093.00,0.0433
1092.00,0.0434
1091.00,0.0434
1090.00,0.0433
1089.00,0.0431
1088.00,0.0430
1087.00,0.0430
1086.00,0.0431
1085.00,0.0433
1084.00,0.0435
1083.00,0.0437
1082.00,0.0438
1081.00,0.0438
1080.00,0.0439
1079.00,0.0441
1078.00,0.0443
1077.00,0.0445
1076.00,0.0445
1075.00,0.0444
1074.00,0.0442
1073.00,0.0441
1072.00,0.0441
1071.00,0.0440
1070.00,0.0439
1069.00,0.0437
1068.00,0.0435
1067.00,0.0435
1066.00,0.0437
1065.00,0.0439
1064.00,0.0442
1063.00,0.0444
1062.00,0.0444
1061.00,0.0442
1060.00,0.0440
1059.00,0.0439
1058.00,0.0440
1057.00,0.0443
1056.00,0.0446
1055.00,0.0447
1054.00,0.0448
1053.00,0.0450
1052.00,0.0451
1051.00,0.0452
1050.00,0.0452
1049.00,0.0453
1048.00,0.0455
1047.00,0.0456
1046.00,0.0457
1045.00,0.0459
1044.00,0.0460
1043.00,0.0461
1042.00,0.0460
1041.00,0.0458
1040.00,0.0456
1039.00,0.0456
1038.00,0.0457
1037.00,0.0458
1036.00,0.0459
1035.00,0.0459
1034.00,0.0459
1033.00,0.0460
1032.00,0.0461
1031.00,0.0461
1030.00,0.0459
1029.00,0.0457
1028.00,0.0455
1027.00,0.0454
1026.00,0.0454
1025.00,0.0454
1024.00,0.0454
1023.00,0.0453
1022.00,0.0452
1021.00,0.0451
1020.00,0.0450
1019.00,0.0449
1018.00,0.0449
1017.00,0.0448
1016.00,0.0449
1015.00,0.0449
1014.00,0.0450
1013.00,0.0450
1012.00,0.0449
1011.00,0.0448
1010.00,0.0448
1009.00,0.0448
1008.00,0.0447
1007.00,0.0446
1006.00,0.0446
1005.00,0.0446
1004.00,0.0446
1003.00,0.0447
1002.00,0.0447
1001.00,0.0446
1000.00,0.0444
999.00,0.0441
998.00,0.0438
997.00,0.0437
996.00,0.0438
995.00,0.0438
994.00,0.0438
993.00,0.0436
992.00,0.0433
991.00,0.0431
990.00,0.0430
989.00,0.0429
988.00,0.0429
987.00,0.0430
986.00,0.0431
985.00,0.0431
984.00,0.0429
983.00,0.0426
982.00,0.0424
981.00,0.0422
980.00,0.0421
979.00,0.0420
978.00,0.0418
977.00,0.0416
976.00,0.0413
975.00,0.0412
974.00,0.0411
973.00,0.0411
972.00,0.0411
971.00,0.0409
970.00,0.0407
969.00,0.0405
968.00,0.0403
967.00,0.0401
966.00,0.0400
965.00,0.0398
964.00,0.0397
963.00,0.0396
962.00,0.0396
961.00,0.0396
960.00,0.0394
959.00,0.0393
958.00,0.0392
957.00,0.0391
956.00,0.0391
955.00,0.0390
954.00,0.0388
953.00,0.0387
952.00,0.0387
951.00,0.0389
950.00,0.0390
949.00,0.0391
948.00,0.0390
947.00,0.0389
946.00,0.0387
945.00,0.0386
944.00,0.0385
943.00,0.0385
942.00,0.0384
941.00,0.0385
940.00,0.0387
939.00,0.0389
938.00,0.0390
937.00,0.0389
936.00,0.0388
935.00,0.0387
934.00,0.0388
933.00,0.0391
932.00,0.0395
931.00,0.0398
930.00,0.0399
929.00,0.0400
928.00,0.0400
927.00,0.0401
926.00,0.0401
925.00,0.0401
924.00,0.0401
923.00,0.0402
922.00,0.0403
921.00,0.0404
920.00,0.0405
919.00,0.0406
918.00,0.0406
917.00,0.0407
916.00,0.0408
915.00,0.0410
914.00,0.0411
913.00,0.0412
912.00,0.0412
911.00,0.0412
910.00,0.0412
909.00,0.0410
908.00,0.0408
907.00,0.0406
906.00,0.0407
905.00,0.0409
904.00,0.0413
903.00,0.0417
902.00,0.0418
901.00,0.0417
900.00,0.0415
899.00,0.0414
898.00,0.0413
897.00,0.0414
896.00,0.0415
895.00,0.0415
894.00,0.0415
893.00,0.0413
892.00,0.0411
891.00,0.0409
890.00,0.0408
889.00,0.0409
888.00,0.0410
887.00,0.0409
886.00,0.0408
885.00,0.0407
884.00,0.0409
883.00,0.0412
882.00,0.0414
881.00,0.0414
880.00,0.0413
879.00,0.0412
878.00,0.0409
877.00,0.0406
876.00,0.0403
875.00,0.0402
874.00,0.0401
873.00,0.0402
872.00,0.0402
871.00,0.0403
870.00,0.0403
869.00,0.0404
868.00,0.0403
867.00,0.0403
866.00,0.0404
865.00,0.0405
864.00,0.0406
863.00,0.0407
862.00,0.0408
861.00,0.0409
860.00,0.0409
859.00,0.0408
858.00,0.0406
857.00,0.0404
856.00,0.0405
855.00,0.0407
854.00,0.0410
853.00,0.0411
852.00,0.0412
851.00,0.0412
850.00,0.0412
849.00,0.0412
848.00,0.0414
847.00,0.0416
846.00,0.0419
845.00,0.0422
844.00,0.0425
843.00,0.0426
842.00,0.0426
841.00,0.0425
840.00,0.0423
839.00,0.0421
838.00,0.0420
837.00,0.0421
836.00,0.0423
835.00,0.0424
834.00,0.0426
833.00,0.0428
832.00,0.0429
831.00,0.0428
830.00,0.0427
829.00,0.0426
828.00,0.0427
827.00,0.0430
826.00,0.0435
825.00,0.0439
824.00,0.0442
823.00,0.0444
822.00,0.0446
821.00,0.0447
820.00,0.0449
819.00,0.0451
818.00,0.0451
817.00,0.0450
816.00,0.0448
815.00,0.0447
814.00,0.0449
813.00,0.0452
812.00,0.0456
811.00,0.0457
810.00,0.0457
809.00,0.0457
808.00,0.0457
807.00,0.0457
806.00,0.0457
805.00,0.0457
804.00,0.0456
803.00,0.0456
802.00,0.0458
801.00,0.0462
800.00,0.0467
799.00,0.0472
798.00,0.0473
797.00,0.0472
796.00,0.0471
795.00,0.0470
794.00,0.0469
793.00,0.0469
792.00,0.0471
791.00,0.0475
790.00,0.0478
789.00,0.0480
788.00,0.0481
787.00,0.0481
786.00,0.0482
785.00,0.0485
784.00,0.0487
783.00,0.0488
782.00,0.0488
781.00,0.0487
780.00,0.0487
779.00,0.0487
778.00,0.0488
777.00,0.0491
776.00,0.0494
775.00,0.0494
774.00,0.0492
773.00,0.0490
772.00,0.0489
771.00,0.0491
770.00,0.0493
769.00,0.0494
768.00,0.0494
767.00,0.0494
766.00,0.0492
765.00,0.0492
764.00,0.0492
763.00,0.0491
762.00,0.0490
761.00,0.0489
760.00,0.0489
759.00,0.0493
758.00,0.0498
757.00,0.0502
756.00,0.0502
755.00,0.0500
754.00,0.0498
753.00,0.0498
752.00,0.0499
751.00,0.0501
750.00,0.0504
749.00,0.0507
748.00,0.0509
747.00,0.0510
746.00,0.0510
745.00,0.0509
744.00,0.0508
743.00,0.0507
742.00,0.0506
741.00,0.0505
740.00,0.0503
739.00,0.0501
738.00,0.0499
737.00,0.0499
736.00,0.0500
735.00,0.0502
734.00,0.0505
733.00,0.0506
732.00,0.0506
731.00,0.0505
730.00,0.0505
729.00,0.0506
728.00,0.0509
727.00,0.0512
726.00,0.0515
725.00,0.0517
724.00,0.0518
723.00,0.0518
722.00,0.0516
721.00,0.0515
720.00,0.0514
719.00,0.0514
718.00,0.0515
717.00,0.0516
716.00,0.0515
715.00,0.0514
714.00,0.0513
713.00,0.0514
712.00,0.0517
711.00,0.0519
710.00,0.0521
709.00,0.0523
708.00,0.0525
707.00,0.0526
706.00,0.0525
705.00,0.0526
704.00,0.0528
703.00,0.0531
702.00,0.0532
701.00,0.0531
700.00,0.0529
699.00,0.0530
698.00,0.0533
697.00,0.0537
696.00,0.0540
695.00,0.0542
694.00,0.0545
693.00,0.0547
692.00,0.0549
691.00,0.0549
690.00,0.0549
689.00,0.0550
688.00,0.0551
687.00,0.0551
686.00,0.0550
685.00,0.0548
684.00,0.0545
683.00,0.0542
682.00,0.0540
681.00,0.0540
680.00,0.0541
679.00,0.0544
678.00,0.0547
677.00,0.0550
676.00,0.0553
675.00,0.0553
674.00,0.0552
673.00,0.0551
672.00,0.0552
671.00,0.0553
670.00,0.0555
669.00,0.0560
668.00,0.0567
667.00,0.0571
666.00,0.0570
665.00,0.0568
664.00,0.0565
663.00,0.0563
662.00,0.0560
661.00,0.0555
660.00,0.0549
659.00,0.0545
658.00,0.0548
657.00,0.0558
656.00,0.0567
655.00,0.0572
654.00,0.0557
653.00,0.0544
652.00,0.0542
651.00,0.0541
650.00,0.0546
