Created as New Dataset,Monday, April 03 2023
cm-1,A
4000.00,0.0126
3999.00,0.0126
3998.00,0.0125
3997.00,0.0125
3996.00,0.0125
3995.00,0.0124
3994.00,0.0124
3993.00,0.0123
3992.00,0.0123
3991.00,0.0123
3990.00,0.0123
3989.00,0.0123
3988.00,0.0123
3987.00,0.0123
3986.00,0.0123
3985.00,0.0123
3984.00,0.0123
3983.00,0.0123
3982.00,0.0123
3981.00,0.0123
3980.00,0.0122
3979.00,0.0122
3978.00,0.0122
3977.00,0.0121
3976.00,0.0121
3975.00,0.0121
3974.00,0.0120
3973.00,0.0121
3972.00,0.0121
3971.00,0.0122
3970.00,0.0122
3969.00,0.0122
3968.00,0.0122
3967.00,0.0121
3966.00,0.0121
3965.00,0.0120
3964.00,0.0121
3963.00,0.0121
3962.00,0.0121
3961.00,0.0121
3960.00,0.0120
3959.00,0.0120
3958.00,0.0120
3957.00,0.0120
3956.00,0.0120
3955.00,0.0119
3954.00,0.0118
3953.00,0.0118
3952.00,0.0118
3951.00,0.0118
3950.00,0.0118
3949.00,0.0119
3948.00,0.0119
3947.00,0.0118
3946.00,0.0118
3945.00,0.0117
3944.00,0.0117
3943.00,0.0116
3942.00,0.0115
3941.00,0.0115
3940.00,0.0116
3939.00,0.0117
3938.00,0.0118
3937.00,0.0118
3936.00,0.0118
3935.00,0.0117
3934.00,0.0116
3933.00,0.0115
3932.00,0.0114
3931.00,0.0114
3930.00,0.0113
3929.00,0.0113
3928.00,0.0114
3927.00,0.0115
3926.00,0.0115
3925.00,0.0115
3924.00,0.0115
3923.00,0.0114
3922.00,0.0114
3921.00,0.0113
3920.00,0.0112
3919.00,0.0112
3918.00,0.0112
3917.00,0.0113
3916.00,0.0113
3915.00,0.0113
3914.00,0.0114
3913.00,0.0115
3912.00,0.0116
3911.00,0.0116
3910.00,0.0116
3909.00,0.0115
3908.00,0.0113
3907.00,0.0111
3906.00,0.0109
3905.00,0.0106
3904.00,0.0104
3903.00,0.0103
3902.00,0.0102
3901.00,0.0103
3900.00,0.0104
3899.00,0.0105
3898.00,0.0106
3897.00,0.0107
3896.00,0.0108
3895.00,0.0109
3894.00,0.0110
3893.00,0.0110
3892.00,0.0109
3891.00,0.0108
3890.00,0.0106
3889.00,0.0105
3888.00,0.0105
3887.00,0.0106
3886.00,0.0107
3885.00,0.0106
3884.00,0.0104
3883.00,0.0102
3882.00,0.0103
3881.00,0.0103
3880.00,0.0104
3879.00,0.0104
3878.00,0.0104
3877.00,0.0106
3876.00,0.0107
3875.00,0.0107
3874.00,0.0105
3873.00,0.0102
3872.00,0.0100
3871.00,0.0101
3870.00,0.0102
3869.00,0.0102
3868.00,0.0101
3867.00,0.0101
3866.00,0.0102
3865.00,0.0104
3864.00,0.0105
3863.00,0.0106
3862.00,0.0106
3861.00,0.0106
3860.00,0.0106
3859.00,0.0105
3858.00,0.0102
3857.00,0.0098
3856.00,0.0093
3855.00,0.0092
3854.00,0.0094
3853.00,0.0096
3852.00,0.0096
3851.00,0.0096
3850.00,0.0100
3849.00,0.0103
3848.00,0.0105
3847.00,0.0106
3846.00,0.0106
3845.00,0.0105
3844.00,0.0104
3843.00,0.0101
3842.00,0.0099
3841.00,0.0097
3840.00,0.0097
3839.00,0.0097
3838.00,0.0098
3837.00,0.0098
3836.00,0.0098
3835.00,0.0099
3834.00,0.0101
3833.00,0.0102
3832.00,0.0103
3831.00,0.0103
3830.00,0.0103
3829.00,0.0103
3828.00,0.0103
3827.00,0.0103
3826.00,0.0102
3825.00,0.0100
3824.00,0.0099
3823.00,0.0099
3822.00,0.0100
3821.00,0.0099
3820.00,0.0097
3819.00,0.0094
3818.00,0.0095
3817.00,0.0098
3816.00,0.0102
3815.00,0.0104
3814.00,0.0105
3813.00,0.0105
3812.00,0.0106
3811.00,0.0105
3810.00,0.0103
3809.00,0.0101
3808.00,0.0101
3807.00,0.0102
3806.00,0.0101
3805.00,0.0100
3804.00,0.0099
3803.00,0.0100
3802.00,0.0101
3801.00,0.0100
3800.00,0.0099
3799.00,0.0098
3798.00,0.0098
3797.00,0.0100
3796.00,0.0101
3795.00,0.0101
3794.00,0.0102
3793.00,0.0103
3792.00,0.0104
3791.00,0.0105
3790.00,0.0105
3789.00,0.0105
3788.00,0.0105
3787.00,0.0105
3786.00,0.0105
3785.00,0.0104
3784.00,0.0104
3783.00,0.0103
3782.00,0.0102
3781.00,0.0102
3780.00,0.0101
3779.00,0.0101
3778.00,0.0101
3777.00,0.0101
3776.00,0.0101
3775.00,0.0102
3774.00,0.0102
3773.00,0.0101
3772.00,0.0100
3771.00,0.0100
3770.00,0.0099
3769.00,0.0097
3768.00,0.0096
3767.00,0.0096
3766.00,0.0097
3765.00,0.0098
3764.00,0.0098
3763.00,0.0097
3762.00,0.0097
3761.00,0.0098
3760.00,0.0098
3759.00,0.0097
3758.00,0.0095
3757.00,0.0093
3756.00,0.0092
3755.00,0.0090
3754.00,0.0088
3753.00,0.0086
3752.00,0.0086
3751.00,0.0087
3750.00,0.0088
3749.00,0.0087
3748.00,0.0087
3747.00,0.0087
3746.00,0.0089
3745.00,0.0090
3744.00,0.0089
3743.00,0.0086
3742.00,0.0085
3741.00,0.0087
3740.00,0.0089
3739.00,0.0089
3738.00,0.0088
3737.00,0.0087
3736.00,0.0085
3735.00,0.0083
3734.00,0.0081
3733.00,0.0080
3732.00,0.0083
3731.00,0.0086
3730.00,0.0089
3729.00,0.0091
3728.00,0.0093
3727.00,0.0093
3726.00,0.0092
3725.00,0.0090
3724.00,0.0089
3723.00,0.0089
3722.00,0.0090
3721.00,0.0091
3720.00,0.0092
3719.00,0.0094
3718.00,0.0094
3717.00,0.0094
3716.00,0.0093
3715.00,0.0092
3714.00,0.0091
3713.00,0.0091
3712.00,0.0092
3711.00,0.0093
3710.00,0.0092
3709.00,0.0092
3708.00,0.0094
3707.00,0.0097
3706.00,0.0100
3705.00,0.0102
3704.00,0.0103
3703.00,0.0103
3702.00,0.0103
3701.00,0.0103
3700.00,0.0103
3699.00,0.0103
3698.00,0.0104
3697.00,0.0105
3696.00,0.0104
3695.00,0.0103
3694.00,0.0100
3693.00,0.0097
3692.00,0.0095
3691.00,0.0095
3690.00,0.0097
3689.00,0.0098
3688.00,0.0098
3687.00,0.0099
3686.00,0.0100
3685.00,0.0102
3684.00,0.0103
3683.00,0.0104
3682.00,0.0102
3681.00,0.0100
3680.00,0.0097
3679.00,0.0093
3678.00,0.0089
3677.00,0.0088
3676.00,0.0090
3675.00,0.0090
3674.00,0.0088
3673.00,0.0087
3672.00,0.0089
3671.00,0.0094
3670.00,0.0099
3669.00,0.0102
3668.00,0.0103
3667.00,0.0105
3666.00,0.0108
3665.00,0.0111
3664.00,0.0114
3663.00,0.0116
3662.00,0.0118
3661.00,0.0119
3660.00,0.0120
3659.00,0.0120
3658.00,0.0122
3657.00,0.0124
3656.00,0.0125
3655.00,0.0124
3654.00,0.0123
3653.00,0.0121
3652.00,0.0120
3651.00,0.0119
3650.00,0.0120
3649.00,0.0123
3648.00,0.0126
3647.00,0.0128
3646.00,0.0132
3645.00,0.0136
3644.00,0.0141
3643.00,0.0146
3642.00,0.0150
3641.00,0.0152
3640.00,0.0154
3639.00,0.0156
3638.00,0.0158
3637.00,0.0158
3636.00,0.0159
3635.00,0.0160
3634.00,0.0161
3633.00,0.0159
3632.00,0.0157
3631.00,0.0156
3630.00,0.0160
3629.00,0.0166
3628.00,0.0169
3627.00,0.0170
3626.00,0.0172
3625.00,0.0175
3624.00,0.0178
3623.00,0.0179
3622.00,0.0179
3621.00,0.0180
3620.00,0.0183
3619.00,0.0185
3618.00,0.0185
3617.00,0.0185
3616.00,0.0185
3615.00,0.0186
3614.00,0.0188
3613.00,0.0190
3612.00,0.0190
3611.00,0.0190
3610.00,0.0192
3609.00,0.0196
3608.00,0.0200
3607.00,0.0203
3606.00,0.0204
3605.00,0.0204
3604.00,0.0205
3603.00,0.0207
3602.00,0.0210
3601.00,0.0213
3600.00,0.0214
3599.00,0.0214
3598.00,0.0214
3597.00,0.0213
3596.00,0.0214
3595.00,0.0216
3594.00,0.0217
3593.00,0.0217
3592.00,0.0217
3591.00,0.0217
3590.00,0.0216
3589.00,0.0217
3588.00,0.0220
3587.00,0.0222
3586.00,0.0223
3585.00,0.0225
3584.00,0.0227
3583.00,0.0230
3582.00,0.0232
3581.00,0.0234
3580.00,0.0235
3579.00,0.0236
3578.00,0.0238
3577.00,0.0239
3576.00,0.0241
3575.00,0.0242
3574.00,0.0243
3573.00,0.0243
3572.00,0.0243
3571.00,0.0240
3570.00,0.0238
3569.00,0.0236
3568.00,0.0238
3567.00,0.0241
3566.00,0.0243
3565.00,0.0244
3564.00,0.0245
3563.00,0.0247
3562.00,0.0250
3561.00,0.0253
3560.00,0.0256
3559.00,0.0258
3558.00,0.0260
3557.00,0.0261
3556.00,0.0263
3555.00,0.0264
3554.00,0.0265
3553.00,0.0266
3552.00,0.0267
3551.00,0.0268
3550.00,0.0269
3549.00,0.0269
3548.00,0.0269
3547.00,0.0270
3546.00,0.0272
3545.00,0.0273
3544.00,0.0275
3543.00,0.0276
3542.00,0.0277
3541.00,0.0279
3540.00,0.0279
3539.00,0.0279
3538.00,0.0279
3537.00,0.0280
3536.00,0.0281
3535.00,0.0282
3534.00,0.0284
3533.00,0.0285
3532.00,0.0286
3531.00,0.0286
3530.00,0.0286
3529.00,0.0286
3528.00,0.0286
3527.00,0.0286
3526.00,0.0288
3525.00,0.0290
3524.00,0.0293
3523.00,0.0295
3522.00,0.0296
3521.00,0.0297
3520.00,0.0297
3519.00,0.0297
3518.00,0.0298
3517.00,0.0298
3516.00,0.0299
3515.00,0.0300
3514.00,0.0301
3513.00,0.0303
3512.00,0.0304
3511.00,0.0304
3510.00,0.0305
3509.00,0.0305
3508.00,0.0306
3507.00,0.0306
3506.00,0.0306
3505.00,0.0307
3504.00,0.0309
3503.00,0.0311
3502.00,0.0313
3501.00,0.0314
3500.00,0.0314
3499.00,0.0315
3498.00,0.0316
3497.00,0.0318
3496.00,0.0319
3495.00,0.0319
3494.00,0.0320
3493.00,0.0320
3492.00,0.0320
3491.00,0.0321
3490.00,0.0321
3489.00,0.0321
3488.00,0.0322
3487.00,0.0323
3486.00,0.0324
3485.00,0.0324
3484.00,0.0324
3483.00,0.0324
3482.00,0.0326
3481.00,0.0327
3480.00,0.0328
3479.00,0.0329
3478.00,0.0330
3477.00,0.0331
3476.00,0.0332
3475.00,0.0333
3474.00,0.0334
3473.00,0.0335
3472.00,0.0336
3471.00,0.0337
3470.00,0.0337
3469.00,0.0338
3468.00,0.0339
3467.00,0.0340
3466.00,0.0341
3465.00,0.0342
3464.00,0.0343
3463.00,0.0343
3462.00,0.0342
3461.00,0.0342
3460.00,0.0342
3459.00,0.0344
3458.00,0.0345
3457.00,0.0346
3456.00,0.0347
3455.00,0.0347
3454.00,0.0347
3453.00,0.0347
3452.00,0.0348
3451.00,0.0349
3450.00,0.0349
3449.00,0.0350
3448.00,0.0351
3447.00,0.0352
3446.00,0.0353
3445.00,0.0354
3444.00,0.0354
3443.00,0.0355
3442.00,0.0355
3441.00,0.0355
3440.00,0.0354
3439.00,0.0354
3438.00,0.0355
3437.00,0.0356
3436.00,0.0357
3435.00,0.0358
3434.00,0.0358
3433.00,0.0359
3432.00,0.0360
3431.00,0.0361
3430.00,0.0362
3429.00,0.0362
3428.00,0.0362
3427.00,0.0363
3426.00,0.0364
3425.00,0.0365
3424.00,0.0366
3423.00,0.0367
3422.00,0.0368
3421.00,0.0369
3420.00,0.0369
3419.00,0.0369
3418.00,0.0370
3417.00,0.0370
3416.00,0.0369
3415.00,0.0369
3414.00,0.0370
3413.00,0.0370
3412.00,0.0371
3411.00,0.0372
3410.00,0.0373
3409.00,0.0374
3408.00,0.0375
3407.00,0.0376
3406.00,0.0376
3405.00,0.0376
3404.00,0.0375
3403.00,0.0375
3402.00,0.0375
3401.00,0.0376
3400.00,0.0377
3399.00,0.0377
3398.00,0.0377
3397.00,0.0377
3396.00,0.0378
3395.00,0.0378
3394.00,0.0379
3393.00,0.0379
3392.00,0.0380
3391.00,0.0381
3390.00,0.0381
3389.00,0.0382
3388.00,0.0382
3387.00,0.0382
3386.00,0.0382
3385.00,0.0383
3384.00,0.0384
3383.00,0.0384
3382.00,0.0384
3381.00,0.0385
3380.00,0.0385
3379.00,0.0386
3378.00,0.0386
3377.00,0.0386
3376.00,0.0386
3375.00,0.0386
3374.00,0.0386
3373.00,0.0386
3372.00,0.0386
3371.00,0.0386
3370.00,0.0386
3369.00,0.0386
3368.00,0.0387
3367.00,0.0387
3366.00,0.0387
3365.00,0.0387
3364.00,0.0387
3363.00,0.0387
3362.00,0.0389
3361.00,0.0390
3360.00,0.0391
3359.00,0.0391
3358.00,0.0391
3357.00,0.0391
3356.00,0.0391
3355.00,0.0391
3354.00,0.0391
3353.00,0.0392
3352.00,0.0392
3351.00,0.0392
3350.00,0.0393
3349.00,0.0393
3348.00,0.0393
3347.00,0.0392
3346.00,0.0392
3345.00,0.0391
3344.00,0.0391
3343.00,0.0391
3342.00,0.0391
3341.00,0.0392
3340.00,0.0393
3339.00,0.0393
3338.00,0.0393
3337.00,0.0393
3336.00,0.0393
3335.00,0.0393
3334.00,0.0393
3333.00,0.0394
3332.00,0.0394
3331.00,0.0393
3330.00,0.0392
3329.00,0.0392
3328.00,0.0392
3327.00,0.0393
3326.00,0.0394
3325.00,0.0394
3324.00,0.0395
3323.00,0.0395
3322.00,0.0394
3321.00,0.0394
3320.00,0.0394
3319.00,0.0394
3318.00,0.0394
3317.00,0.0394
3316.00,0.0394
3315.00,0.0393
3314.00,0.0393
3313.00,0.0393
3312.00,0.0393
3311.00,0.0393
3310.00,0.0393
3309.00,0.0394
3308.00,0.0395
3307.00,0.0395
3306.00,0.0395
3305.00,0.0395
3304.00,0.0394
3303.00,0.0394
3302.00,0.0394
3301.00,0.0394
3300.00,0.0394
3299.00,0.0394
3298.00,0.0394
3297.00,0.0394
3296.00,0.0395
3295.00,0.0395
3294.00,0.0395
3293.00,0.0395
3292.00,0.0395
3291.00,0.0394
3290.00,0.0394
3289.00,0.0395
3288.00,0.0395
3287.00,0.0395
3286.00,0.0396
3285.00,0.0396
3284.00,0.0397
3283.00,0.0397
3282.00,0.0397
3281.00,0.0396
3280.00,0.0396
3279.00,0.0396
3278.00,0.0396
3277.00,0.0396
3276.00,0.0396
3275.00,0.0396
3274.00,0.0397
3273.00,0.0397
3272.00,0.0397
3271.00,0.0398
3270.00,0.0398
3269.00,0.0398
3268.00,0.0399
3267.00,0.0399
3266.00,0.0398
3265.00,0.0397
3264.00,0.0396
3263.00,0.0396
3262.00,0.0396
3261.00,0.0396
3260.00,0.0397
3259.00,0.0397
3258.00,0.0397
3257.00,0.0397
3256.00,0.0396
3255.00,0.0397
3254.00,0.0397
3253.00,0.0398
3252.00,0.0398
3251.00,0.0398
3250.00,0.0397
3249.00,0.0397
3248.00,0.0397
3247.00,0.0397
3246.00,0.0397
3245.00,0.0398
3244.00,0.0398
3243.00,0.0398
3242.00,0.0398
3241.00,0.0398
3240.00,0.0398
3239.00,0.0398
3238.00,0.0398
3237.00,0.0399
3236.00,0.0400
3235.00,0.0400
3234.00,0.0401
3233.00,0.0400
3232.00,0.0400
3231.00,0.0399
3230.00,0.0398
3229.00,0.0398
3228.00,0.0398
3227.00,0.0398
3226.00,0.0399
3225.00,0.0399
3224.00,0.0399
3223.00,0.0398
3222.00,0.0398
3221.00,0.0398
3220.00,0.0398
3219.00,0.0398
3218.00,0.0398
3217.00,0.0398
3216.00,0.0399
3215.00,0.0399
3214.00,0.0399
3213.00,0.0399
3212.00,0.0398
3211.00,0.0397
3210.00,0.0396
3209.00,0.0397
3208.00,0.0397
3207.00,0.0398
3206.00,0.0398
3205.00,0.0398
3204.00,0.0399
3203.00,0.0399
3202.00,0.0398
3201.00,0.0398
3200.00,0.0398
3199.00,0.0398
3198.00,0.0398
3197.00,0.0397
3196.00,0.0397
3195.00,0.0397
3194.00,0.0397
3193.00,0.0397
3192.00,0.0397
3191.00,0.0396
3190.00,0.0395
3189.00,0.0394
3188.00,0.0393
3187.00,0.0393
3186.00,0.0393
3185.00,0.0394
3184.00,0.0395
3183.00,0.0396
3182.00,0.0396
3181.00,0.0396
3180.00,0.0395
3179.00,0.0394
3178.00,0.0393
3177.00,0.0392
3176.00,0.0391
3175.00,0.0391
3174.00,0.0391
3173.00,0.0391
3172.00,0.0391
3171.00,0.0391
3170.00,0.0391
3169.00,0.0390
3168.00,0.0390
3167.00,0.0390
3166.00,0.0391
3165.00,0.0391
3164.00,0.0392
3163.00,0.0392
3162.00,0.0391
3161.00,0.0390
3160.00,0.0389
3159.00,0.0387
3158.00,0.0386
3157.00,0.0386
3156.00,0.0386
3155.00,0.0386
3154.00,0.0387
3153.00,0.0388
3152.00,0.0388
3151.00,0.0387
3150.00,0.0386
3149.00,0.0386
3148.00,0.0385
3147.00,0.0385
3146.00,0.0385
3145.00,0.0385
3144.00,0.0384
3143.00,0.0384
3142.00,0.0384
3141.00,0.0383
3140.00,0.0383
3139.00,0.0383
3138.00,0.0382
3137.00,0.0382
3136.00,0.0382
3135.00,0.0382
3134.00,0.0381
3133.00,0.0381
3132.00,0.0381
3131.00,0.0381
3130.00,0.0381
3129.00,0.0380
3128.00,0.0380
3127.00,0.0379
3126.00,0.0379
3125.00,0.0379
3124.00,0.0378
3123.00,0.0378
3122.00,0.0377
3121.00,0.0377
3120.00,0.0376
3119.00,0.0376
3118.00,0.0376
3117.00,0.0376
3116.00,0.0376
3115.00,0.0376
3114.00,0.0376
3113.00,0.0376
3112.00,0.0375
3111.00,0.0375
3110.00,0.0374
3109.00,0.0374
3108.00,0.0374
3107.00,0.0374
3106.00,0.0374
3105.00,0.0374
3104.00,0.0374
3103.00,0.0373
3102.00,0.0372
3101.00,0.0371
3100.00,0.0371
3099.00,0.0370
3098.00,0.0370
3097.00,0.0370
3096.00,0.0370
3095.00,0.0371
3094.00,0.0372
3093.00,0.0372
3092.00,0.0371
3091.00,0.0370
3090.00,0.0369
3089.00,0.0368
3088.00,0.0367
3087.00,0.0367
3086.00,0.0367
3085.00,0.0368
3084.00,0.0368
3083.00,0.0368
3082.00,0.0367
3081.00,0.0367
3080.00,0.0367
3079.00,0.0366
3078.00,0.0366
3077.00,0.0366
3076.00,0.0366
3075.00,0.0365
3074.00,0.0365
3073.00,0.0365
3072.00,0.0365
3071.00,0.0365
3070.00,0.0364
3069.00,0.0364
3068.00,0.0363
3067.00,0.0363
3066.00,0.0362
3065.00,0.0361
3064.00,0.0360
3063.00,0.0359
3062.00,0.0359
3061.00,0.0359
3060.00,0.0359
3059.00,0.0359
3058.00,0.0359
3057.00,0.0358
3056.00,0.0358
3055.00,0.0358
3054.00,0.0357
3053.00,0.0356
3052.00,0.0355
3051.00,0.0355
3050.00,0.0355
3049.00,0.0355
3048.00,0.0355
3047.00,0.0355
3046.00,0.0354
3045.00,0.0353
3044.00,0.0353
3043.00,0.0352
3042.00,0.0351
3041.00,0.0350
3040.00,0.0349
3039.00,0.0349
3038.00,0.0349
3037.00,0.0349
3036.00,0.0349
3035.00,0.0349
3034.00,0.0349
3033.00,0.0348
3032.00,0.0347
3031.00,0.0346
3030.00,0.0345
3029.00,0.0344
3028.00,0.0343
3027.00,0.0343
3026.00,0.0342
3025.00,0.0342
3024.00,0.0342
3023.00,0.0342
3022.00,0.0341
3021.00,0.0341
3020.00,0.0340
3019.00,0.0339
3018.00,0.0337
3017.00,0.0337
3016.00,0.0336
3015.00,0.0335
3014.00,0.0334
3013.00,0.0333
3012.00,0.0332
3011.00,0.0331
3010.00,0.0330
3009.00,0.0328
3008.00,0.0326
3007.00,0.0324
3006.00,0.0322
3005.00,0.0321
3004.00,0.0320
3003.00,0.0318
3002.00,0.0316
3001.00,0.0314
3000.00,0.0313
2999.00,0.0311
2998.00,0.0309
2997.00,0.0308
2996.00,0.0307
2995.00,0.0306
2994.00,0.0305
2993.00,0.0304
2992.00,0.0303
2991.00,0.0301
2990.00,0.0300
2989.00,0.0299
2988.00,0.0298
2987.00,0.0296
2986.00,0.0293
2985.00,0.0288
2984.00,0.0284
2983.00,0.0280
2982.00,0.0278
2981.00,0.0278
2980.00,0.0279
2979.00,0.0281
2978.00,0.0283
2977.00,0.0285
2976.00,0.0286
2975.00,0.0287
2974.00,0.0286
2973.00,0.0285
2972.00,0.0284
2971.00,0.0284
2970.00,0.0286
2969.00,0.0288
2968.00,0.0290
2967.00,0.0292
2966.00,0.0292
2965.00,0.0293
2964.00,0.0293
2963.00,0.0294
2962.00,0.0295
2961.00,0.0296
2960.00,0.0296
2959.00,0.0296
2958.00,0.0296
2957.00,0.0296
2956.00,0.0297
2955.00,0.0298
2954.00,0.0299
2953.00,0.0300
2952.00,0.0301
2951.00,0.0301
2950.00,0.0302
2949.00,0.0302
2948.00,0.0303
2947.00,0.0303
2946.00,0.0303
2945.00,0.0303
2944.00,0.0304
2943.00,0.0305
2942.00,0.0305
2941.00,0.0306
2940.00,0.0305
2939.00,0.0304
2938.00,0.0304
2937.00,0.0303
2936.00,0.0303
2935.00,0.0303
2934.00,0.0303
2933.00,0.0303
2932.00,0.0302
2931.00,0.0302
2930.00,0.0302
2929.00,0.0302
2928.00,0.0302
2927.00,0.0302
2926.00,0.0302
2925.00,0.0301
2924.00,0.0300
2923.00,0.0300
2922.00,0.0299
2921.00,0.0299
2920.00,0.0298
2919.00,0.0297
2918.00,0.0296
2917.00,0.0296
2916.00,0.0295
2915.00,0.0295
2914.00,0.0294
2913.00,0.0294
2912.00,0.0293
2911.00,0.0293
2910.00,0.0293
2909.00,0.0292
2908.00,0.0291
2907.00,0.0290
2906.00,0.0290
2905.00,0.0290
2904.00,0.0289
2903.00,0.0289
2902.00,0.0288
2901.00,0.0287
2900.00,0.0287
2899.00,0.0286
2898.00,0.0285
2897.00,0.0285
2896.00,0.0285
2895.00,0.0284
2894.00,0.0284
2893.00,0.0283
2892.00,0.0283
2891.00,0.0282
2890.00,0.0282
2889.00,0.0281
2888.00,0.0281
2887.00,0.0281
2886.00,0.0281
2885.00,0.0280
2884.00,0.0279
2883.00,0.0279
2882.00,0.0279
2881.00,0.0279
2880.00,0.0279
2879.00,0.0280
2878.00,0.0280
2877.00,0.0280
2876.00,0.0281
2875.00,0.0281
2874.00,0.0280
2873.00,0.0280
2872.00,0.0280
2871.00,0.0280
2870.00,0.0279
2869.00,0.0279
2868.00,0.0279
2867.00,0.0279
2866.00,0.0279
2865.00,0.0279
2864.00,0.0279
2863.00,0.0279
2862.00,0.0279
2861.00,0.0279
2860.00,0.0279
2859.00,0.0280
2858.00,0.0280
2857.00,0.0280
2856.00,0.0280
2855.00,0.0279
2854.00,0.0278
2853.00,0.0278
2852.00,0.0278
2851.00,0.0278
2850.00,0.0278
2849.00,0.0278
2848.00,0.0278
2847.00,0.0277
2846.00,0.0277
2845.00,0.0277
2844.00,0.0277
2843.00,0.0276
2842.00,0.0276
2841.00,0.0275
2840.00,0.0274
2839.00,0.0273
2838.00,0.0273
2837.00,0.0272
2836.00,0.0273
2835.00,0.0273
2834.00,0.0273
2833.00,0.0273
2832.00,0.0272
2831.00,0.0271
2830.00,0.0270
2829.00,0.0270
2828.00,0.0270
2827.00,0.0270
2826.00,0.0269
2825.00,0.0269
2824.00,0.0269
2823.00,0.0269
2822.00,0.0268
2821.00,0.0267
2820.00,0.0267
2819.00,0.0266
2818.00,0.0266
2817.00,0.0266
2816.00,0.0265
2815.00,0.0264
2814.00,0.0264
2813.00,0.0263
2812.00,0.0263
2811.00,0.0263
2810.00,0.0263
2809.00,0.0262
2808.00,0.0262
2807.00,0.0262
2806.00,0.0262
2805.00,0.0262
2804.00,0.0262
2803.00,0.0262
2802.00,0.0261
2801.00,0.0261
2800.00,0.0261
2799.00,0.0261
2798.00,0.0261
2797.00,0.0260
2796.00,0.0260
2795.00,0.0259
2794.00,0.0259
2793.00,0.0258
2792.00,0.0258
2791.00,0.0258
2790.00,0.0258
2789.00,0.0258
2788.00,0.0257
2787.00,0.0257
2786.00,0.0257
2785.00,0.0256
2784.00,0.0256
2783.00,0.0255
2782.00,0.0254
2781.00,0.0253
2780.00,0.0252
2779.00,0.0252
2778.00,0.0252
2777.00,0.0253
2776.00,0.0253
2775.00,0.0253
2774.00,0.0253
2773.00,0.0253
2772.00,0.0252
2771.00,0.0251
2770.00,0.0250
2769.00,0.0249
2768.00,0.0249
2767.00,0.0249
2766.00,0.0249
2765.00,0.0249
2764.00,0.0249
2763.00,0.0249
2762.00,0.0249
2761.00,0.0248
2760.00,0.0248
2759.00,0.0248
2758.00,0.0248
2757.00,0.0247
2756.00,0.0247
2755.00,0.0246
2754.00,0.0246
2753.00,0.0246
2752.00,0.0246
2751.00,0.0246
2750.00,0.0246
2749.00,0.0246
2748.00,0.0246
2747.00,0.0245
2746.00,0.0245
2745.00,0.0245
2744.00,0.0244
2743.00,0.0244
2742.00,0.0243
2741.00,0.0243
2740.00,0.0243
2739.00,0.0242
2738.00,0.0242
2737.00,0.0242
2736.00,0.0241
2735.00,0.0241
2734.00,0.0241
2733.00,0.0241
2732.00,0.0241
2731.00,0.0241
2730.00,0.0240
2729.00,0.0240
2728.00,0.0239
2727.00,0.0239
2726.00,0.0239
2725.00,0.0239
2724.00,0.0238
2723.00,0.0238
2722.00,0.0238
2721.00,0.0237
2720.00,0.0237
2719.00,0.0237
2718.00,0.0237
2717.00,0.0237
2716.00,0.0237
2715.00,0.0237
2714.00,0.0236
2713.00,0.0236
2712.00,0.0236
2711.00,0.0236
2710.00,0.0235
2709.00,0.0235
2708.00,0.0234
2707.00,0.0234
2706.00,0.0234
2705.00,0.0234
2704.00,0.0233
2703.00,0.0233
2702.00,0.0233
2701.00,0.0232
2700.00,0.0232
2699.00,0.0232
2698.00,0.0232
2697.00,0.0231
2696.00,0.0231
2695.00,0.0231
2694.00,0.0231
2693.00,0.0231
2692.00,0.0231
2691.00,0.0230
2690.00,0.0230
2689.00,0.0230
2688.00,0.0230
2687.00,0.0230
2686.00,0.0230
2685.00,0.0229
2684.00,0.0229
2683.00,0.0229
2682.00,0.0229
2681.00,0.0228
2680.00,0.0228
2679.00,0.0227
2678.00,0.0226
2677.00,0.0226
2676.00,0.0226
2675.00,0.0226
2674.00,0.0226
2673.00,0.0226
2672.00,0.0226
2671.00,0.0225
2670.00,0.0225
2669.00,0.0225
2668.00,0.0225
2667.00,0.0225
2666.00,0.0225
2665.00,0.0225
2664.00,0.0225
2663.00,0.0225
2662.00,0.0225
2661.00,0.0225
2660.00,0.0225
2659.00,0.0225
2658.00,0.0225
2657.00,0.0225
2656.00,0.0225
2655.00,0.0225
2654.00,0.0225
2653.00,0.0225
2652.00,0.0225
2651.00,0.0225
2650.00,0.0225
2649.00,0.0225
2648.00,0.0225
2647.00,0.0224
2646.00,0.0223
2645.00,0.0223
2644.00,0.0224
2643.00,0.0224
2642.00,0.0224
2641.00,0.0224
2640.00,0.0224
2639.00,0.0224
2638.00,0.0224
2637.00,0.0223
2636.00,0.0223
2635.00,0.0222
2634.00,0.0223
2633.00,0.0223
2632.00,0.0223
2631.00,0.0223
2630.00,0.0222
2629.00,0.0222
2628.00,0.0221
2627.00,0.0220
2626.00,0.0220
2625.00,0.0221
2624.00,0.0222
2623.00,0.0222
2622.00,0.0222
2621.00,0.0223
2620.00,0.0222
2619.00,0.0222
2618.00,0.0222
2617.00,0.0222
2616.00,0.0221
2615.00,0.0221
2614.00,0.0220
2613.00,0.0221
2612.00,0.0222
2611.00,0.0222
2610.00,0.0222
2609.00,0.0221
2608.00,0.0220
2607.00,0.0220
2606.00,0.0220
2605.00,0.0220
2604.00,0.0221
2603.00,0.0221
2602.00,0.0221
2601.00,0.0220
2600.00,0.0220
2599.00,0.0219
2598.00,0.0219
2597.00,0.0219
2596.00,0.0218
2595.00,0.0218
2594.00,0.0218
2593.00,0.0218
2592.00,0.0218
2591.00,0.0218
2590.00,0.0218
2589.00,0.0218
2588.00,0.0218
2587.00,0.0217
2586.00,0.0217
2585.00,0.0216
2584.00,0.0216
2583.00,0.0216
2582.00,0.0216
2581.00,0.0216
2580.00,0.0217
2579.00,0.0217
2578.00,0.0217
2577.00,0.0216
2576.00,0.0215
2575.00,0.0214
2574.00,0.0215
2573.00,0.0215
2572.00,0.0215
2571.00,0.0214
2570.00,0.0213
2569.00,0.0213
2568.00,0.0214
2567.00,0.0216
2566.00,0.0217
2565.00,0.0217
2564.00,0.0216
2563.00,0.0216
2562.00,0.0216
2561.00,0.0215
2560.00,0.0215
2559.00,0.0215
2558.00,0.0214
2557.00,0.0215
2556.00,0.0215
2555.00,0.0215
2554.00,0.0214
2553.00,0.0214
2552.00,0.0213
2551.00,0.0212
2550.00,0.0211
2549.00,0.0210
2548.00,0.0209
2547.00,0.0208
2546.00,0.0208
2545.00,0.0209
2544.00,0.0209
2543.00,0.0209
2542.00,0.0209
2541.00,0.0208
2540.00,0.0207
2539.00,0.0206
2538.00,0.0206
2537.00,0.0206
2536.00,0.0206
2535.00,0.0207
2534.00,0.0207
2533.00,0.0208
2532.00,0.0208
2531.00,0.0208
2530.00,0.0207
2529.00,0.0206
2528.00,0.0206
2527.00,0.0206
2526.00,0.0206
2525.00,0.0205
2524.00,0.0205
2523.00,0.0204
2522.00,0.0205
2521.00,0.0205
2520.00,0.0205
2519.00,0.0205
2518.00,0.0206
2517.00,0.0207
2516.00,0.0208
2515.00,0.0207
2514.00,0.0207
2513.00,0.0205
2512.00,0.0205
2511.00,0.0205
2510.00,0.0205
2509.00,0.0206
2508.00,0.0206
2507.00,0.0206
2506.00,0.0206
2505.00,0.0205
2504.00,0.0205
2503.00,0.0204
2502.00,0.0204
2501.00,0.0204
2500.00,0.0204
2499.00,0.0204
2498.00,0.0204
2497.00,0.0204
2496.00,0.0204
2495.00,0.0204
2494.00,0.0205
2493.00,0.0205
2492.00,0.0205
2491.00,0.0205
2490.00,0.0205
2489.00,0.0205
2488.00,0.0205
2487.00,0.0205
2486.00,0.0204
2485.00,0.0203
2484.00,0.0202
2483.00,0.0201
2482.00,0.0201
2481.00,0.0201
2480.00,0.0202
2479.00,0.0202
2478.00,0.0201
2477.00,0.0201
2476.00,0.0200
2475.00,0.0200
2474.00,0.0200
2473.00,0.0201
2472.00,0.0201
2471.00,0.0201
2470.00,0.0201
2469.00,0.0200
2468.00,0.0200
2467.00,0.0199
2466.00,0.0199
2465.00,0.0198
2464.00,0.0198
2463.00,0.0198
2462.00,0.0197
2461.00,0.0197
2460.00,0.0197
2459.00,0.0197
2458.00,0.0197
2457.00,0.0197
2456.00,0.0198
2455.00,0.0198
2454.00,0.0199
2453.00,0.0200
2452.00,0.0200
2451.00,0.0200
2450.00,0.0200
2449.00,0.0199
2448.00,0.0198
2447.00,0.0198
2446.00,0.0197
2445.00,0.0196
2444.00,0.0196
2443.00,0.0195
2442.00,0.0195
2441.00,0.0195
2440.00,0.0195
2439.00,0.0196
2438.00,0.0196
2437.00,0.0196
2436.00,0.0195
2435.00,0.0195
2434.00,0.0195
2433.00,0.0195
2432.00,0.0194
2431.00,0.0194
2430.00,0.0194
2429.00,0.0194
2428.00,0.0194
2427.00,0.0194
2426.00,0.0194
2425.00,0.0193
2424.00,0.0193
2423.00,0.0193
2422.00,0.0193
2421.00,0.0192
2420.00,0.0192
2419.00,0.0192
2418.00,0.0192
2417.00,0.0191
2416.00,0.0191
2415.00,0.0190
2414.00,0.0190
2413.00,0.0191
2412.00,0.0191
2411.00,0.0191
2410.00,0.0190
2409.00,0.0190
2408.00,0.0190
2407.00,0.0190
2406.00,0.0189
2405.00,0.0189
2404.00,0.0188
2403.00,0.0188
2402.00,0.0187
2401.00,0.0187
2400.00,0.0187
2399.00,0.0187
2398.00,0.0187
2397.00,0.0187
2396.00,0.0186
2395.00,0.0186
2394.00,0.0185
2393.00,0.0185
2392.00,0.0185
2391.00,0.0185
2390.00,0.0185
2389.00,0.0185
2388.00,0.0184
2387.00,0.0184
2386.00,0.0183
2385.00,0.0182
2384.00,0.0181
2383.00,0.0180
2382.00,0.0180
2381.00,0.0180
2380.00,0.0181
2379.00,0.0181
2378.00,0.0181
2377.00,0.0180
2376.00,0.0179
2375.00,0.0179
2374.00,0.0179
2373.00,0.0179
2372.00,0.0178
2371.00,0.0177
2370.00,0.0175
2369.00,0.0173
2368.00,0.0172
2367.00,0.0173
2366.00,0.0176
2365.00,0.0178
2364.00,0.0178
2363.00,0.0176
2362.00,0.0175
2361.00,0.0176
2360.00,0.0177
2359.00,0.0177
2358.00,0.0177
2357.00,0.0176
2356.00,0.0176
2355.00,0.0175
2354.00,0.0174
2353.00,0.0174
2352.00,0.0174
2351.00,0.0174
2350.00,0.0175
2349.00,0.0175
2348.00,0.0175
2347.00,0.0175
2346.00,0.0173
2345.00,0.0173
2344.00,0.0175
2343.00,0.0178
2342.00,0.0180
2341.00,0.0181
2340.00,0.0180
2339.00,0.0178
2338.00,0.0176
2337.00,0.0174
2336.00,0.0174
2335.00,0.0174
2334.00,0.0174
2333.00,0.0174
2332.00,0.0173
2331.00,0.0172
2330.00,0.0171
2329.00,0.0171
2328.00,0.0172
2327.00,0.0174
2326.00,0.0176
2325.00,0.0177
2324.00,0.0176
2323.00,0.0176
2322.00,0.0175
2321.00,0.0174
2320.00,0.0173
2319.00,0.0172
2318.00,0.0171
2317.00,0.0171
2316.00,0.0172
2315.00,0.0172
2314.00,0.0171
2313.00,0.0171
2312.00,0.0171
2311.00,0.0172
2310.00,0.0174
2309.00,0.0175
2308.00,0.0176
2307.00,0.0175
2306.00,0.0175
2305.00,0.0174
2304.00,0.0173
2303.00,0.0172
2302.00,0.0171
2301.00,0.0171
2300.00,0.0172
2299.00,0.0173
2298.00,0.0173
2297.00,0.0174
2296.00,0.0174
2295.00,0.0174
2294.00,0.0174
2293.00,0.0176
2292.00,0.0178
2291.00,0.0179
2290.00,0.0179
2289.00,0.0179
2288.00,0.0179
2287.00,0.0180
2286.00,0.0181
2285.00,0.0182
2284.00,0.0183
2283.00,0.0184
2282.00,0.0183
2281.00,0.0182
2280.00,0.0181
2279.00,0.0181
2278.00,0.0181
2277.00,0.0181
2276.00,0.0180
2275.00,0.0179
2274.00,0.0178
2273.00,0.0177
2272.00,0.0176
2271.00,0.0177
2270.00,0.0177
2269.00,0.0178
2268.00,0.0178
2267.00,0.0178
2266.00,0.0178
2265.00,0.0179
2264.00,0.0179
2263.00,0.0180
2262.00,0.0180
2261.00,0.0180
2260.00,0.0180
2259.00,0.0179
2258.00,0.0178
2257.00,0.0176
2256.00,0.0174
2255.00,0.0174
2254.00,0.0174
2253.00,0.0174
2252.00,0.0174
2251.00,0.0173
2250.00,0.0174
2249.00,0.0174
2248.00,0.0175
2247.00,0.0176
2246.00,0.0176
2245.00,0.0177
2244.00,0.0176
2243.00,0.0176
2242.00,0.0175
2241.00,0.0174
2240.00,0.0174
2239.00,0.0173
2238.00,0.0173
2237.00,0.0173
2236.00,0.0174
2235.00,0.0175
2234.00,0.0176
2233.00,0.0176
2232.00,0.0176
2231.00,0.0174
2230.00,0.0173
2229.00,0.0172
2228.00,0.0172
2227.00,0.0173
2226.00,0.0174
2225.00,0.0174
2224.00,0.0173
2223.00,0.0172
2222.00,0.0171
2221.00,0.0170
2220.00,0.0171
2219.00,0.0172
2218.00,0.0172
2217.00,0.0172
2216.00,0.0173
2215.00,0.0173
2214.00,0.0174
2213.00,0.0174
2212.00,0.0174
2211.00,0.0173
2210.00,0.0172
2209.00,0.0172
2208.00,0.0172
2207.00,0.0171
2206.00,0.0171
2205.00,0.0171
2204.00,0.0171
2203.00,0.0171
2202.00,0.0170
2201.00,0.0168
2200.00,0.0167
2199.00,0.0167
2198.00,0.0168
2197.00,0.0168
2196.00,0.0169
2195.00,0.0170
2194.00,0.0170
2193.00,0.0170
2192.00,0.0169
2191.00,0.0166
2190.00,0.0163
2189.00,0.0161
2188.00,0.0162
2187.00,0.0166
2186.00,0.0170
2185.00,0.0171
2184.00,0.0169
2183.00,0.0166
2182.00,0.0164
2181.00,0.0164
2180.00,0.0165
2179.00,0.0167
2178.00,0.0168
2177.00,0.0169
2176.00,0.0169
2175.00,0.0168
2174.00,0.0166
2173.00,0.0166
2172.00,0.0166
2171.00,0.0167
2170.00,0.0168
2169.00,0.0170
2168.00,0.0170
2167.00,0.0170
2166.00,0.0172
2165.00,0.0175
2164.00,0.0179
2163.00,0.0183
2162.00,0.0183
2161.00,0.0178
2160.00,0.0170
2159.00,0.0161
2158.00,0.0155
2157.00,0.0153
2156.00,0.0152
2155.00,0.0152
2154.00,0.0155
2153.00,0.0158
2152.00,0.0159
2151.00,0.0158
2150.00,0.0155
2149.00,0.0152
2148.00,0.0151
2147.00,0.0152
2146.00,0.0153
2145.00,0.0155
2144.00,0.0157
2143.00,0.0159
2142.00,0.0160
2141.00,0.0161
2140.00,0.0160
2139.00,0.0158
2138.00,0.0155
2137.00,0.0153
2136.00,0.0151
2135.00,0.0150
2134.00,0.0149
2133.00,0.0149
2132.00,0.0150
2131.00,0.0150
2130.00,0.0151
2129.00,0.0152
2128.00,0.0155
2127.00,0.0157
2126.00,0.0157
2125.00,0.0156
2124.00,0.0154
2123.00,0.0153
2122.00,0.0153
2121.00,0.0152
2120.00,0.0152
2119.00,0.0152
2118.00,0.0151
2117.00,0.0151
2116.00,0.0151
2115.00,0.0150
2114.00,0.0149
2113.00,0.0149
2112.00,0.0150
2111.00,0.0152
2110.00,0.0154
2109.00,0.0155
2108.00,0.0156
2107.00,0.0156
2106.00,0.0156
2105.00,0.0155
2104.00,0.0155
2103.00,0.0155
2102.00,0.0154
2101.00,0.0153
2100.00,0.0151
2099.00,0.0149
2098.00,0.0147
2097.00,0.0147
2096.00,0.0147
2095.00,0.0147
2094.00,0.0148
2093.00,0.0148
2092.00,0.0148
2091.00,0.0147
2090.00,0.0147
2089.00,0.0147
2088.00,0.0147
2087.00,0.0148
2086.00,0.0149
2085.00,0.0150
2084.00,0.0152
2083.00,0.0152
2082.00,0.0151
2081.00,0.0151
2080.00,0.0150
2079.00,0.0150
2078.00,0.0150
2077.00,0.0149
2076.00,0.0149
2075.00,0.0149
2074.00,0.0150
2073.00,0.0150
2072.00,0.0151
2071.00,0.0153
2070.00,0.0153
2069.00,0.0151
2068.00,0.0148
2067.00,0.0146
2066.00,0.0145
2065.00,0.0146
2064.00,0.0147
2063.00,0.0148
2062.00,0.0148
2061.00,0.0147
2060.00,0.0146
2059.00,0.0144
2058.00,0.0143
2057.00,0.0143
2056.00,0.0144
2055.00,0.0145
2054.00,0.0148
2053.00,0.0152
2052.00,0.0154
2051.00,0.0155
2050.00,0.0152
2049.00,0.0149
2048.00,0.0147
2047.00,0.0146
2046.00,0.0146
2045.00,0.0148
2044.00,0.0149
2043.00,0.0150
2042.00,0.0150
2041.00,0.0149
2040.00,0.0146
2039.00,0.0144
2038.00,0.0145
2037.00,0.0147
2036.00,0.0149
2035.00,0.0149
2034.00,0.0147
2033.00,0.0146
2032.00,0.0148
2031.00,0.0149
2030.00,0.0149
2029.00,0.0146
2028.00,0.0143
2027.00,0.0141
2026.00,0.0139
2025.00,0.0137
2024.00,0.0135
2023.00,0.0133
2022.00,0.0132
2021.00,0.0132
2020.00,0.0132
2019.00,0.0130
2018.00,0.0128
2017.00,0.0128
2016.00,0.0128
2015.00,0.0130
2014.00,0.0131
2013.00,0.0132
2012.00,0.0133
2011.00,0.0134
2010.00,0.0135
2009.00,0.0136
2008.00,0.0135
2007.00,0.0133
2006.00,0.0132
2005.00,0.0131
2004.00,0.0131
2003.00,0.0133
2002.00,0.0136
2001.00,0.0138
2000.00,0.0138
1999.00,0.0135
1998.00,0.0133
1997.00,0.0134
1996.00,0.0136
1995.00,0.0139
1994.00,0.0141
1993.00,0.0142
1992.00,0.0140
1991.00,0.0137
1990.00,0.0133
1989.00,0.0130
1988.00,0.0129
1987.00,0.0130
1986.00,0.0130
1985.00,0.0131
1984.00,0.0132
1983.00,0.0133
1982.00,0.0134
1981.00,0.0134
1980.00,0.0133
1979.00,0.0129
1978.00,0.0125
1977.00,0.0121
1976.00,0.0120
1975.00,0.0122
1974.00,0.0125
1973.00,0.0127
1972.00,0.0126
1971.00,0.0124
1970.00,0.0123
1969.00,0.0124
1968.00,0.0125
1967.00,0.0124
1966.00,0.0121
1965.00,0.0120
1964.00,0.0120
1963.00,0.0121
1962.00,0.0121
1961.00,0.0121
1960.00,0.0121
1959.00,0.0122
1958.00,0.0122
1957.00,0.0120
1956.00,0.0119
1955.00,0.0118
1954.00,0.0119
1953.00,0.0119
1952.00,0.0119
1951.00,0.0118
1950.00,0.0116
1949.00,0.0115
1948.00,0.0115
1947.00,0.0115
1946.00,0.0115
1945.00,0.0115
1944.00,0.0113
1943.00,0.0110
1942.00,0.0108
1941.00,0.0108
1940.00,0.0108
1939.00,0.0109
1938.00,0.0109
1937.00,0.0109
1936.00,0.0109
1935.00,0.0108
1934.00,0.0107
1933.00,0.0107
1932.00,0.0107
1931.00,0.0109
1930.00,0.0110
1929.00,0.0112
1928.00,0.0113
1927.00,0.0113
1926.00,0.0113
1925.00,0.0112
1924.00,0.0111
1923.00,0.0109
1922.00,0.0108
1921.00,0.0108
1920.00,0.0109
1919.00,0.0108
1918.00,0.0106
1917.00,0.0105
1916.00,0.0105
1915.00,0.0106
1914.00,0.0107
1913.00,0.0106
1912.00,0.0106
1911.00,0.0105
1910.00,0.0104
1909.00,0.0103
1908.00,0.0102
1907.00,0.0102
1906.00,0.0102
1905.00,0.0103
1904.00,0.0103
1903.00,0.0103
1902.00,0.0103
1901.00,0.0102
1900.00,0.0102
1899.00,0.0103
1898.00,0.0103
1897.00,0.0102
1896.00,0.0099
1895.00,0.0097
1894.00,0.0096
1893.00,0.0097
1892.00,0.0099
1891.00,0.0099
1890.00,0.0098
1889.00,0.0097
1888.00,0.0095
1887.00,0.0095
1886.00,0.0096
1885.00,0.0096
1884.00,0.0097
1883.00,0.0097
1882.00,0.0096
1881.00,0.0096
1880.00,0.0095
1879.00,0.0094
1878.00,0.0093
1877.00,0.0092
1876.00,0.0092
1875.00,0.0092
1874.00,0.0093
1873.00,0.0094
1872.00,0.0096
1871.00,0.0097
1870.00,0.0095
1869.00,0.0091
1868.00,0.0088
1867.00,0.0086
1866.00,0.0087
1865.00,0.0089
1864.00,0.0090
1863.00,0.0090
1862.00,0.0089
1861.00,0.0088
1860.00,0.0087
1859.00,0.0086
1858.00,0.0086
1857.00,0.0087
1856.00,0.0087
1855.00,0.0087
1854.00,0.0086
1853.00,0.0085
1852.00,0.0085
1851.00,0.0085
1850.00,0.0085
1849.00,0.0085
1848.00,0.0085
1847.00,0.0086
1846.00,0.0087
1845.00,0.0087
1844.00,0.0083
1843.00,0.0080
1842.00,0.0080
1841.00,0.0082
1840.00,0.0083
1839.00,0.0083
1838.00,0.0082
1837.00,0.0082
1836.00,0.0081
1835.00,0.0081
1834.00,0.0081
1833.00,0.0083
1832.00,0.0084
1831.00,0.0083
1830.00,0.0080
1829.00,0.0076
1828.00,0.0076
1827.00,0.0078
1826.00,0.0079
1825.00,0.0078
1824.00,0.0077
1823.00,0.0076
1822.00,0.0077
1821.00,0.0078
1820.00,0.0078
1819.00,0.0077
1818.00,0.0076
1817.00,0.0076
1816.00,0.0075
1815.00,0.0075
1814.00,0.0076
1813.00,0.0076
1812.00,0.0077
1811.00,0.0076
1810.00,0.0075
1809.00,0.0076
1808.00,0.0077
1807.00,0.0078
1806.00,0.0079
1805.00,0.0079
1804.00,0.0080
1803.00,0.0081
1802.00,0.0081
1801.00,0.0080
1800.00,0.0079
1799.00,0.0078
1798.00,0.0079
1797.00,0.0081
1796.00,0.0084
1795.00,0.0086
1794.00,0.0087
1793.00,0.0088
1792.00,0.0087
1791.00,0.0086
1790.00,0.0087
1789.00,0.0089
1788.00,0.0093
1787.00,0.0095
1786.00,0.0097
1785.00,0.0099
1784.00,0.0099
1783.00,0.0100
1782.00,0.0101
1781.00,0.0101
1780.00,0.0102
1779.00,0.0104
1778.00,0.0107
1777.00,0.0110
1776.00,0.0113
1775.00,0.0116
1774.00,0.0118
1773.00,0.0117
1772.00,0.0115
1771.00,0.0115
1770.00,0.0119
1769.00,0.0124
1768.00,0.0129
1767.00,0.0130
1766.00,0.0132
1765.00,0.0135
1764.00,0.0138
1763.00,0.0139
1762.00,0.0139
1761.00,0.0139
1760.00,0.0141
1759.00,0.0144
1758.00,0.0147
1757.00,0.0149
1756.00,0.0150
1755.00,0.0153
1754.00,0.0157
1753.00,0.0160
1752.00,0.0160
1751.00,0.0159
1750.00,0.0158
1749.00,0.0158
1748.00,0.0160
1747.00,0.0162
1746.00,0.0166
1745.00,0.0169
1744.00,0.0173
1743.00,0.0175
1742.00,0.0178
1741.00,0.0181
1740.00,0.0183
1739.00,0.0183
1738.00,0.0185
1737.00,0.0190
1736.00,0.0196
1735.00,0.0200
1734.00,0.0201
1733.00,0.0201
1732.00,0.0203
1731.00,0.0207
1730.00,0.0211
1729.00,0.0214
1728.00,0.0217
1727.00,0.0221
1726.00,0.0225
1725.00,0.0228
1724.00,0.0232
1723.00,0.0235
1722.00,0.0237
1721.00,0.0240
1720.00,0.0242
1719.00,0.0244
1718.00,0.0245
1717.00,0.0248
1716.00,0.0251
1715.00,0.0254
1714.00,0.0258
1713.00,0.0262
1712.00,0.0265
1711.00,0.0268
1710.00,0.0270
1709.00,0.0271
1708.00,0.0273
1707.00,0.0274
1706.00,0.0274
1705.00,0.0275
1704.00,0.0277
1703.00,0.0282
1702.00,0.0286
1701.00,0.0288
1700.00,0.0285
1699.00,0.0282
1698.00,0.0284
1697.00,0.0289
1696.00,0.0293
1695.00,0.0292
1694.00,0.0292
1693.00,0.0295
1692.00,0.0296
1691.00,0.0297
1690.00,0.0297
1689.00,0.0298
1688.00,0.0299
1687.00,0.0300
1686.00,0.0300
1685.00,0.0300
1684.00,0.0301
1683.00,0.0300
1682.00,0.0304
1681.00,0.0308
1680.00,0.0310
1679.00,0.0312
1678.00,0.0315
1677.00,0.0319
1676.00,0.0322
1675.00,0.0324
1674.00,0.0324
1673.00,0.0324
1672.00,0.0324
1671.00,0.0325
1670.00,0.0327
1669.00,0.0329
1668.00,0.0332
1667.00,0.0335
1666.00,0.0337
1665.00,0.0339
1664.00,0.0340
1663.00,0.0341
1662.00,0.0343
1661.00,0.0346
1660.00,0.0350
1659.00,0.0354
1658.00,0.0355
1657.00,0.0356
1656.00,0.0355
1655.00,0.0354
1654.00,0.0357
1653.00,0.0363
1652.00,0.0363
1651.00,0.0364
1650.00,0.0366
1649.00,0.0367
1648.00,0.0368
1647.00,0.0373
1646.00,0.0379
1645.00,0.0384
1644.00,0.0389
1643.00,0.0391
1642.00,0.0393
1641.00,0.0394
1640.00,0.0394
1639.00,0.0394
1638.00,0.0394
1637.00,0.0397
1636.00,0.0404
1635.00,0.0411
1634.00,0.0414
1633.00,0.0416
1632.00,0.0417
1631.00,0.0418
1630.00,0.0419
1629.00,0.0422
1628.00,0.0425
1627.00,0.0428
1626.00,0.0432
1625.00,0.0435
1624.00,0.0438
1623.00,0.0441
1622.00,0.0444
1621.00,0.0446
1620.00,0.0448
1619.00,0.0449
1618.00,0.0452
1617.00,0.0457
1616.00,0.0461
1615.00,0.0464
1614.00,0.0467
1613.00,0.0469
1612.00,0.0470
1611.00,0.0472
1610.00,0.0475
1609.00,0.0478
1608.00,0.0480
1607.00,0.0483
1606.00,0.0486
1605.00,0.0488
1604.00,0.0491
1603.00,0.0493
1602.00,0.0495
1601.00,0.0497
1600.00,0.0499
1599.00,0.0502
1598.00,0.0504
1597.00,0.0507
1596.00,0.0510
1595.00,0.0513
1594.00,0.0516
1593.00,0.0518
1592.00,0.0520
1591.00,0.0522
1590.00,0.0524
1589.00,0.0526
1588.00,0.0529
1587.00,0.0532
1586.00,0.0535
1585.00,0.0536
1584.00,0.0538
1583.00,0.0540
1582.00,0.0542
1581.00,0.0542
1580.00,0.0542
1579.00,0.0542
1578.00,0.0544
1577.00,0.0548
1576.00,0.0554
1575.00,0.0556
1574.00,0.0556
1573.00,0.0554
1572.00,0.0551
1571.00,0.0551
1570.00,0.0553
1569.00,0.0556
1568.00,0.0558
1567.00,0.0560
1566.00,0.0559
1565.00,0.0558
1564.00,0.0557
1563.00,0.0555
1562.00,0.0552
1561.00,0.0546
1560.00,0.0546
1559.00,0.0558
1558.00,0.0561
1557.00,0.0559
1556.00,0.0558
1555.00,0.0557
1554.00,0.0557
1553.00,0.0556
1552.00,0.0554
1551.00,0.0552
1550.00,0.0551
1549.00,0.0549
1548.00,0.0545
1547.00,0.0542
1546.00,0.0537
1545.00,0.0533
1544.00,0.0529
1543.00,0.0525
1542.00,0.0520
1541.00,0.0518
1540.00,0.0520
1539.00,0.0519
1538.00,0.0517
1537.00,0.0514
1536.00,0.0510
1535.00,0.0505
1534.00,0.0502
1533.00,0.0499
1532.00,0.0497
1531.00,0.0494
1530.00,0.0490
1529.00,0.0486
1528.00,0.0482
1527.00,0.0477
1526.00,0.0473
1525.00,0.0468
1524.00,0.0464
1523.00,0.0460
1522.00,0.0457
1521.00,0.0457
1520.00,0.0456
1519.00,0.0454
1518.00,0.0451
1517.00,0.0448
1516.00,0.0446
1515.00,0.0444
1514.00,0.0442
1513.00,0.0439
1512.00,0.0435
1511.00,0.0431
1510.00,0.0426
1509.00,0.0421
1508.00,0.0419
1507.00,0.0420
1506.00,0.0419
1505.00,0.0417
1504.00,0.0416
1503.00,0.0414
1502.00,0.0411
1501.00,0.0408
1500.00,0.0406
1499.00,0.0405
1498.00,0.0404
1497.00,0.0404
1496.00,0.0404
1495.00,0.0403
1494.00,0.0401
1493.00,0.0398
1492.00,0.0395
1491.00,0.0393
1490.00,0.0392
1489.00,0.0393
1488.00,0.0393
1487.00,0.0393
1486.00,0.0393
1485.00,0.0393
1484.00,0.0392
1483.00,0.0391
1482.00,0.0391
1481.00,0.0391
1480.00,0.0390
1479.00,0.0389
1478.00,0.0388
1477.00,0.0388
1476.00,0.0387
1475.00,0.0387
1474.00,0.0387
1473.00,0.0389
1472.00,0.0392
1471.00,0.0394
1470.00,0.0396
1469.00,0.0398
1468.00,0.0398
1467.00,0.0398
1466.00,0.0398
1465.00,0.0399
1464.00,0.0400
1463.00,0.0401
1462.00,0.0400
1461.00,0.0399
1460.00,0.0398
1459.00,0.0398
1458.00,0.0402
1457.00,0.0409
1456.00,0.0413
1455.00,0.0414
1454.00,0.0415
1453.00,0.0415
1452.00,0.0416
1451.00,0.0417
1450.00,0.0419
1449.00,0.0421
1448.00,0.0424
1447.00,0.0427
1446.00,0.0429
1445.00,0.0430
1444.00,0.0431
1443.00,0.0431
1442.00,0.0432
1441.00,0.0432
1440.00,0.0434
1439.00,0.0436
1438.00,0.0439
1437.00,0.0443
1436.00,0.0446
1435.00,0.0447
1434.00,0.0446
1433.00,0.0446
1432.00,0.0446
1431.00,0.0447
1430.00,0.0448
1429.00,0.0449
1428.00,0.0450
1427.00,0.0451
1426.00,0.0452
1425.00,0.0453
1424.00,0.0455
1423.00,0.0457
1422.00,0.0458
1421.00,0.0459
1420.00,0.0461
1419.00,0.0465
1418.00,0.0468
1417.00,0.0470
1416.00,0.0473
1415.00,0.0473
1414.00,0.0473
1413.00,0.0472
1412.00,0.0472
1411.00,0.0473
1410.00,0.0475
1409.00,0.0476
1408.00,0.0477
1407.00,0.0478
1406.00,0.0479
1405.00,0.0480
1404.00,0.0482
1403.00,0.0483
1402.00,0.0482
1401.00,0.0482
1400.00,0.0482
1399.00,0.0483
1398.00,0.0484
1397.00,0.0485
1396.00,0.0488
1395.00,0.0490
1394.00,0.0492
1393.00,0.0493
1392.00,0.0494
1391.00,0.0494
1390.00,0.0494
1389.00,0.0495
1388.00,0.0497
1387.00,0.0499
1386.00,0.0500
1385.00,0.0501
1384.00,0.0500
1383.00,0.0500
1382.00,0.0501
1381.00,0.0502
1380.00,0.0503
1379.00,0.0504
1378.00,0.0505
1377.00,0.0506
1376.00,0.0506
1375.00,0.0508
1374.00,0.0510
1373.00,0.0512
1372.00,0.0512
1371.00,0.0513
1370.00,0.0513
1369.00,0.0513
1368.00,0.0513
1367.00,0.0513
1366.00,0.0512
1365.00,0.0510
1364.00,0.0509
1363.00,0.0510
1362.00,0.0513
1361.00,0.0514
1360.00,0.0514
1359.00,0.0513
1358.00,0.0512
1357.00,0.0512
1356.00,0.0511
1355.00,0.0511
1354.00,0.0510
1353.00,0.0509
1352.00,0.0508
1351.00,0.0506
1350.00,0.0504
1349.00,0.0503
1348.00,0.0502
1347.00,0.0501
1346.00,0.0500
1345.00,0.0499
1344.00,0.0497
1343.00,0.0495
1342.00,0.0494
1341.00,0.0494
1340.00,0.0494
1339.00,0.0495
1338.00,0.0495
1337.00,0.0495
1336.00,0.0493
1335.00,0.0492
1334.00,0.0490
1333.00,0.0489
1332.00,0.0488
1331.00,0.0487
1330.00,0.0486
1329.00,0.0485
1328.00,0.0484
1327.00,0.0483
1326.00,0.0483
1325.00,0.0482
1324.00,0.0482
1323.00,0.0481
1322.00,0.0482
1321.00,0.0482
1320.00,0.0482
1319.00,0.0481
1318.00,0.0480
1317.00,0.0478
1316.00,0.0477
1315.00,0.0477
1314.00,0.0477
1313.00,0.0478
1312.00,0.0479
1311.00,0.0479
1310.00,0.0479
1309.00,0.0478
1308.00,0.0478
1307.00,0.0477
1306.00,0.0477
1305.00,0.0477
1304.00,0.0477
1303.00,0.0478
1302.00,0.0478
1301.00,0.0478
1300.00,0.0478
1299.00,0.0477
1298.00,0.0476
1297.00,0.0476
1296.00,0.0476
1295.00,0.0476
1294.00,0.0477
1293.00,0.0477
1292.00,0.0478
1291.00,0.0478
1290.00,0.0478
1289.00,0.0479
1288.00,0.0479
1287.00,0.0479
1286.00,0.0479
1285.00,0.0479
1284.00,0.0479
1283.00,0.0479
1282.00,0.0479
1281.00,0.0479
1280.00,0.0479
1279.00,0.0479
1278.00,0.0478
1277.00,0.0478
1276.00,0.0478
1275.00,0.0478
1274.00,0.0478
1273.00,0.0478
1272.00,0.0477
1271.00,0.0477
1270.00,0.0477
1269.00,0.0477
1268.00,0.0477
1267.00,0.0478
1266.00,0.0478
1265.00,0.0478
1264.00,0.0478
1263.00,0.0477
1262.00,0.0476
1261.00,0.0476
1260.00,0.0477
1259.00,0.0478
1258.00,0.0479
1257.00,0.0478
1256.00,0.0477
1255.00,0.0476
1254.00,0.0475
1253.00,0.0476
1252.00,0.0476
1251.00,0.0476
1250.00,0.0476
1249.00,0.0476
1248.00,0.0476
1247.00,0.0477
1246.00,0.0477
1245.00,0.0478
1244.00,0.0479
1243.00,0.0479
1242.00,0.0478
1241.00,0.0477
1240.00,0.0477
1239.00,0.0477
1238.00,0.0477
1237.00,0.0477
1236.00,0.0477
1235.00,0.0477
1234.00,0.0477
1233.00,0.0476
1232.00,0.0476
1231.00,0.0475
1230.00,0.0475
1229.00,0.0475
1228.00,0.0475
1227.00,0.0476
1226.00,0.0475
1225.00,0.0474
1224.00,0.0473
1223.00,0.0473
1222.00,0.0473
1221.00,0.0473
1220.00,0.0473
1219.00,0.0473
1218.00,0.0472
1217.00,0.0471
1216.00,0.0471
1215.00,0.0470
1214.00,0.0469
1213.00,0.0468
1212.00,0.0468
1211.00,0.0468
1210.00,0.0469
1209.00,0.0469
1208.00,0.0469
1207.00,0.0468
1206.00,0.0467
1205.00,0.0465
1204.00,0.0464
1203.00,0.0464
1202.00,0.0463
1201.00,0.0463
1200.00,0.0463
1199.00,0.0462
1198.00,0.0462
1197.00,0.0461
1196.00,0.0460
1195.00,0.0459
1194.00,0.0458
1193.00,0.0458
1192.00,0.0457
1191.00,0.0456
1190.00,0.0455
1189.00,0.0453
1188.00,0.0452
1187.00,0.0451
1186.00,0.0451
1185.00,0.0450
1184.00,0.0448
1183.00,0.0447
1182.00,0.0445
1181.00,0.0443
1180.00,0.0442
1179.00,0.0441
1178.00,0.0441
1177.00,0.0441
1176.00,0.0440
1175.00,0.0440
1174.00,0.0440
1173.00,0.0440
1172.00,0.0439
1171.00,0.0438
1170.00,0.0436
1169.00,0.0435
1168.00,0.0435
1167.00,0.0434
1166.00,0.0434
1165.00,0.0433
1164.00,0.0432
1163.00,0.0431
1162.00,0.0430
1161.00,0.0430
1160.00,0.0429
1159.00,0.0428
1158.00,0.0426
1157.00,0.0425
1156.00,0.0425
1155.00,0.0425
1154.00,0.0425
1153.00,0.0424
1152.00,0.0423
1151.00,0.0421
1150.00,0.0420
1149.00,0.0419
1148.00,0.0418
1147.00,0.0418
1146.00,0.0418
1145.00,0.0418
1144.00,0.0418
1143.00,0.0419
1142.00,0.0420
1141.00,0.0420
1140.00,0.0419
1139.00,0.0418
1138.00,0.0418
1137.00,0.0418
1136.00,0.0419
1135.00,0.0420
1134.00,0.0421
1133.00,0.0421
1132.00,0.0421
1131.00,0.0421
1130.00,0.0421
1129.00,0.0423
1128.00,0.0424
1127.00,0.0424
1126.00,0.0422
1125.00,0.0420
1124.00,0.0420
1123.00,0.0422
1122.00,0.0425
1121.00,0.0429
1120.00,0.0431
1119.00,0.0432
1118.00,0.0432
1117.00,0.0432
1116.00,0.0433
1115.00,0.0434
1114.00,0.0435
1113.00,0.0435
1112.00,0.0435
1111.00,0.0436
1110.00,0.0437
1109.00,0.0437
1108.00,0.0437
1107.00,0.0437
1106.00,0.0435
1105.00,0.0434
1104.00,0.0433
1103.00,0.0434
1102.00,0.0436
1101.00,0.0437
1100.00,0.0437
1099.00,0.0438
1098.00,0.0439
1097.00,0.0440
1096.00,0.0440
1095.00,0.0440
1094.00,0.0439
1093.00,0.0439
1092.00,0.0440
1091.00,0.0440
1090.00,0.0439
1089.00,0.0437
1088.00,0.0435
1087.00,0.0435
1086.00,0.0437
1085.00,0.0439
1084.00,0.0440
1083.00,0.0441
1082.00,0.0442
1081.00,0.0443
1080.00,0.0445
1079.00,0.0447
1078.00,0.0449
1077.00,0.0452
1076.00,0.0452
1075.00,0.0450
1074.00,0.0447
1073.00,0.0444
1072.00,0.0444
1071.00,0.0444
1070.00,0.0443
1069.00,0.0442
1068.00,0.0442
1067.00,0.0443
1066.00,0.0445
1065.00,0.0447
1064.00,0.0448
1063.00,0.0449
1062.00,0.0449
1061.00,0.0448
1060.00,0.0446
1059.00,0.0446
1058.00,0.0447
1057.00,0.0449
1056.00,0.0452
1055.00,0.0454
1054.00,0.0455
1053.00,0.0456
1052.00,0.0457
1051.00,0.0457
1050.00,0.0458
1049.00,0.0460
1048.00,0.0461
1047.00,0.0461
1046.00,0.0462
1045.00,0.0463
1044.00,0.0465
1043.00,0.0466
1042.00,0.0465
1041.00,0.0464
1040.00,0.0464
1039.00,0.0465
1038.00,0.0467
1037.00,0.0468
1036.00,0.0469
1035.00,0.0469
1034.00,0.0469
1033.00,0.0468
1032.00,0.0468
1031.00,0.0468
1030.00,0.0466
1029.00,0.0464
1028.00,0.0462
1027.00,0.0461
1026.00,0.0461
1025.00,0.0462
1024.00,0.0462
1023.00,0.0462
1022.00,0.0461
1021.00,0.0459
1020.00,0.0458
1019.00,0.0457
1018.00,0.0456
1017.00,0.0456
1016.00,0.0457
1015.00,0.0458
1014.00,0.0458
1013.00,0.0458
1012.00,0.0457
1011.00,0.0456
1010.00,0.0456
1009.00,0.0456
1008.00,0.0455
1007.00,0.0454
1006.00,0.0454
1005.00,0.0454
1004.00,0.0455
1003.00,0.0455
1002.00,0.0455
1001.00,0.0453
1000.00,0.0451
999.00,0.0447
998.00,0.0444
997.00,0.0443
996.00,0.0442
995.00,0.0442
994.00,0.0442
993.00,0.0439
992.00,0.0437
991.00,0.0435
990.00,0.0433
989.00,0.0432
988.00,0.0432
987.00,0.0433
986.00,0.0433
985.00,0.0433
984.00,0.0431
983.00,0.0428
982.00,0.0426
981.00,0.0425
980.00,0.0424
979.00,0.0422
978.00,0.0419
977.00,0.0415
976.00,0.0412
975.00,0.0409
974.00,0.0409
973.00,0.0409
972.00,0.0409
971.00,0.0408
970.00,0.0406
969.00,0.0403
968.00,0.0401
967.00,0.0399
966.00,0.0398
965.00,0.0397
964.00,0.0396
963.00,0.0395
962.00,0.0394
961.00,0.0393
960.00,0.0392
959.00,0.0390
958.00,0.0388
957.00,0.0388
956.00,0.0387
955.00,0.0386
954.00,0.0384
953.00,0.0384
952.00,0.0384
951.00,0.0385
950.00,0.0387
949.00,0.0388
948.00,0.0389
947.00,0.0387
946.00,0.0385
945.00,0.0383
944.00,0.0382
943.00,0.0382
942.00,0.0381
941.00,0.0381
940.00,0.0382
939.00,0.0383
938.00,0.0384
937.00,0.0384
936.00,0.0383
935.00,0.0383
934.00,0.0385
933.00,0.0388
932.00,0.0392
931.00,0.0395
930.00,0.0396
929.00,0.0396
928.00,0.0397
927.00,0.0397
926.00,0.0398
925.00,0.0398
924.00,0.0399
923.00,0.0400
922.00,0.0401
921.00,0.0401
920.00,0.0401
919.00,0.0401
918.00,0.0402
917.00,0.0404
916.00,0.0406
915.00,0.0408
914.00,0.0409
913.00,0.0410
912.00,0.0411
911.00,0.0411
910.00,0.0410
909.00,0.0407
908.00,0.0403
907.00,0.0401
906.00,0.0402
905.00,0.0405
904.00,0.0409
903.00,0.0413
902.00,0.0414
901.00,0.0412
900.00,0.0409
899.00,0.0408
898.00,0.0408
897.00,0.0410
896.00,0.0411
895.00,0.0410
894.00,0.0409
893.00,0.0407
892.00,0.0406
891.00,0.0406
890.00,0.0407
889.00,0.0408
888.00,0.0408
887.00,0.0406
886.00,0.0402
885.00,0.0399
884.00,0.0399
883.00,0.0401
882.00,0.0403
881.00,0.0404
880.00,0.0404
879.00,0.0403
878.00,0.0400
877.00,0.0397
876.00,0.0396
875.00,0.0396
874.00,0.0396
873.00,0.0397
872.00,0.0398
871.00,0.0398
870.00,0.0398
869.00,0.0396
868.00,0.0395
867.00,0.0394
866.00,0.0394
865.00,0.0395
864.00,0.0397
863.00,0.0399
862.00,0.0400
861.00,0.0402
860.00,0.0403
859.00,0.0402
858.00,0.0400
857.00,0.0398
856.00,0.0398
855.00,0.0401
854.00,0.0403
853.00,0.0404
852.00,0.0403
851.00,0.0403
850.00,0.0403
849.00,0.0405
848.00,0.0407
847.00,0.0410
846.00,0.0412
845.00,0.0415
844.00,0.0416
843.00,0.0417
842.00,0.0418
841.00,0.0418
840.00,0.0418
839.00,0.0418
838.00,0.0418
837.00,0.0419
836.00,0.0421
835.00,0.0423
834.00,0.0423
833.00,0.0422
832.00,0.0422
831.00,0.0423
830.00,0.0423
829.00,0.0423
828.00,0.0423
827.00,0.0424
826.00,0.0428
825.00,0.0433
824.00,0.0438
823.00,0.0441
822.00,0.0443
821.00,0.0445
820.00,0.0446
819.00,0.0447
818.00,0.0446
817.00,0.0444
816.00,0.0442
815.00,0.0442
814.00,0.0445
813.00,0.0448
812.00,0.0451
811.00,0.0451
810.00,0.0451
809.00,0.0450
808.00,0.0450
807.00,0.0450
806.00,0.0450
805.00,0.0450
804.00,0.0451
803.00,0.0454
802.00,0.0457
801.00,0.0462
800.00,0.0466
799.00,0.0470
798.00,0.0470
797.00,0.0469
796.00,0.0467
795.00,0.0465
794.00,0.0464
793.00,0.0464
792.00,0.0466
791.00,0.0470
790.00,0.0474
789.00,0.0476
788.00,0.0477
787.00,0.0478
786.00,0.0479
785.00,0.0482
784.00,0.0485
783.00,0.0487
782.00,0.0487
781.00,0.0486
780.00,0.0485
779.00,0.0484
778.00,0.0484
777.00,0.0486
776.00,0.0489
775.00,0.0490
774.00,0.0488
773.00,0.0485
772.00,0.0484
771.00,0.0484
770.00,0.0486
769.00,0.0488
768.00,0.0489
767.00,0.0490
766.00,0.0489
765.00,0.0489
764.00,0.0489
763.00,0.0490
762.00,0.0489
761.00,0.0488
760.00,0.0488
759.00,0.0489
758.00,0.0492
757.00,0.0494
756.00,0.0495
755.00,0.0494
754.00,0.0493
753.00,0.0493
752.00,0.0495
751.00,0.0498
750.00,0.0500
749.00,0.0502
748.00,0.0504
747.00,0.0505
746.00,0.0506
745.00,0.0506
744.00,0.0504
743.00,0.0503
742.00,0.0502
741.00,0.0501
740.00,0.0500
739.00,0.0498
738.00,0.0497
737.00,0.0496
736.00,0.0495
735.00,0.0495
734.00,0.0495
733.00,0.0496
732.00,0.0497
731.00,0.0498
730.00,0.0499
729.00,0.0502
728.00,0.0506
727.00,0.0510
726.00,0.0513
725.00,0.0515
724.00,0.0514
723.00,0.0513
722.00,0.0511
721.00,0.0511
720.00,0.0511
719.00,0.0511
718.00,0.0511
717.00,0.0510
716.00,0.0509
715.00,0.0506
714.00,0.0504
713.00,0.0506
712.00,0.0509
711.00,0.0514
710.00,0.0517
709.00,0.0519
708.00,0.0522
707.00,0.0524
706.00,0.0526
705.00,0.0529
704.00,0.0532
703.00,0.0534
702.00,0.0534
701.00,0.0532
700.00,0.0530
699.00,0.0530
698.00,0.0531
697.00,0.0532
696.00,0.0532
695.00,0.0532
694.00,0.0534
693.00,0.0538
692.00,0.0543
691.00,0.0547
690.00,0.0550
689.00,0.0553
688.00,0.0553
687.00,0.0552
686.00,0.0550
685.00,0.0548
684.00,0.0547
683.00,0.0546
682.00,0.0543
681.00,0.0541
680.00,0.0541
679.00,0.0543
678.00,0.0545
677.00,0.0548
676.00,0.0550
675.00,0.0552
674.00,0.0554
673.00,0.0556
672.00,0.0559
671.00,0.0564
670.00,0.0569
669.00,0.0577
668.00,0.0584
667.00,0.0584
666.00,0.0580
665.00,0.0575
664.00,0.0570
663.00,0.0565
662.00,0.0561
661.00,0.0557
660.00,0.0551
659.00,0.0546
658.00,0.0545
657.00,0.0552
656.00,0.0559
655.00,0.0567
654.00,0.0556
653.00,0.0547
652.00,0.0546
651.00,0.0546
650.00,0.0551
