Created as New Dataset,Monday, April 03 2023
cm-1,A
4000.00,0.0183
3999.00,0.0183
3998.00,0.0183
3997.00,0.0183
3996.00,0.0183
3995.00,0.0183
3994.00,0.0182
3993.00,0.0182
3992.00,0.0182
3991.00,0.0182
3990.00,0.0182
3989.00,0.0182
3988.00,0.0181
3987.00,0.0181
3986.00,0.0181
3985.00,0.0181
3984.00,0.0181
3983.00,0.0181
3982.00,0.0181
3981.00,0.0181
3980.00,0.0181
3979.00,0.0181
3978.00,0.0181
3977.00,0.0181
3976.00,0.0180
3975.00,0.0180
3974.00,0.0180
3973.00,0.0181
3972.00,0.0181
3971.00,0.0181
3970.00,0.0181
3969.00,0.0181
3968.00,0.0180
3967.00,0.0179
3966.00,0.0179
3965.00,0.0179
3964.00,0.0180
3963.00,0.0181
3962.00,0.0181
3961.00,0.0181
3960.00,0.0180
3959.00,0.0179
3958.00,0.0179
3957.00,0.0179
3956.00,0.0179
3955.00,0.0179
3954.00,0.0179
3953.00,0.0179
3952.00,0.0179
3951.00,0.0180
3950.00,0.0181
3949.00,0.0182
3948.00,0.0182
3947.00,0.0183
3946.00,0.0183
3945.00,0.0182
3944.00,0.0181
3943.00,0.0179
3942.00,0.0178
3941.00,0.0178
3940.00,0.0178
3939.00,0.0178
3938.00,0.0178
3937.00,0.0179
3936.00,0.0179
3935.00,0.0179
3934.00,0.0179
3933.00,0.0178
3932.00,0.0178
3931.00,0.0178
3930.00,0.0179
3929.00,0.0179
3928.00,0.0179
3927.00,0.0179
3926.00,0.0179
3925.00,0.0179
3924.00,0.0179
3923.00,0.0180
3922.00,0.0180
3921.00,0.0180
3920.00,0.0179
3919.00,0.0179
3918.00,0.0179
3917.00,0.0179
3916.00,0.0179
3915.00,0.0178
3914.00,0.0178
3913.00,0.0176
3912.00,0.0175
3911.00,0.0175
3910.00,0.0175
3909.00,0.0176
3908.00,0.0177
3907.00,0.0179
3906.00,0.0180
3905.00,0.0180
3904.00,0.0180
3903.00,0.0182
3902.00,0.0183
3901.00,0.0184
3900.00,0.0183
3899.00,0.0181
3898.00,0.0180
3897.00,0.0179
3896.00,0.0178
3895.00,0.0177
3894.00,0.0177
3893.00,0.0177
3892.00,0.0176
3891.00,0.0175
3890.00,0.0175
3889.00,0.0176
3888.00,0.0177
3887.00,0.0176
3886.00,0.0174
3885.00,0.0174
3884.00,0.0176
3883.00,0.0178
3882.00,0.0177
3881.00,0.0175
3880.00,0.0174
3879.00,0.0174
3878.00,0.0176
3877.00,0.0177
3876.00,0.0177
3875.00,0.0176
3874.00,0.0175
3873.00,0.0176
3872.00,0.0178
3871.00,0.0178
3870.00,0.0177
3869.00,0.0176
3868.00,0.0178
3867.00,0.0178
3866.00,0.0178
3865.00,0.0176
3864.00,0.0176
3863.00,0.0177
3862.00,0.0177
3861.00,0.0176
3860.00,0.0175
3859.00,0.0174
3858.00,0.0175
3857.00,0.0176
3856.00,0.0176
3855.00,0.0174
3854.00,0.0173
3853.00,0.0174
3852.00,0.0176
3851.00,0.0176
3850.00,0.0174
3849.00,0.0172
3848.00,0.0171
3847.00,0.0170
3846.00,0.0171
3845.00,0.0171
3844.00,0.0172
3843.00,0.0172
3842.00,0.0174
3841.00,0.0176
3840.00,0.0177
3839.00,0.0177
3838.00,0.0176
3837.00,0.0175
3836.00,0.0175
3835.00,0.0175
3834.00,0.0175
3833.00,0.0174
3832.00,0.0173
3831.00,0.0173
3830.00,0.0173
3829.00,0.0172
3828.00,0.0171
3827.00,0.0169
3826.00,0.0168
3825.00,0.0170
3824.00,0.0173
3823.00,0.0174
3822.00,0.0173
3821.00,0.0171
3820.00,0.0172
3819.00,0.0174
3818.00,0.0174
3817.00,0.0172
3816.00,0.0170
3815.00,0.0169
3814.00,0.0170
3813.00,0.0170
3812.00,0.0169
3811.00,0.0167
3810.00,0.0166
3809.00,0.0166
3808.00,0.0166
3807.00,0.0166
3806.00,0.0167
3805.00,0.0171
3804.00,0.0174
3803.00,0.0174
3802.00,0.0172
3801.00,0.0171
3800.00,0.0172
3799.00,0.0172
3798.00,0.0171
3797.00,0.0168
3796.00,0.0167
3795.00,0.0166
3794.00,0.0166
3793.00,0.0166
3792.00,0.0165
3791.00,0.0165
3790.00,0.0165
3789.00,0.0165
3788.00,0.0166
3787.00,0.0166
3786.00,0.0167
3785.00,0.0167
3784.00,0.0167
3783.00,0.0167
3782.00,0.0168
3781.00,0.0167
3780.00,0.0165
3779.00,0.0165
3778.00,0.0165
3777.00,0.0165
3776.00,0.0165
3775.00,0.0164
3774.00,0.0163
3773.00,0.0163
3772.00,0.0164
3771.00,0.0163
3770.00,0.0163
3769.00,0.0163
3768.00,0.0164
3767.00,0.0165
3766.00,0.0164
3765.00,0.0164
3764.00,0.0164
3763.00,0.0166
3762.00,0.0167
3761.00,0.0166
3760.00,0.0165
3759.00,0.0165
3758.00,0.0164
3757.00,0.0164
3756.00,0.0164
3755.00,0.0164
3754.00,0.0164
3753.00,0.0163
3752.00,0.0162
3751.00,0.0163
3750.00,0.0164
3749.00,0.0165
3748.00,0.0168
3747.00,0.0171
3746.00,0.0172
3745.00,0.0169
3744.00,0.0166
3743.00,0.0165
3742.00,0.0165
3741.00,0.0165
3740.00,0.0166
3739.00,0.0167
3738.00,0.0169
3737.00,0.0169
3736.00,0.0168
3735.00,0.0167
3734.00,0.0166
3733.00,0.0165
3732.00,0.0163
3731.00,0.0161
3730.00,0.0161
3729.00,0.0161
3728.00,0.0161
3727.00,0.0160
3726.00,0.0160
3725.00,0.0160
3724.00,0.0160
3723.00,0.0159
3722.00,0.0159
3721.00,0.0159
3720.00,0.0160
3719.00,0.0159
3718.00,0.0158
3717.00,0.0157
3716.00,0.0157
3715.00,0.0158
3714.00,0.0159
3713.00,0.0160
3712.00,0.0160
3711.00,0.0161
3710.00,0.0160
3709.00,0.0158
3708.00,0.0157
3707.00,0.0157
3706.00,0.0158
3705.00,0.0159
3704.00,0.0159
3703.00,0.0157
3702.00,0.0156
3701.00,0.0156
3700.00,0.0156
3699.00,0.0157
3698.00,0.0156
3697.00,0.0155
3696.00,0.0154
3695.00,0.0154
3694.00,0.0154
3693.00,0.0155
3692.00,0.0157
3691.00,0.0159
3690.00,0.0161
3689.00,0.0162
3688.00,0.0161
3687.00,0.0159
3686.00,0.0158
3685.00,0.0156
3684.00,0.0155
3683.00,0.0154
3682.00,0.0154
3681.00,0.0153
3680.00,0.0153
3679.00,0.0153
3678.00,0.0155
3677.00,0.0155
3676.00,0.0154
3675.00,0.0154
3674.00,0.0156
3673.00,0.0158
3672.00,0.0159
3671.00,0.0159
3670.00,0.0159
3669.00,0.0160
3668.00,0.0160
3667.00,0.0160
3666.00,0.0158
3665.00,0.0157
3664.00,0.0157
3663.00,0.0157
3662.00,0.0158
3661.00,0.0160
3660.00,0.0162
3659.00,0.0164
3658.00,0.0166
3657.00,0.0166
3656.00,0.0167
3655.00,0.0169
3654.00,0.0171
3653.00,0.0174
3652.00,0.0176
3651.00,0.0175
3650.00,0.0177
3649.00,0.0180
3648.00,0.0182
3647.00,0.0183
3646.00,0.0182
3645.00,0.0181
3644.00,0.0180
3643.00,0.0180
3642.00,0.0180
3641.00,0.0180
3640.00,0.0182
3639.00,0.0183
3638.00,0.0184
3637.00,0.0185
3636.00,0.0186
3635.00,0.0187
3634.00,0.0188
3633.00,0.0190
3632.00,0.0192
3631.00,0.0194
3630.00,0.0195
3629.00,0.0198
3628.00,0.0200
3627.00,0.0202
3626.00,0.0201
3625.00,0.0199
3624.00,0.0198
3623.00,0.0199
3622.00,0.0200
3621.00,0.0203
3620.00,0.0206
3619.00,0.0209
3618.00,0.0211
3617.00,0.0212
3616.00,0.0213
3615.00,0.0213
3614.00,0.0213
3613.00,0.0213
3612.00,0.0214
3611.00,0.0216
3610.00,0.0217
3609.00,0.0219
3608.00,0.0220
3607.00,0.0221
3606.00,0.0220
3605.00,0.0219
3604.00,0.0219
3603.00,0.0219
3602.00,0.0220
3601.00,0.0222
3600.00,0.0224
3599.00,0.0225
3598.00,0.0226
3597.00,0.0226
3596.00,0.0226
3595.00,0.0227
3594.00,0.0228
3593.00,0.0228
3592.00,0.0228
3591.00,0.0229
3590.00,0.0230
3589.00,0.0232
3588.00,0.0235
3587.00,0.0238
3586.00,0.0240
3585.00,0.0240
3584.00,0.0239
3583.00,0.0238
3582.00,0.0237
3581.00,0.0237
3580.00,0.0237
3579.00,0.0237
3578.00,0.0238
3577.00,0.0239
3576.00,0.0240
3575.00,0.0241
3574.00,0.0243
3573.00,0.0244
3572.00,0.0245
3571.00,0.0245
3570.00,0.0247
3569.00,0.0248
3568.00,0.0251
3567.00,0.0255
3566.00,0.0257
3565.00,0.0258
3564.00,0.0256
3563.00,0.0255
3562.00,0.0254
3561.00,0.0254
3560.00,0.0254
3559.00,0.0255
3558.00,0.0256
3557.00,0.0257
3556.00,0.0258
3555.00,0.0259
3554.00,0.0259
3553.00,0.0261
3552.00,0.0262
3551.00,0.0264
3550.00,0.0265
3549.00,0.0265
3548.00,0.0266
3547.00,0.0267
3546.00,0.0269
3545.00,0.0270
3544.00,0.0271
3543.00,0.0271
3542.00,0.0271
3541.00,0.0270
3540.00,0.0270
3539.00,0.0270
3538.00,0.0269
3537.00,0.0270
3536.00,0.0271
3535.00,0.0273
3534.00,0.0274
3533.00,0.0275
3532.00,0.0275
3531.00,0.0276
3530.00,0.0276
3529.00,0.0277
3528.00,0.0277
3527.00,0.0277
3526.00,0.0279
3525.00,0.0280
3524.00,0.0282
3523.00,0.0284
3522.00,0.0285
3521.00,0.0285
3520.00,0.0284
3519.00,0.0283
3518.00,0.0282
3517.00,0.0282
3516.00,0.0283
3515.00,0.0283
3514.00,0.0285
3513.00,0.0286
3512.00,0.0288
3511.00,0.0289
3510.00,0.0290
3509.00,0.0290
3508.00,0.0290
3507.00,0.0290
3506.00,0.0290
3505.00,0.0291
3504.00,0.0293
3503.00,0.0295
3502.00,0.0296
3501.00,0.0297
3500.00,0.0297
3499.00,0.0297
3498.00,0.0298
3497.00,0.0299
3496.00,0.0299
3495.00,0.0299
3494.00,0.0299
3493.00,0.0300
3492.00,0.0300
3491.00,0.0300
3490.00,0.0300
3489.00,0.0301
3488.00,0.0301
3487.00,0.0302
3486.00,0.0303
3485.00,0.0304
3484.00,0.0304
3483.00,0.0305
3482.00,0.0306
3481.00,0.0306
3480.00,0.0307
3479.00,0.0307
3478.00,0.0308
3477.00,0.0308
3476.00,0.0309
3475.00,0.0310
3474.00,0.0310
3473.00,0.0311
3472.00,0.0312
3471.00,0.0313
3470.00,0.0314
3469.00,0.0314
3468.00,0.0314
3467.00,0.0314
3466.00,0.0315
3465.00,0.0316
3464.00,0.0316
3463.00,0.0316
3462.00,0.0316
3461.00,0.0316
3460.00,0.0317
3459.00,0.0318
3458.00,0.0320
3457.00,0.0320
3456.00,0.0320
3455.00,0.0320
3454.00,0.0320
3453.00,0.0321
3452.00,0.0322
3451.00,0.0322
3450.00,0.0323
3449.00,0.0324
3448.00,0.0324
3447.00,0.0326
3446.00,0.0327
3445.00,0.0328
3444.00,0.0328
3443.00,0.0328
3442.00,0.0328
3441.00,0.0327
3440.00,0.0327
3439.00,0.0327
3438.00,0.0327
3437.00,0.0328
3436.00,0.0328
3435.00,0.0328
3434.00,0.0328
3433.00,0.0329
3432.00,0.0330
3431.00,0.0331
3430.00,0.0331
3429.00,0.0331
3428.00,0.0331
3427.00,0.0331
3426.00,0.0332
3425.00,0.0333
3424.00,0.0335
3423.00,0.0336
3422.00,0.0337
3421.00,0.0337
3420.00,0.0338
3419.00,0.0338
3418.00,0.0338
3417.00,0.0338
3416.00,0.0338
3415.00,0.0337
3414.00,0.0337
3413.00,0.0337
3412.00,0.0337
3411.00,0.0338
3410.00,0.0339
3409.00,0.0340
3408.00,0.0341
3407.00,0.0342
3406.00,0.0342
3405.00,0.0342
3404.00,0.0342
3403.00,0.0341
3402.00,0.0342
3401.00,0.0343
3400.00,0.0344
3399.00,0.0344
3398.00,0.0344
3397.00,0.0344
3396.00,0.0344
3395.00,0.0344
3394.00,0.0344
3393.00,0.0345
3392.00,0.0346
3391.00,0.0347
3390.00,0.0348
3389.00,0.0348
3388.00,0.0348
3387.00,0.0347
3386.00,0.0347
3385.00,0.0347
3384.00,0.0348
3383.00,0.0349
3382.00,0.0349
3381.00,0.0350
3380.00,0.0350
3379.00,0.0351
3378.00,0.0351
3377.00,0.0351
3376.00,0.0351
3375.00,0.0351
3374.00,0.0351
3373.00,0.0351
3372.00,0.0351
3371.00,0.0351
3370.00,0.0351
3369.00,0.0351
3368.00,0.0352
3367.00,0.0352
3366.00,0.0352
3365.00,0.0352
3364.00,0.0351
3363.00,0.0352
3362.00,0.0353
3361.00,0.0354
3360.00,0.0355
3359.00,0.0355
3358.00,0.0355
3357.00,0.0355
3356.00,0.0355
3355.00,0.0355
3354.00,0.0355
3353.00,0.0355
3352.00,0.0356
3351.00,0.0356
3350.00,0.0357
3349.00,0.0357
3348.00,0.0357
3347.00,0.0356
3346.00,0.0356
3345.00,0.0356
3344.00,0.0356
3343.00,0.0356
3342.00,0.0356
3341.00,0.0356
3340.00,0.0357
3339.00,0.0357
3338.00,0.0358
3337.00,0.0358
3336.00,0.0357
3335.00,0.0357
3334.00,0.0358
3333.00,0.0358
3332.00,0.0357
3331.00,0.0357
3330.00,0.0356
3329.00,0.0356
3328.00,0.0356
3327.00,0.0356
3326.00,0.0357
3325.00,0.0358
3324.00,0.0358
3323.00,0.0358
3322.00,0.0358
3321.00,0.0358
3320.00,0.0358
3319.00,0.0358
3318.00,0.0358
3317.00,0.0358
3316.00,0.0358
3315.00,0.0358
3314.00,0.0358
3313.00,0.0358
3312.00,0.0358
3311.00,0.0358
3310.00,0.0358
3309.00,0.0359
3308.00,0.0359
3307.00,0.0360
3306.00,0.0360
3305.00,0.0359
3304.00,0.0359
3303.00,0.0359
3302.00,0.0359
3301.00,0.0359
3300.00,0.0359
3299.00,0.0359
3298.00,0.0359
3297.00,0.0359
3296.00,0.0360
3295.00,0.0360
3294.00,0.0360
3293.00,0.0360
3292.00,0.0359
3291.00,0.0359
3290.00,0.0359
3289.00,0.0359
3288.00,0.0359
3287.00,0.0360
3286.00,0.0360
3285.00,0.0360
3284.00,0.0361
3283.00,0.0361
3282.00,0.0361
3281.00,0.0361
3280.00,0.0360
3279.00,0.0360
3278.00,0.0360
3277.00,0.0360
3276.00,0.0360
3275.00,0.0361
3274.00,0.0361
3273.00,0.0362
3272.00,0.0362
3271.00,0.0362
3270.00,0.0363
3269.00,0.0363
3268.00,0.0363
3267.00,0.0363
3266.00,0.0362
3265.00,0.0361
3264.00,0.0360
3263.00,0.0360
3262.00,0.0360
3261.00,0.0361
3260.00,0.0362
3259.00,0.0362
3258.00,0.0362
3257.00,0.0361
3256.00,0.0361
3255.00,0.0361
3254.00,0.0361
3253.00,0.0362
3252.00,0.0362
3251.00,0.0362
3250.00,0.0362
3249.00,0.0362
3248.00,0.0361
3247.00,0.0361
3246.00,0.0361
3245.00,0.0362
3244.00,0.0362
3243.00,0.0362
3242.00,0.0361
3241.00,0.0361
3240.00,0.0362
3239.00,0.0362
3238.00,0.0362
3237.00,0.0363
3236.00,0.0364
3235.00,0.0365
3234.00,0.0365
3233.00,0.0365
3232.00,0.0364
3231.00,0.0364
3230.00,0.0363
3229.00,0.0362
3228.00,0.0362
3227.00,0.0362
3226.00,0.0362
3225.00,0.0362
3224.00,0.0362
3223.00,0.0362
3222.00,0.0362
3221.00,0.0362
3220.00,0.0362
3219.00,0.0361
3218.00,0.0361
3217.00,0.0362
3216.00,0.0362
3215.00,0.0363
3214.00,0.0363
3213.00,0.0363
3212.00,0.0362
3211.00,0.0362
3210.00,0.0362
3209.00,0.0362
3208.00,0.0362
3207.00,0.0362
3206.00,0.0362
3205.00,0.0362
3204.00,0.0363
3203.00,0.0363
3202.00,0.0363
3201.00,0.0363
3200.00,0.0363
3199.00,0.0363
3198.00,0.0363
3197.00,0.0362
3196.00,0.0362
3195.00,0.0362
3194.00,0.0362
3193.00,0.0362
3192.00,0.0362
3191.00,0.0362
3190.00,0.0361
3189.00,0.0361
3188.00,0.0360
3187.00,0.0359
3186.00,0.0359
3185.00,0.0359
3184.00,0.0360
3183.00,0.0360
3182.00,0.0361
3181.00,0.0361
3180.00,0.0360
3179.00,0.0359
3178.00,0.0358
3177.00,0.0358
3176.00,0.0358
3175.00,0.0358
3174.00,0.0359
3173.00,0.0359
3172.00,0.0359
3171.00,0.0358
3170.00,0.0358
3169.00,0.0358
3168.00,0.0358
3167.00,0.0358
3166.00,0.0358
3165.00,0.0359
3164.00,0.0359
3163.00,0.0359
3162.00,0.0359
3161.00,0.0358
3160.00,0.0357
3159.00,0.0356
3158.00,0.0355
3157.00,0.0354
3156.00,0.0355
3155.00,0.0355
3154.00,0.0356
3153.00,0.0356
3152.00,0.0356
3151.00,0.0355
3150.00,0.0355
3149.00,0.0355
3148.00,0.0355
3147.00,0.0355
3146.00,0.0354
3145.00,0.0354
3144.00,0.0354
3143.00,0.0354
3142.00,0.0354
3141.00,0.0354
3140.00,0.0354
3139.00,0.0353
3138.00,0.0353
3137.00,0.0354
3136.00,0.0354
3135.00,0.0353
3134.00,0.0353
3133.00,0.0353
3132.00,0.0353
3131.00,0.0353
3130.00,0.0353
3129.00,0.0353
3128.00,0.0352
3127.00,0.0352
3126.00,0.0351
3125.00,0.0351
3124.00,0.0351
3123.00,0.0351
3122.00,0.0350
3121.00,0.0350
3120.00,0.0350
3119.00,0.0350
3118.00,0.0351
3117.00,0.0351
3116.00,0.0351
3115.00,0.0350
3114.00,0.0350
3113.00,0.0349
3112.00,0.0349
3111.00,0.0349
3110.00,0.0349
3109.00,0.0348
3108.00,0.0348
3107.00,0.0348
3106.00,0.0349
3105.00,0.0349
3104.00,0.0349
3103.00,0.0348
3102.00,0.0348
3101.00,0.0347
3100.00,0.0347
3099.00,0.0347
3098.00,0.0346
3097.00,0.0347
3096.00,0.0347
3095.00,0.0348
3094.00,0.0349
3093.00,0.0349
3092.00,0.0349
3091.00,0.0348
3090.00,0.0347
3089.00,0.0346
3088.00,0.0345
3087.00,0.0345
3086.00,0.0345
3085.00,0.0346
3084.00,0.0346
3083.00,0.0346
3082.00,0.0346
3081.00,0.0346
3080.00,0.0345
3079.00,0.0345
3078.00,0.0345
3077.00,0.0345
3076.00,0.0345
3075.00,0.0345
3074.00,0.0345
3073.00,0.0345
3072.00,0.0345
3071.00,0.0345
3070.00,0.0345
3069.00,0.0344
3068.00,0.0344
3067.00,0.0344
3066.00,0.0343
3065.00,0.0342
3064.00,0.0342
3063.00,0.0341
3062.00,0.0341
3061.00,0.0342
3060.00,0.0342
3059.00,0.0342
3058.00,0.0342
3057.00,0.0342
3056.00,0.0342
3055.00,0.0341
3054.00,0.0340
3053.00,0.0340
3052.00,0.0340
3051.00,0.0340
3050.00,0.0340
3049.00,0.0341
3048.00,0.0341
3047.00,0.0341
3046.00,0.0341
3045.00,0.0340
3044.00,0.0339
3043.00,0.0338
3042.00,0.0337
3041.00,0.0336
3040.00,0.0335
3039.00,0.0335
3038.00,0.0335
3037.00,0.0336
3036.00,0.0336
3035.00,0.0336
3034.00,0.0336
3033.00,0.0336
3032.00,0.0336
3031.00,0.0335
3030.00,0.0334
3029.00,0.0333
3028.00,0.0332
3027.00,0.0332
3026.00,0.0332
3025.00,0.0332
3024.00,0.0332
3023.00,0.0332
3022.00,0.0332
3021.00,0.0332
3020.00,0.0331
3019.00,0.0330
3018.00,0.0330
3017.00,0.0329
3016.00,0.0329
3015.00,0.0328
3014.00,0.0328
3013.00,0.0327
3012.00,0.0327
3011.00,0.0327
3010.00,0.0326
3009.00,0.0325
3008.00,0.0323
3007.00,0.0321
3006.00,0.0320
3005.00,0.0319
3004.00,0.0318
3003.00,0.0317
3002.00,0.0315
3001.00,0.0314
3000.00,0.0312
2999.00,0.0311
2998.00,0.0310
2997.00,0.0308
2996.00,0.0307
2995.00,0.0306
2994.00,0.0306
2993.00,0.0306
2992.00,0.0305
2991.00,0.0304
2990.00,0.0304
2989.00,0.0303
2988.00,0.0302
2987.00,0.0301
2986.00,0.0298
2985.00,0.0295
2984.00,0.0292
2983.00,0.0289
2982.00,0.0288
2981.00,0.0289
2980.00,0.0290
2979.00,0.0292
2978.00,0.0294
2977.00,0.0296
2976.00,0.0298
2975.00,0.0298
2974.00,0.0298
2973.00,0.0298
2972.00,0.0298
2971.00,0.0298
2970.00,0.0300
2969.00,0.0303
2968.00,0.0305
2967.00,0.0306
2966.00,0.0307
2965.00,0.0308
2964.00,0.0309
2963.00,0.0311
2962.00,0.0313
2961.00,0.0314
2960.00,0.0314
2959.00,0.0314
2958.00,0.0314
2957.00,0.0315
2956.00,0.0316
2955.00,0.0318
2954.00,0.0319
2953.00,0.0320
2952.00,0.0320
2951.00,0.0321
2950.00,0.0321
2949.00,0.0321
2948.00,0.0322
2947.00,0.0322
2946.00,0.0323
2945.00,0.0324
2944.00,0.0325
2943.00,0.0327
2942.00,0.0329
2941.00,0.0330
2940.00,0.0331
2939.00,0.0332
2938.00,0.0334
2937.00,0.0335
2936.00,0.0337
2935.00,0.0339
2934.00,0.0341
2933.00,0.0342
2932.00,0.0344
2931.00,0.0346
2930.00,0.0348
2929.00,0.0350
2928.00,0.0351
2927.00,0.0352
2926.00,0.0353
2925.00,0.0353
2924.00,0.0353
2923.00,0.0353
2922.00,0.0352
2921.00,0.0351
2920.00,0.0349
2919.00,0.0346
2918.00,0.0344
2917.00,0.0342
2916.00,0.0339
2915.00,0.0337
2914.00,0.0336
2913.00,0.0334
2912.00,0.0332
2911.00,0.0331
2910.00,0.0329
2909.00,0.0328
2908.00,0.0326
2907.00,0.0325
2906.00,0.0324
2905.00,0.0323
2904.00,0.0322
2903.00,0.0320
2902.00,0.0320
2901.00,0.0319
2900.00,0.0318
2899.00,0.0317
2898.00,0.0316
2897.00,0.0315
2896.00,0.0314
2895.00,0.0313
2894.00,0.0312
2893.00,0.0312
2892.00,0.0311
2891.00,0.0310
2890.00,0.0310
2889.00,0.0309
2888.00,0.0309
2887.00,0.0309
2886.00,0.0308
2885.00,0.0307
2884.00,0.0306
2883.00,0.0306
2882.00,0.0306
2881.00,0.0306
2880.00,0.0306
2879.00,0.0307
2878.00,0.0307
2877.00,0.0308
2876.00,0.0308
2875.00,0.0308
2874.00,0.0307
2873.00,0.0307
2872.00,0.0307
2871.00,0.0307
2870.00,0.0308
2869.00,0.0308
2868.00,0.0308
2867.00,0.0308
2866.00,0.0309
2865.00,0.0309
2864.00,0.0310
2863.00,0.0311
2862.00,0.0312
2861.00,0.0314
2860.00,0.0316
2859.00,0.0319
2858.00,0.0321
2857.00,0.0323
2856.00,0.0324
2855.00,0.0324
2854.00,0.0324
2853.00,0.0323
2852.00,0.0323
2851.00,0.0322
2850.00,0.0321
2849.00,0.0319
2848.00,0.0317
2847.00,0.0315
2846.00,0.0312
2845.00,0.0310
2844.00,0.0308
2843.00,0.0306
2842.00,0.0305
2841.00,0.0303
2840.00,0.0302
2839.00,0.0300
2838.00,0.0299
2837.00,0.0299
2836.00,0.0299
2835.00,0.0299
2834.00,0.0299
2833.00,0.0298
2832.00,0.0297
2831.00,0.0295
2830.00,0.0295
2829.00,0.0295
2828.00,0.0295
2827.00,0.0295
2826.00,0.0294
2825.00,0.0294
2824.00,0.0294
2823.00,0.0293
2822.00,0.0293
2821.00,0.0292
2820.00,0.0291
2819.00,0.0290
2818.00,0.0290
2817.00,0.0290
2816.00,0.0289
2815.00,0.0289
2814.00,0.0289
2813.00,0.0288
2812.00,0.0288
2811.00,0.0287
2810.00,0.0287
2809.00,0.0287
2808.00,0.0286
2807.00,0.0286
2806.00,0.0286
2805.00,0.0286
2804.00,0.0286
2803.00,0.0286
2802.00,0.0286
2801.00,0.0286
2800.00,0.0286
2799.00,0.0286
2798.00,0.0285
2797.00,0.0285
2796.00,0.0284
2795.00,0.0284
2794.00,0.0283
2793.00,0.0283
2792.00,0.0283
2791.00,0.0283
2790.00,0.0283
2789.00,0.0283
2788.00,0.0283
2787.00,0.0282
2786.00,0.0282
2785.00,0.0281
2784.00,0.0281
2783.00,0.0280
2782.00,0.0280
2781.00,0.0279
2780.00,0.0278
2779.00,0.0278
2778.00,0.0279
2777.00,0.0279
2776.00,0.0279
2775.00,0.0279
2774.00,0.0279
2773.00,0.0279
2772.00,0.0278
2771.00,0.0278
2770.00,0.0277
2769.00,0.0276
2768.00,0.0275
2767.00,0.0275
2766.00,0.0275
2765.00,0.0275
2764.00,0.0275
2763.00,0.0276
2762.00,0.0275
2761.00,0.0275
2760.00,0.0275
2759.00,0.0275
2758.00,0.0274
2757.00,0.0274
2756.00,0.0274
2755.00,0.0273
2754.00,0.0273
2753.00,0.0273
2752.00,0.0273
2751.00,0.0273
2750.00,0.0274
2749.00,0.0274
2748.00,0.0273
2747.00,0.0273
2746.00,0.0273
2745.00,0.0273
2744.00,0.0272
2743.00,0.0272
2742.00,0.0272
2741.00,0.0272
2740.00,0.0271
2739.00,0.0271
2738.00,0.0270
2737.00,0.0270
2736.00,0.0270
2735.00,0.0269
2734.00,0.0270
2733.00,0.0270
2732.00,0.0270
2731.00,0.0270
2730.00,0.0269
2729.00,0.0268
2728.00,0.0268
2727.00,0.0268
2726.00,0.0268
2725.00,0.0268
2724.00,0.0268
2723.00,0.0267
2722.00,0.0267
2721.00,0.0267
2720.00,0.0267
2719.00,0.0267
2718.00,0.0267
2717.00,0.0267
2716.00,0.0267
2715.00,0.0266
2714.00,0.0266
2713.00,0.0266
2712.00,0.0265
2711.00,0.0265
2710.00,0.0265
2709.00,0.0265
2708.00,0.0264
2707.00,0.0264
2706.00,0.0263
2705.00,0.0263
2704.00,0.0263
2703.00,0.0263
2702.00,0.0263
2701.00,0.0263
2700.00,0.0263
2699.00,0.0263
2698.00,0.0263
2697.00,0.0263
2696.00,0.0262
2695.00,0.0262
2694.00,0.0262
2693.00,0.0262
2692.00,0.0263
2691.00,0.0262
2690.00,0.0262
2689.00,0.0262
2688.00,0.0261
2687.00,0.0261
2686.00,0.0261
2685.00,0.0261
2684.00,0.0261
2683.00,0.0261
2682.00,0.0261
2681.00,0.0260
2680.00,0.0260
2679.00,0.0259
2678.00,0.0258
2677.00,0.0258
2676.00,0.0258
2675.00,0.0258
2674.00,0.0258
2673.00,0.0258
2672.00,0.0257
2671.00,0.0257
2670.00,0.0257
2669.00,0.0256
2668.00,0.0257
2667.00,0.0257
2666.00,0.0257
2665.00,0.0257
2664.00,0.0257
2663.00,0.0257
2662.00,0.0258
2661.00,0.0258
2660.00,0.0258
2659.00,0.0258
2658.00,0.0258
2657.00,0.0258
2656.00,0.0258
2655.00,0.0257
2654.00,0.0258
2653.00,0.0258
2652.00,0.0258
2651.00,0.0258
2650.00,0.0258
2649.00,0.0258
2648.00,0.0257
2647.00,0.0257
2646.00,0.0257
2645.00,0.0257
2644.00,0.0257
2643.00,0.0257
2642.00,0.0258
2641.00,0.0258
2640.00,0.0258
2639.00,0.0258
2638.00,0.0258
2637.00,0.0257
2636.00,0.0256
2635.00,0.0256
2634.00,0.0256
2633.00,0.0257
2632.00,0.0257
2631.00,0.0257
2630.00,0.0257
2629.00,0.0256
2628.00,0.0256
2627.00,0.0255
2626.00,0.0255
2625.00,0.0256
2624.00,0.0257
2623.00,0.0257
2622.00,0.0258
2621.00,0.0258
2620.00,0.0258
2619.00,0.0258
2618.00,0.0258
2617.00,0.0258
2616.00,0.0257
2615.00,0.0256
2614.00,0.0256
2613.00,0.0256
2612.00,0.0256
2611.00,0.0257
2610.00,0.0257
2609.00,0.0256
2608.00,0.0256
2607.00,0.0255
2606.00,0.0256
2605.00,0.0257
2604.00,0.0257
2603.00,0.0258
2602.00,0.0258
2601.00,0.0257
2600.00,0.0257
2599.00,0.0256
2598.00,0.0256
2597.00,0.0255
2596.00,0.0255
2595.00,0.0255
2594.00,0.0255
2593.00,0.0255
2592.00,0.0255
2591.00,0.0256
2590.00,0.0256
2589.00,0.0256
2588.00,0.0256
2587.00,0.0255
2586.00,0.0254
2585.00,0.0254
2584.00,0.0253
2583.00,0.0253
2582.00,0.0254
2581.00,0.0254
2580.00,0.0254
2579.00,0.0255
2578.00,0.0254
2577.00,0.0254
2576.00,0.0253
2575.00,0.0253
2574.00,0.0253
2573.00,0.0254
2572.00,0.0254
2571.00,0.0254
2570.00,0.0253
2569.00,0.0253
2568.00,0.0253
2567.00,0.0254
2566.00,0.0255
2565.00,0.0255
2564.00,0.0255
2563.00,0.0255
2562.00,0.0255
2561.00,0.0255
2560.00,0.0255
2559.00,0.0254
2558.00,0.0254
2557.00,0.0254
2556.00,0.0254
2555.00,0.0255
2554.00,0.0254
2553.00,0.0254
2552.00,0.0253
2551.00,0.0252
2550.00,0.0252
2549.00,0.0251
2548.00,0.0250
2547.00,0.0249
2546.00,0.0249
2545.00,0.0249
2544.00,0.0250
2543.00,0.0250
2542.00,0.0250
2541.00,0.0249
2540.00,0.0248
2539.00,0.0247
2538.00,0.0246
2537.00,0.0246
2536.00,0.0247
2535.00,0.0247
2534.00,0.0248
2533.00,0.0249
2532.00,0.0249
2531.00,0.0248
2530.00,0.0248
2529.00,0.0247
2528.00,0.0247
2527.00,0.0247
2526.00,0.0246
2525.00,0.0246
2524.00,0.0245
2523.00,0.0245
2522.00,0.0246
2521.00,0.0246
2520.00,0.0246
2519.00,0.0247
2518.00,0.0247
2517.00,0.0248
2516.00,0.0249
2515.00,0.0248
2514.00,0.0247
2513.00,0.0246
2512.00,0.0245
2511.00,0.0246
2510.00,0.0247
2509.00,0.0249
2508.00,0.0249
2507.00,0.0249
2506.00,0.0248
2505.00,0.0247
2504.00,0.0247
2503.00,0.0247
2502.00,0.0247
2501.00,0.0247
2500.00,0.0248
2499.00,0.0248
2498.00,0.0248
2497.00,0.0247
2496.00,0.0247
2495.00,0.0247
2494.00,0.0247
2493.00,0.0248
2492.00,0.0248
2491.00,0.0248
2490.00,0.0248
2489.00,0.0248
2488.00,0.0247
2487.00,0.0247
2486.00,0.0246
2485.00,0.0246
2484.00,0.0245
2483.00,0.0245
2482.00,0.0245
2481.00,0.0246
2480.00,0.0246
2479.00,0.0246
2478.00,0.0246
2477.00,0.0245
2476.00,0.0244
2475.00,0.0244
2474.00,0.0244
2473.00,0.0244
2472.00,0.0244
2471.00,0.0244
2470.00,0.0245
2469.00,0.0244
2468.00,0.0244
2467.00,0.0243
2466.00,0.0243
2465.00,0.0243
2464.00,0.0242
2463.00,0.0242
2462.00,0.0242
2461.00,0.0242
2460.00,0.0243
2459.00,0.0243
2458.00,0.0244
2457.00,0.0244
2456.00,0.0244
2455.00,0.0244
2454.00,0.0245
2453.00,0.0246
2452.00,0.0246
2451.00,0.0246
2450.00,0.0244
2449.00,0.0243
2448.00,0.0242
2447.00,0.0242
2446.00,0.0241
2445.00,0.0240
2444.00,0.0240
2443.00,0.0239
2442.00,0.0240
2441.00,0.0240
2440.00,0.0241
2439.00,0.0241
2438.00,0.0241
2437.00,0.0241
2436.00,0.0240
2435.00,0.0240
2434.00,0.0239
2433.00,0.0239
2432.00,0.0239
2431.00,0.0239
2430.00,0.0239
2429.00,0.0240
2428.00,0.0239
2427.00,0.0239
2426.00,0.0239
2425.00,0.0239
2424.00,0.0239
2423.00,0.0239
2422.00,0.0239
2421.00,0.0238
2420.00,0.0238
2419.00,0.0238
2418.00,0.0237
2417.00,0.0237
2416.00,0.0237
2415.00,0.0236
2414.00,0.0236
2413.00,0.0236
2412.00,0.0236
2411.00,0.0236
2410.00,0.0236
2409.00,0.0237
2408.00,0.0237
2407.00,0.0236
2406.00,0.0236
2405.00,0.0235
2404.00,0.0235
2403.00,0.0234
2402.00,0.0234
2401.00,0.0233
2400.00,0.0233
2399.00,0.0233
2398.00,0.0233
2397.00,0.0232
2396.00,0.0232
2395.00,0.0232
2394.00,0.0231
2393.00,0.0231
2392.00,0.0231
2391.00,0.0231
2390.00,0.0230
2389.00,0.0230
2388.00,0.0230
2387.00,0.0230
2386.00,0.0230
2385.00,0.0230
2384.00,0.0229
2383.00,0.0228
2382.00,0.0228
2381.00,0.0228
2380.00,0.0228
2379.00,0.0228
2378.00,0.0227
2377.00,0.0227
2376.00,0.0226
2375.00,0.0226
2374.00,0.0226
2373.00,0.0227
2372.00,0.0227
2371.00,0.0226
2370.00,0.0224
2369.00,0.0221
2368.00,0.0219
2367.00,0.0219
2366.00,0.0221
2365.00,0.0223
2364.00,0.0225
2363.00,0.0224
2362.00,0.0223
2361.00,0.0223
2360.00,0.0223
2359.00,0.0224
2358.00,0.0225
2357.00,0.0225
2356.00,0.0223
2355.00,0.0221
2354.00,0.0219
2353.00,0.0219
2352.00,0.0220
2351.00,0.0221
2350.00,0.0222
2349.00,0.0222
2348.00,0.0220
2347.00,0.0218
2346.00,0.0216
2345.00,0.0217
2344.00,0.0220
2343.00,0.0223
2342.00,0.0224
2341.00,0.0225
2340.00,0.0225
2339.00,0.0223
2338.00,0.0221
2337.00,0.0219
2336.00,0.0219
2335.00,0.0220
2334.00,0.0221
2333.00,0.0222
2332.00,0.0221
2331.00,0.0221
2330.00,0.0220
2329.00,0.0220
2328.00,0.0220
2327.00,0.0222
2326.00,0.0223
2325.00,0.0223
2324.00,0.0223
2323.00,0.0221
2322.00,0.0221
2321.00,0.0221
2320.00,0.0221
2319.00,0.0221
2318.00,0.0221
2317.00,0.0221
2316.00,0.0222
2315.00,0.0222
2314.00,0.0222
2313.00,0.0223
2312.00,0.0223
2311.00,0.0224
2310.00,0.0225
2309.00,0.0226
2308.00,0.0225
2307.00,0.0225
2306.00,0.0224
2305.00,0.0223
2304.00,0.0223
2303.00,0.0222
2302.00,0.0221
2301.00,0.0221
2300.00,0.0221
2299.00,0.0222
2298.00,0.0223
2297.00,0.0223
2296.00,0.0223
2295.00,0.0223
2294.00,0.0223
2293.00,0.0225
2292.00,0.0226
2291.00,0.0227
2290.00,0.0227
2289.00,0.0227
2288.00,0.0227
2287.00,0.0228
2286.00,0.0229
2285.00,0.0230
2284.00,0.0230
2283.00,0.0231
2282.00,0.0230
2281.00,0.0229
2280.00,0.0229
2279.00,0.0229
2278.00,0.0230
2277.00,0.0231
2276.00,0.0230
2275.00,0.0228
2274.00,0.0227
2273.00,0.0225
2272.00,0.0225
2271.00,0.0225
2270.00,0.0226
2269.00,0.0226
2268.00,0.0226
2267.00,0.0225
2266.00,0.0225
2265.00,0.0225
2264.00,0.0226
2263.00,0.0227
2262.00,0.0227
2261.00,0.0227
2260.00,0.0227
2259.00,0.0227
2258.00,0.0225
2257.00,0.0222
2256.00,0.0221
2255.00,0.0221
2254.00,0.0221
2253.00,0.0222
2252.00,0.0223
2251.00,0.0223
2250.00,0.0223
2249.00,0.0222
2248.00,0.0221
2247.00,0.0222
2246.00,0.0223
2245.00,0.0225
2244.00,0.0226
2243.00,0.0226
2242.00,0.0225
2241.00,0.0225
2240.00,0.0224
2239.00,0.0223
2238.00,0.0223
2237.00,0.0223
2236.00,0.0223
2235.00,0.0223
2234.00,0.0224
2233.00,0.0224
2232.00,0.0224
2231.00,0.0222
2230.00,0.0221
2229.00,0.0221
2228.00,0.0222
2227.00,0.0222
2226.00,0.0223
2225.00,0.0222
2224.00,0.0221
2223.00,0.0220
2222.00,0.0219
2221.00,0.0219
2220.00,0.0220
2219.00,0.0221
2218.00,0.0222
2217.00,0.0222
2216.00,0.0222
2215.00,0.0223
2214.00,0.0224
2213.00,0.0223
2212.00,0.0222
2211.00,0.0220
2210.00,0.0219
2209.00,0.0219
2208.00,0.0220
2207.00,0.0220
2206.00,0.0220
2205.00,0.0220
2204.00,0.0220
2203.00,0.0219
2202.00,0.0219
2201.00,0.0219
2200.00,0.0218
2199.00,0.0217
2198.00,0.0217
2197.00,0.0218
2196.00,0.0219
2195.00,0.0218
2194.00,0.0218
2193.00,0.0218
2192.00,0.0218
2191.00,0.0216
2190.00,0.0213
2189.00,0.0212
2188.00,0.0213
2187.00,0.0216
2186.00,0.0219
2185.00,0.0220
2184.00,0.0219
2183.00,0.0216
2182.00,0.0215
2181.00,0.0215
2180.00,0.0216
2179.00,0.0217
2178.00,0.0219
2177.00,0.0219
2176.00,0.0219
2175.00,0.0217
2174.00,0.0215
2173.00,0.0214
2172.00,0.0215
2171.00,0.0217
2170.00,0.0221
2169.00,0.0224
2168.00,0.0225
2167.00,0.0225
2166.00,0.0225
2165.00,0.0226
2164.00,0.0228
2163.00,0.0230
2162.00,0.0230
2161.00,0.0226
2160.00,0.0219
2159.00,0.0210
2158.00,0.0203
2157.00,0.0201
2156.00,0.0201
2155.00,0.0204
2154.00,0.0207
2153.00,0.0211
2152.00,0.0212
2151.00,0.0209
2150.00,0.0205
2149.00,0.0202
2148.00,0.0202
2147.00,0.0204
2146.00,0.0207
2145.00,0.0208
2144.00,0.0207
2143.00,0.0206
2142.00,0.0206
2141.00,0.0207
2140.00,0.0208
2139.00,0.0207
2138.00,0.0205
2137.00,0.0204
2136.00,0.0203
2135.00,0.0202
2134.00,0.0202
2133.00,0.0201
2132.00,0.0201
2131.00,0.0201
2130.00,0.0201
2129.00,0.0203
2128.00,0.0204
2127.00,0.0205
2126.00,0.0204
2125.00,0.0202
2124.00,0.0201
2123.00,0.0201
2122.00,0.0201
2121.00,0.0200
2120.00,0.0200
2119.00,0.0200
2118.00,0.0199
2117.00,0.0200
2116.00,0.0199
2115.00,0.0198
2114.00,0.0197
2113.00,0.0196
2112.00,0.0197
2111.00,0.0198
2110.00,0.0200
2109.00,0.0201
2108.00,0.0203
2107.00,0.0203
2106.00,0.0202
2105.00,0.0202
2104.00,0.0202
2103.00,0.0202
2102.00,0.0202
2101.00,0.0202
2100.00,0.0200
2099.00,0.0197
2098.00,0.0196
2097.00,0.0196
2096.00,0.0196
2095.00,0.0197
2094.00,0.0197
2093.00,0.0198
2092.00,0.0198
2091.00,0.0197
2090.00,0.0196
2089.00,0.0195
2088.00,0.0195
2087.00,0.0196
2086.00,0.0197
2085.00,0.0198
2084.00,0.0199
2083.00,0.0199
2082.00,0.0199
2081.00,0.0199
2080.00,0.0199
2079.00,0.0199
2078.00,0.0199
2077.00,0.0199
2076.00,0.0199
2075.00,0.0199
2074.00,0.0198
2073.00,0.0198
2072.00,0.0198
2071.00,0.0199
2070.00,0.0200
2069.00,0.0199
2068.00,0.0196
2067.00,0.0194
2066.00,0.0193
2065.00,0.0193
2064.00,0.0194
2063.00,0.0196
2062.00,0.0197
2061.00,0.0197
2060.00,0.0196
2059.00,0.0194
2058.00,0.0194
2057.00,0.0194
2056.00,0.0194
2055.00,0.0193
2054.00,0.0195
2053.00,0.0198
2052.00,0.0200
2051.00,0.0200
2050.00,0.0198
2049.00,0.0194
2048.00,0.0192
2047.00,0.0192
2046.00,0.0194
2045.00,0.0197
2044.00,0.0200
2043.00,0.0200
2042.00,0.0199
2041.00,0.0196
2040.00,0.0193
2039.00,0.0191
2038.00,0.0192
2037.00,0.0195
2036.00,0.0197
2035.00,0.0197
2034.00,0.0195
2033.00,0.0195
2032.00,0.0198
2031.00,0.0202
2030.00,0.0203
2029.00,0.0201
2028.00,0.0198
2027.00,0.0195
2026.00,0.0192
2025.00,0.0190
2024.00,0.0187
2023.00,0.0184
2022.00,0.0183
2021.00,0.0183
2020.00,0.0182
2019.00,0.0181
2018.00,0.0179
2017.00,0.0178
2016.00,0.0178
2015.00,0.0180
2014.00,0.0182
2013.00,0.0184
2012.00,0.0184
2011.00,0.0185
2010.00,0.0185
2009.00,0.0185
2008.00,0.0184
2007.00,0.0181
2006.00,0.0179
2005.00,0.0178
2004.00,0.0179
2003.00,0.0181
2002.00,0.0185
2001.00,0.0189
2000.00,0.0189
1999.00,0.0188
1998.00,0.0186
1997.00,0.0186
1996.00,0.0187
1995.00,0.0189
1994.00,0.0190
1993.00,0.0191
1992.00,0.0189
1991.00,0.0186
1990.00,0.0183
1989.00,0.0181
1988.00,0.0179
1987.00,0.0179
1986.00,0.0180
1985.00,0.0181
1984.00,0.0182
1983.00,0.0183
1982.00,0.0183
1981.00,0.0182
1980.00,0.0180
1979.00,0.0177
1978.00,0.0173
1977.00,0.0170
1976.00,0.0170
1975.00,0.0173
1974.00,0.0176
1973.00,0.0177
1972.00,0.0175
1971.00,0.0173
1970.00,0.0173
1969.00,0.0175
1968.00,0.0177
1967.00,0.0176
1966.00,0.0173
1965.00,0.0171
1964.00,0.0170
1963.00,0.0171
1962.00,0.0170
1961.00,0.0170
1960.00,0.0171
1959.00,0.0172
1958.00,0.0172
1957.00,0.0170
1956.00,0.0169
1955.00,0.0169
1954.00,0.0170
1953.00,0.0171
1952.00,0.0171
1951.00,0.0170
1950.00,0.0168
1949.00,0.0167
1948.00,0.0166
1947.00,0.0166
1946.00,0.0165
1945.00,0.0165
1944.00,0.0163
1943.00,0.0162
1942.00,0.0161
1941.00,0.0160
1940.00,0.0159
1939.00,0.0158
1938.00,0.0156
1937.00,0.0156
1936.00,0.0156
1935.00,0.0156
1934.00,0.0155
1933.00,0.0155
1932.00,0.0156
1931.00,0.0157
1930.00,0.0159
1929.00,0.0161
1928.00,0.0163
1927.00,0.0163
1926.00,0.0163
1925.00,0.0163
1924.00,0.0161
1923.00,0.0159
1922.00,0.0157
1921.00,0.0157
1920.00,0.0156
1919.00,0.0155
1918.00,0.0152
1917.00,0.0151
1916.00,0.0151
1915.00,0.0152
1914.00,0.0153
1913.00,0.0154
1912.00,0.0154
1911.00,0.0153
1910.00,0.0152
1909.00,0.0150
1908.00,0.0148
1907.00,0.0148
1906.00,0.0148
1905.00,0.0149
1904.00,0.0150
1903.00,0.0150
1902.00,0.0149
1901.00,0.0148
1900.00,0.0148
1899.00,0.0148
1898.00,0.0149
1897.00,0.0148
1896.00,0.0147
1895.00,0.0144
1894.00,0.0143
1893.00,0.0144
1892.00,0.0146
1891.00,0.0147
1890.00,0.0146
1889.00,0.0144
1888.00,0.0143
1887.00,0.0142
1886.00,0.0141
1885.00,0.0142
1884.00,0.0142
1883.00,0.0142
1882.00,0.0141
1881.00,0.0140
1880.00,0.0140
1879.00,0.0139
1878.00,0.0138
1877.00,0.0137
1876.00,0.0137
1875.00,0.0137
1874.00,0.0138
1873.00,0.0139
1872.00,0.0141
1871.00,0.0141
1870.00,0.0140
1869.00,0.0138
1868.00,0.0136
1867.00,0.0134
1866.00,0.0133
1865.00,0.0133
1864.00,0.0133
1863.00,0.0132
1862.00,0.0131
1861.00,0.0130
1860.00,0.0129
1859.00,0.0129
1858.00,0.0129
1857.00,0.0129
1856.00,0.0129
1855.00,0.0128
1854.00,0.0128
1853.00,0.0127
1852.00,0.0127
1851.00,0.0127
1850.00,0.0128
1849.00,0.0128
1848.00,0.0127
1847.00,0.0128
1846.00,0.0128
1845.00,0.0126
1844.00,0.0122
1843.00,0.0119
1842.00,0.0119
1841.00,0.0120
1840.00,0.0122
1839.00,0.0122
1838.00,0.0121
1837.00,0.0121
1836.00,0.0120
1835.00,0.0119
1834.00,0.0120
1833.00,0.0121
1832.00,0.0123
1831.00,0.0123
1830.00,0.0121
1829.00,0.0119
1828.00,0.0118
1827.00,0.0119
1826.00,0.0118
1825.00,0.0116
1824.00,0.0114
1823.00,0.0113
1822.00,0.0113
1821.00,0.0114
1820.00,0.0113
1819.00,0.0112
1818.00,0.0111
1817.00,0.0110
1816.00,0.0109
1815.00,0.0109
1814.00,0.0110
1813.00,0.0111
1812.00,0.0111
1811.00,0.0110
1810.00,0.0110
1809.00,0.0109
1808.00,0.0109
1807.00,0.0110
1806.00,0.0110
1805.00,0.0111
1804.00,0.0112
1803.00,0.0112
1802.00,0.0111
1801.00,0.0110
1800.00,0.0109
1799.00,0.0109
1798.00,0.0110
1797.00,0.0111
1796.00,0.0113
1795.00,0.0114
1794.00,0.0115
1793.00,0.0114
1792.00,0.0113
1791.00,0.0111
1790.00,0.0111
1789.00,0.0112
1788.00,0.0114
1787.00,0.0116
1786.00,0.0117
1785.00,0.0118
1784.00,0.0119
1783.00,0.0120
1782.00,0.0122
1781.00,0.0122
1780.00,0.0122
1779.00,0.0123
1778.00,0.0124
1777.00,0.0127
1776.00,0.0129
1775.00,0.0132
1774.00,0.0133
1773.00,0.0133
1772.00,0.0131
1771.00,0.0131
1770.00,0.0133
1769.00,0.0136
1768.00,0.0137
1767.00,0.0138
1766.00,0.0140
1765.00,0.0143
1764.00,0.0147
1763.00,0.0148
1762.00,0.0147
1761.00,0.0147
1760.00,0.0149
1759.00,0.0152
1758.00,0.0154
1757.00,0.0155
1756.00,0.0156
1755.00,0.0159
1754.00,0.0164
1753.00,0.0167
1752.00,0.0169
1751.00,0.0171
1750.00,0.0173
1749.00,0.0176
1748.00,0.0179
1747.00,0.0181
1746.00,0.0184
1745.00,0.0187
1744.00,0.0189
1743.00,0.0191
1742.00,0.0193
1741.00,0.0194
1740.00,0.0195
1739.00,0.0196
1738.00,0.0197
1737.00,0.0201
1736.00,0.0204
1735.00,0.0205
1734.00,0.0205
1733.00,0.0206
1732.00,0.0210
1731.00,0.0215
1730.00,0.0219
1729.00,0.0221
1728.00,0.0224
1727.00,0.0227
1726.00,0.0230
1725.00,0.0234
1724.00,0.0237
1723.00,0.0240
1722.00,0.0242
1721.00,0.0245
1720.00,0.0248
1719.00,0.0249
1718.00,0.0250
1717.00,0.0252
1716.00,0.0256
1715.00,0.0259
1714.00,0.0262
1713.00,0.0266
1712.00,0.0269
1711.00,0.0271
1710.00,0.0273
1709.00,0.0275
1708.00,0.0277
1707.00,0.0279
1706.00,0.0279
1705.00,0.0279
1704.00,0.0280
1703.00,0.0281
1702.00,0.0283
1701.00,0.0281
1700.00,0.0278
1699.00,0.0278
1698.00,0.0281
1697.00,0.0285
1696.00,0.0286
1695.00,0.0284
1694.00,0.0284
1693.00,0.0286
1692.00,0.0289
1691.00,0.0291
1690.00,0.0292
1689.00,0.0294
1688.00,0.0295
1687.00,0.0296
1686.00,0.0297
1685.00,0.0297
1684.00,0.0298
1683.00,0.0298
1682.00,0.0299
1681.00,0.0301
1680.00,0.0302
1679.00,0.0303
1678.00,0.0305
1677.00,0.0307
1676.00,0.0309
1675.00,0.0310
1674.00,0.0312
1673.00,0.0313
1672.00,0.0315
1671.00,0.0317
1670.00,0.0319
1669.00,0.0321
1668.00,0.0322
1667.00,0.0323
1666.00,0.0325
1665.00,0.0326
1664.00,0.0327
1663.00,0.0329
1662.00,0.0331
1661.00,0.0333
1660.00,0.0336
1659.00,0.0339
1658.00,0.0341
1657.00,0.0341
1656.00,0.0342
1655.00,0.0342
1654.00,0.0341
1653.00,0.0345
1652.00,0.0347
1651.00,0.0348
1650.00,0.0352
1649.00,0.0356
1648.00,0.0358
1647.00,0.0361
1646.00,0.0363
1645.00,0.0365
1644.00,0.0367
1643.00,0.0368
1642.00,0.0370
1641.00,0.0371
1640.00,0.0372
1639.00,0.0373
1638.00,0.0375
1637.00,0.0378
1636.00,0.0383
1635.00,0.0388
1634.00,0.0390
1633.00,0.0390
1632.00,0.0390
1631.00,0.0391
1630.00,0.0393
1629.00,0.0396
1628.00,0.0398
1627.00,0.0401
1626.00,0.0403
1625.00,0.0406
1624.00,0.0410
1623.00,0.0413
1622.00,0.0415
1621.00,0.0416
1620.00,0.0416
1619.00,0.0416
1618.00,0.0418
1617.00,0.0421
1616.00,0.0425
1615.00,0.0428
1614.00,0.0430
1613.00,0.0432
1612.00,0.0434
1611.00,0.0436
1610.00,0.0438
1609.00,0.0441
1608.00,0.0443
1607.00,0.0445
1606.00,0.0447
1605.00,0.0449
1604.00,0.0451
1603.00,0.0453
1602.00,0.0454
1601.00,0.0455
1600.00,0.0456
1599.00,0.0457
1598.00,0.0459
1597.00,0.0462
1596.00,0.0464
1595.00,0.0467
1594.00,0.0469
1593.00,0.0470
1592.00,0.0472
1591.00,0.0473
1590.00,0.0474
1589.00,0.0476
1588.00,0.0478
1587.00,0.0480
1586.00,0.0482
1585.00,0.0483
1584.00,0.0484
1583.00,0.0486
1582.00,0.0488
1581.00,0.0488
1580.00,0.0489
1579.00,0.0489
1578.00,0.0491
1577.00,0.0494
1576.00,0.0498
1575.00,0.0500
1574.00,0.0499
1573.00,0.0497
1572.00,0.0497
1571.00,0.0498
1570.00,0.0501
1569.00,0.0503
1568.00,0.0504
1567.00,0.0504
1566.00,0.0504
1565.00,0.0502
1564.00,0.0501
1563.00,0.0498
1562.00,0.0495
1561.00,0.0492
1560.00,0.0493
1559.00,0.0503
1558.00,0.0508
1557.00,0.0504
1556.00,0.0500
1555.00,0.0499
1554.00,0.0499
1553.00,0.0498
1552.00,0.0498
1551.00,0.0498
1550.00,0.0497
1549.00,0.0494
1548.00,0.0490
1547.00,0.0487
1546.00,0.0485
1545.00,0.0483
1544.00,0.0481
1543.00,0.0478
1542.00,0.0474
1541.00,0.0472
1540.00,0.0474
1539.00,0.0474
1538.00,0.0471
1537.00,0.0467
1536.00,0.0464
1535.00,0.0463
1534.00,0.0462
1533.00,0.0461
1532.00,0.0459
1531.00,0.0455
1530.00,0.0452
1529.00,0.0450
1528.00,0.0448
1527.00,0.0445
1526.00,0.0442
1525.00,0.0438
1524.00,0.0435
1523.00,0.0433
1522.00,0.0431
1521.00,0.0430
1520.00,0.0430
1519.00,0.0429
1518.00,0.0427
1517.00,0.0425
1516.00,0.0422
1515.00,0.0419
1514.00,0.0416
1513.00,0.0413
1512.00,0.0411
1511.00,0.0409
1510.00,0.0407
1509.00,0.0406
1508.00,0.0405
1507.00,0.0405
1506.00,0.0402
1505.00,0.0397
1504.00,0.0394
1503.00,0.0392
1502.00,0.0391
1501.00,0.0389
1500.00,0.0387
1499.00,0.0386
1498.00,0.0385
1497.00,0.0385
1496.00,0.0385
1495.00,0.0384
1494.00,0.0382
1493.00,0.0381
1492.00,0.0380
1491.00,0.0381
1490.00,0.0382
1489.00,0.0382
1488.00,0.0382
1487.00,0.0380
1486.00,0.0379
1485.00,0.0377
1484.00,0.0376
1483.00,0.0376
1482.00,0.0376
1481.00,0.0376
1480.00,0.0376
1479.00,0.0375
1478.00,0.0376
1477.00,0.0376
1476.00,0.0377
1475.00,0.0376
1474.00,0.0376
1473.00,0.0378
1472.00,0.0382
1471.00,0.0384
1470.00,0.0386
1469.00,0.0388
1468.00,0.0389
1467.00,0.0390
1466.00,0.0391
1465.00,0.0391
1464.00,0.0392
1463.00,0.0391
1462.00,0.0390
1461.00,0.0390
1460.00,0.0390
1459.00,0.0391
1458.00,0.0392
1457.00,0.0395
1456.00,0.0397
1455.00,0.0398
1454.00,0.0398
1453.00,0.0399
1452.00,0.0400
1451.00,0.0401
1450.00,0.0402
1449.00,0.0404
1448.00,0.0406
1447.00,0.0408
1446.00,0.0409
1445.00,0.0410
1444.00,0.0410
1443.00,0.0410
1442.00,0.0410
1441.00,0.0410
1440.00,0.0411
1439.00,0.0412
1438.00,0.0413
1437.00,0.0415
1436.00,0.0418
1435.00,0.0419
1434.00,0.0419
1433.00,0.0419
1432.00,0.0420
1431.00,0.0421
1430.00,0.0421
1429.00,0.0422
1428.00,0.0422
1427.00,0.0423
1426.00,0.0424
1425.00,0.0425
1424.00,0.0426
1423.00,0.0427
1422.00,0.0427
1421.00,0.0427
1420.00,0.0429
1419.00,0.0433
1418.00,0.0436
1417.00,0.0438
1416.00,0.0439
1415.00,0.0439
1414.00,0.0439
1413.00,0.0438
1412.00,0.0438
1411.00,0.0439
1410.00,0.0439
1409.00,0.0439
1408.00,0.0440
1407.00,0.0441
1406.00,0.0443
1405.00,0.0444
1404.00,0.0445
1403.00,0.0445
1402.00,0.0445
1401.00,0.0445
1400.00,0.0446
1399.00,0.0448
1398.00,0.0449
1397.00,0.0450
1396.00,0.0451
1395.00,0.0452
1394.00,0.0453
1393.00,0.0454
1392.00,0.0454
1391.00,0.0455
1390.00,0.0455
1389.00,0.0456
1388.00,0.0458
1387.00,0.0460
1386.00,0.0462
1385.00,0.0462
1384.00,0.0462
1383.00,0.0463
1382.00,0.0464
1381.00,0.0466
1380.00,0.0468
1379.00,0.0469
1378.00,0.0470
1377.00,0.0471
1376.00,0.0473
1375.00,0.0475
1374.00,0.0477
1373.00,0.0477
1372.00,0.0476
1371.00,0.0476
1370.00,0.0476
1369.00,0.0476
1368.00,0.0476
1367.00,0.0476
1366.00,0.0476
1365.00,0.0476
1364.00,0.0476
1363.00,0.0478
1362.00,0.0479
1361.00,0.0479
1360.00,0.0478
1359.00,0.0477
1358.00,0.0477
1357.00,0.0477
1356.00,0.0478
1355.00,0.0478
1354.00,0.0477
1353.00,0.0477
1352.00,0.0475
1351.00,0.0474
1350.00,0.0473
1349.00,0.0472
1348.00,0.0471
1347.00,0.0471
1346.00,0.0470
1345.00,0.0469
1344.00,0.0469
1343.00,0.0468
1342.00,0.0468
1341.00,0.0468
1340.00,0.0469
1339.00,0.0470
1338.00,0.0469
1337.00,0.0468
1336.00,0.0466
1335.00,0.0465
1334.00,0.0464
1333.00,0.0464
1332.00,0.0463
1331.00,0.0463
1330.00,0.0462
1329.00,0.0462
1328.00,0.0461
1327.00,0.0460
1326.00,0.0460
1325.00,0.0459
1324.00,0.0459
1323.00,0.0460
1322.00,0.0460
1321.00,0.0461
1320.00,0.0462
1319.00,0.0462
1318.00,0.0461
1317.00,0.0460
1316.00,0.0458
1315.00,0.0457
1314.00,0.0457
1313.00,0.0458
1312.00,0.0459
1311.00,0.0460
1310.00,0.0460
1309.00,0.0460
1308.00,0.0460
1307.00,0.0459
1306.00,0.0459
1305.00,0.0459
1304.00,0.0460
1303.00,0.0461
1302.00,0.0461
1301.00,0.0462
1300.00,0.0461
1299.00,0.0461
1298.00,0.0460
1297.00,0.0460
1296.00,0.0460
1295.00,0.0461
1294.00,0.0462
1293.00,0.0463
1292.00,0.0464
1291.00,0.0465
1290.00,0.0465
1289.00,0.0466
1288.00,0.0466
1287.00,0.0466
1286.00,0.0465
1285.00,0.0466
1284.00,0.0467
1283.00,0.0468
1282.00,0.0468
1281.00,0.0468
1280.00,0.0467
1279.00,0.0467
1278.00,0.0467
1277.00,0.0466
1276.00,0.0467
1275.00,0.0467
1274.00,0.0468
1273.00,0.0468
1272.00,0.0468
1271.00,0.0468
1270.00,0.0468
1269.00,0.0469
1268.00,0.0469
1267.00,0.0470
1266.00,0.0471
1265.00,0.0471
1264.00,0.0471
1263.00,0.0471
1262.00,0.0470
1261.00,0.0470
1260.00,0.0471
1259.00,0.0471
1258.00,0.0472
1257.00,0.0472
1256.00,0.0471
1255.00,0.0470
1254.00,0.0470
1253.00,0.0471
1252.00,0.0471
1251.00,0.0471
1250.00,0.0470
1249.00,0.0470
1248.00,0.0471
1247.00,0.0472
1246.00,0.0472
1245.00,0.0473
1244.00,0.0474
1243.00,0.0474
1242.00,0.0473
1241.00,0.0473
1240.00,0.0472
1239.00,0.0472
1238.00,0.0472
1237.00,0.0473
1236.00,0.0474
1235.00,0.0474
1234.00,0.0474
1233.00,0.0473
1232.00,0.0473
1231.00,0.0473
1230.00,0.0472
1229.00,0.0472
1228.00,0.0472
1227.00,0.0472
1226.00,0.0472
1225.00,0.0472
1224.00,0.0471
1223.00,0.0470
1222.00,0.0470
1221.00,0.0470
1220.00,0.0470
1219.00,0.0469
1218.00,0.0469
1217.00,0.0469
1216.00,0.0469
1215.00,0.0469
1214.00,0.0468
1213.00,0.0468
1212.00,0.0468
1211.00,0.0468
1210.00,0.0468
1209.00,0.0468
1208.00,0.0467
1207.00,0.0466
1206.00,0.0465
1205.00,0.0464
1204.00,0.0463
1203.00,0.0463
1202.00,0.0462
1201.00,0.0462
1200.00,0.0462
1199.00,0.0462
1198.00,0.0462
1197.00,0.0461
1196.00,0.0460
1195.00,0.0459
1194.00,0.0459
1193.00,0.0459
1192.00,0.0459
1191.00,0.0458
1190.00,0.0457
1189.00,0.0456
1188.00,0.0455
1187.00,0.0454
1186.00,0.0454
1185.00,0.0454
1184.00,0.0454
1183.00,0.0453
1182.00,0.0451
1181.00,0.0450
1180.00,0.0448
1179.00,0.0448
1178.00,0.0448
1177.00,0.0448
1176.00,0.0448
1175.00,0.0449
1174.00,0.0449
1173.00,0.0449
1172.00,0.0448
1171.00,0.0446
1170.00,0.0445
1169.00,0.0444
1168.00,0.0444
1167.00,0.0444
1166.00,0.0444
1165.00,0.0443
1164.00,0.0442
1163.00,0.0442
1162.00,0.0441
1161.00,0.0441
1160.00,0.0441
1159.00,0.0441
1158.00,0.0440
1157.00,0.0440
1156.00,0.0441
1155.00,0.0442
1154.00,0.0442
1153.00,0.0442
1152.00,0.0440
1151.00,0.0438
1150.00,0.0436
1149.00,0.0435
1148.00,0.0434
1147.00,0.0434
1146.00,0.0434
1145.00,0.0434
1144.00,0.0435
1143.00,0.0435
1142.00,0.0435
1141.00,0.0435
1140.00,0.0434
1139.00,0.0433
1138.00,0.0433
1137.00,0.0432
1136.00,0.0433
1135.00,0.0433
1134.00,0.0434
1133.00,0.0434
1132.00,0.0433
1131.00,0.0433
1130.00,0.0433
1129.00,0.0434
1128.00,0.0435
1127.00,0.0434
1126.00,0.0431
1125.00,0.0429
1124.00,0.0429
1123.00,0.0431
1122.00,0.0433
1121.00,0.0435
1120.00,0.0437
1119.00,0.0437
1118.00,0.0437
1117.00,0.0436
1116.00,0.0436
1115.00,0.0437
1114.00,0.0437
1113.00,0.0436
1112.00,0.0434
1111.00,0.0433
1110.00,0.0433
1109.00,0.0433
1108.00,0.0434
1107.00,0.0433
1106.00,0.0432
1105.00,0.0431
1104.00,0.0431
1103.00,0.0432
1102.00,0.0434
1101.00,0.0435
1100.00,0.0435
1099.00,0.0434
1098.00,0.0434
1097.00,0.0433
1096.00,0.0433
1095.00,0.0433
1094.00,0.0433
1093.00,0.0434
1092.00,0.0435
1091.00,0.0436
1090.00,0.0435
1089.00,0.0432
1088.00,0.0430
1087.00,0.0430
1086.00,0.0432
1085.00,0.0434
1084.00,0.0435
1083.00,0.0436
1082.00,0.0437
1081.00,0.0438
1080.00,0.0440
1079.00,0.0441
1078.00,0.0443
1077.00,0.0444
1076.00,0.0444
1075.00,0.0442
1074.00,0.0439
1073.00,0.0437
1072.00,0.0436
1071.00,0.0435
1070.00,0.0434
1069.00,0.0433
1068.00,0.0432
1067.00,0.0433
1066.00,0.0435
1065.00,0.0438
1064.00,0.0440
1063.00,0.0441
1062.00,0.0441
1061.00,0.0439
1060.00,0.0437
1059.00,0.0435
1058.00,0.0436
1057.00,0.0438
1056.00,0.0440
1055.00,0.0441
1054.00,0.0443
1053.00,0.0444
1052.00,0.0444
1051.00,0.0444
1050.00,0.0445
1049.00,0.0446
1048.00,0.0448
1047.00,0.0448
1046.00,0.0448
1045.00,0.0448
1044.00,0.0449
1043.00,0.0450
1042.00,0.0448
1041.00,0.0445
1040.00,0.0444
1039.00,0.0444
1038.00,0.0445
1037.00,0.0445
1036.00,0.0445
1035.00,0.0444
1034.00,0.0444
1033.00,0.0444
1032.00,0.0445
1031.00,0.0445
1030.00,0.0445
1029.00,0.0443
1028.00,0.0442
1027.00,0.0441
1026.00,0.0441
1025.00,0.0442
1024.00,0.0442
1023.00,0.0441
1022.00,0.0439
1021.00,0.0436
1020.00,0.0434
1019.00,0.0432
1018.00,0.0430
1017.00,0.0430
1016.00,0.0431
1015.00,0.0433
1014.00,0.0433
1013.00,0.0433
1012.00,0.0432
1011.00,0.0430
1010.00,0.0429
1009.00,0.0428
1008.00,0.0427
1007.00,0.0425
1006.00,0.0424
1005.00,0.0423
1004.00,0.0423
1003.00,0.0423
1002.00,0.0423
1001.00,0.0422
1000.00,0.0420
999.00,0.0417
998.00,0.0415
997.00,0.0415
996.00,0.0416
995.00,0.0417
994.00,0.0416
993.00,0.0414
992.00,0.0411
991.00,0.0409
990.00,0.0408
989.00,0.0407
988.00,0.0408
987.00,0.0409
986.00,0.0410
985.00,0.0410
984.00,0.0409
983.00,0.0406
982.00,0.0404
981.00,0.0404
980.00,0.0404
979.00,0.0404
978.00,0.0402
977.00,0.0399
976.00,0.0397
975.00,0.0395
974.00,0.0394
973.00,0.0395
972.00,0.0395
971.00,0.0394
970.00,0.0392
969.00,0.0388
968.00,0.0386
967.00,0.0384
966.00,0.0383
965.00,0.0382
964.00,0.0382
963.00,0.0382
962.00,0.0383
961.00,0.0382
960.00,0.0381
959.00,0.0380
958.00,0.0379
957.00,0.0378
956.00,0.0378
955.00,0.0377
954.00,0.0376
953.00,0.0376
952.00,0.0376
951.00,0.0377
950.00,0.0379
949.00,0.0379
948.00,0.0379
947.00,0.0377
946.00,0.0375
945.00,0.0374
944.00,0.0373
943.00,0.0372
942.00,0.0371
941.00,0.0372
940.00,0.0374
939.00,0.0376
938.00,0.0378
937.00,0.0377
936.00,0.0376
935.00,0.0374
934.00,0.0374
933.00,0.0376
932.00,0.0378
931.00,0.0381
930.00,0.0383
929.00,0.0384
928.00,0.0385
927.00,0.0386
926.00,0.0387
925.00,0.0388
924.00,0.0388
923.00,0.0389
922.00,0.0389
921.00,0.0389
920.00,0.0389
919.00,0.0388
918.00,0.0388
917.00,0.0389
916.00,0.0390
915.00,0.0392
914.00,0.0393
913.00,0.0393
912.00,0.0392
911.00,0.0392
910.00,0.0390
909.00,0.0388
908.00,0.0387
907.00,0.0386
906.00,0.0388
905.00,0.0391
904.00,0.0395
903.00,0.0400
902.00,0.0402
901.00,0.0402
900.00,0.0400
899.00,0.0399
898.00,0.0400
897.00,0.0401
896.00,0.0402
895.00,0.0402
894.00,0.0401
893.00,0.0400
892.00,0.0399
891.00,0.0399
890.00,0.0400
889.00,0.0401
888.00,0.0402
887.00,0.0401
886.00,0.0398
885.00,0.0396
884.00,0.0396
883.00,0.0398
882.00,0.0400
881.00,0.0400
880.00,0.0399
879.00,0.0398
878.00,0.0396
877.00,0.0394
876.00,0.0393
875.00,0.0393
874.00,0.0394
873.00,0.0395
872.00,0.0397
871.00,0.0398
870.00,0.0398
869.00,0.0398
868.00,0.0397
867.00,0.0397
866.00,0.0396
865.00,0.0397
864.00,0.0397
863.00,0.0397
862.00,0.0399
861.00,0.0401
860.00,0.0402
859.00,0.0402
858.00,0.0401
857.00,0.0399
856.00,0.0399
855.00,0.0401
854.00,0.0403
853.00,0.0403
852.00,0.0403
851.00,0.0403
850.00,0.0405
849.00,0.0407
848.00,0.0409
847.00,0.0411
846.00,0.0413
845.00,0.0415
844.00,0.0416
843.00,0.0416
842.00,0.0415
841.00,0.0414
840.00,0.0413
839.00,0.0412
838.00,0.0413
837.00,0.0415
836.00,0.0416
835.00,0.0417
834.00,0.0416
833.00,0.0415
832.00,0.0415
831.00,0.0415
830.00,0.0415
829.00,0.0417
828.00,0.0419
827.00,0.0421
826.00,0.0425
825.00,0.0428
824.00,0.0431
823.00,0.0433
822.00,0.0434
821.00,0.0436
820.00,0.0439
819.00,0.0442
818.00,0.0443
817.00,0.0441
816.00,0.0439
815.00,0.0438
814.00,0.0439
813.00,0.0441
812.00,0.0442
811.00,0.0442
810.00,0.0442
809.00,0.0442
808.00,0.0443
807.00,0.0443
806.00,0.0444
805.00,0.0443
804.00,0.0444
803.00,0.0444
802.00,0.0446
801.00,0.0448
800.00,0.0452
799.00,0.0454
798.00,0.0455
797.00,0.0455
796.00,0.0455
795.00,0.0456
794.00,0.0457
793.00,0.0457
792.00,0.0458
791.00,0.0460
790.00,0.0462
789.00,0.0464
788.00,0.0463
787.00,0.0463
786.00,0.0464
785.00,0.0466
784.00,0.0469
783.00,0.0471
782.00,0.0471
781.00,0.0472
780.00,0.0472
779.00,0.0472
778.00,0.0472
777.00,0.0473
776.00,0.0475
775.00,0.0475
774.00,0.0475
773.00,0.0475
772.00,0.0475
771.00,0.0476
770.00,0.0478
769.00,0.0479
768.00,0.0481
767.00,0.0482
766.00,0.0482
765.00,0.0482
764.00,0.0483
763.00,0.0484
762.00,0.0483
761.00,0.0482
760.00,0.0481
759.00,0.0483
758.00,0.0485
757.00,0.0488
756.00,0.0489
755.00,0.0489
754.00,0.0489
753.00,0.0489
752.00,0.0491
751.00,0.0494
750.00,0.0498
749.00,0.0501
748.00,0.0503
747.00,0.0503
746.00,0.0502
745.00,0.0500
744.00,0.0498
743.00,0.0498
742.00,0.0498
741.00,0.0498
740.00,0.0497
739.00,0.0496
738.00,0.0494
737.00,0.0494
736.00,0.0494
735.00,0.0495
734.00,0.0495
733.00,0.0495
732.00,0.0495
731.00,0.0495
730.00,0.0496
729.00,0.0500
728.00,0.0506
727.00,0.0512
726.00,0.0516
725.00,0.0517
724.00,0.0516
723.00,0.0514
722.00,0.0513
721.00,0.0513
720.00,0.0514
719.00,0.0515
718.00,0.0516
717.00,0.0516
716.00,0.0516
715.00,0.0515
714.00,0.0514
713.00,0.0515
712.00,0.0518
711.00,0.0520
710.00,0.0520
709.00,0.0520
708.00,0.0521
707.00,0.0522
706.00,0.0524
705.00,0.0527
704.00,0.0530
703.00,0.0533
702.00,0.0534
701.00,0.0531
700.00,0.0529
699.00,0.0528
698.00,0.0530
697.00,0.0533
696.00,0.0534
695.00,0.0534
694.00,0.0534
693.00,0.0536
692.00,0.0538
691.00,0.0540
690.00,0.0542
689.00,0.0544
688.00,0.0546
687.00,0.0546
686.00,0.0546
685.00,0.0546
684.00,0.0545
683.00,0.0543
682.00,0.0541
681.00,0.0542
680.00,0.0546
679.00,0.0549
678.00,0.0552
677.00,0.0554
676.00,0.0555
675.00,0.0555
674.00,0.0556
673.00,0.0557
672.00,0.0560
671.00,0.0563
670.00,0.0566
669.00,0.0571
668.00,0.0579
667.00,0.0583
666.00,0.0583
665.00,0.0582
664.00,0.0581
663.00,0.0579
662.00,0.0573
661.00,0.0566
660.00,0.0561
659.00,0.0559
658.00,0.0564
657.00,0.0573
656.00,0.0583
655.00,0.0586
654.00,0.0582
653.00,0.0573
652.00,0.0566
651.00,0.0564
650.00,0.0564
