Created as New Dataset,Monday, April 03 2023
cm-1,A
4000.00,0.0007
3999.00,0.0007
3998.00,0.0007
3997.00,0.0007
3996.00,0.0007
3995.00,0.0007
3994.00,0.0007
3993.00,0.0007
3992.00,0.0007
3991.00,0.0006
3990.00,0.0006
3989.00,0.0006
3988.00,0.0006
3987.00,0.0006
3986.00,0.0006
3985.00,0.0007
3984.00,0.0007
3983.00,0.0007
3982.00,0.0007
3981.00,0.0007
3980.00,0.0007
3979.00,0.0006
3978.00,0.0006
3977.00,0.0005
3976.00,0.0005
3975.00,0.0005
3974.00,0.0005
3973.00,0.0005
3972.00,0.0005
3971.00,0.0006
3970.00,0.0007
3969.00,0.0007
3968.00,0.0007
3967.00,0.0006
3966.00,0.0006
3965.00,0.0005
3964.00,0.0006
3963.00,0.0006
3962.00,0.0007
3961.00,0.0007
3960.00,0.0006
3959.00,0.0006
3958.00,0.0005
3957.00,0.0005
3956.00,0.0005
3955.00,0.0004
3954.00,0.0004
3953.00,0.0003
3952.00,0.0004
3951.00,0.0005
3950.00,0.0005
3949.00,0.0006
3948.00,0.0007
3947.00,0.0007
3946.00,0.0007
3945.00,0.0007
3944.00,0.0006
3943.00,0.0005
3942.00,0.0004
3941.00,0.0004
3940.00,0.0005
3939.00,0.0005
3938.00,0.0006
3937.00,0.0006
3936.00,0.0006
3935.00,0.0005
3934.00,0.0005
3933.00,0.0004
3932.00,0.0004
3931.00,0.0005
3930.00,0.0005
3929.00,0.0006
3928.00,0.0006
3927.00,0.0006
3926.00,0.0006
3925.00,0.0006
3924.00,0.0006
3923.00,0.0006
3922.00,0.0006
3921.00,0.0006
3920.00,0.0006
3919.00,0.0006
3918.00,0.0006
3917.00,0.0007
3916.00,0.0007
3915.00,0.0007
3914.00,0.0006
3913.00,0.0006
3912.00,0.0006
3911.00,0.0005
3910.00,0.0005
3909.00,0.0005
3908.00,0.0005
3907.00,0.0005
3906.00,0.0005
3905.00,0.0005
3904.00,0.0005
3903.00,0.0007
3902.00,0.0008
3901.00,0.0009
3900.00,0.0009
3899.00,0.0009
3898.00,0.0008
3897.00,0.0007
3896.00,0.0006
3895.00,0.0006
3894.00,0.0006
3893.00,0.0006
3892.00,0.0006
3891.00,0.0005
3890.00,0.0005
3889.00,0.0005
3888.00,0.0005
3887.00,0.0004
3886.00,0.0003
3885.00,0.0003
3884.00,0.0004
3883.00,0.0005
3882.00,0.0005
3881.00,0.0005
3880.00,0.0004
3879.00,0.0004
3878.00,0.0006
3877.00,0.0008
3876.00,0.0008
3875.00,0.0006
3874.00,0.0005
3873.00,0.0004
3872.00,0.0005
3871.00,0.0005
3870.00,0.0005
3869.00,0.0005
3868.00,0.0005
3867.00,0.0006
3866.00,0.0005
3865.00,0.0005
3864.00,0.0006
3863.00,0.0007
3862.00,0.0007
3861.00,0.0007
3860.00,0.0006
3859.00,0.0005
3858.00,0.0004
3857.00,0.0003
3856.00,0.0003
3855.00,0.0002
3854.00,0.0002
3853.00,0.0003
3852.00,0.0005
3851.00,0.0005
3850.00,0.0005
3849.00,0.0004
3848.00,0.0004
3847.00,0.0003
3846.00,0.0004
3845.00,0.0004
3844.00,0.0003
3843.00,0.0003
3842.00,0.0003
3841.00,0.0003
3840.00,0.0004
3839.00,0.0005
3838.00,0.0005
3837.00,0.0005
3836.00,0.0005
3835.00,0.0006
3834.00,0.0006
3833.00,0.0006
3832.00,0.0006
3831.00,0.0006
3830.00,0.0006
3829.00,0.0006
3828.00,0.0005
3827.00,0.0004
3826.00,0.0004
3825.00,0.0005
3824.00,0.0007
3823.00,0.0009
3822.00,0.0008
3821.00,0.0007
3820.00,0.0005
3819.00,0.0005
3818.00,0.0006
3817.00,0.0006
3816.00,0.0006
3815.00,0.0006
3814.00,0.0007
3813.00,0.0007
3812.00,0.0006
3811.00,0.0005
3810.00,0.0004
3809.00,0.0004
3808.00,0.0005
3807.00,0.0004
3806.00,0.0005
3805.00,0.0006
3804.00,0.0008
3803.00,0.0008
3802.00,0.0008
3801.00,0.0007
3800.00,0.0007
3799.00,0.0008
3798.00,0.0008
3797.00,0.0007
3796.00,0.0006
3795.00,0.0006
3794.00,0.0006
3793.00,0.0006
3792.00,0.0006
3791.00,0.0006
3790.00,0.0006
3789.00,0.0006
3788.00,0.0007
3787.00,0.0007
3786.00,0.0007
3785.00,0.0007
3784.00,0.0007
3783.00,0.0008
3782.00,0.0008
3781.00,0.0007
3780.00,0.0007
3779.00,0.0006
3778.00,0.0006
3777.00,0.0007
3776.00,0.0007
3775.00,0.0007
3774.00,0.0006
3773.00,0.0006
3772.00,0.0007
3771.00,0.0006
3770.00,0.0005
3769.00,0.0005
3768.00,0.0005
3767.00,0.0006
3766.00,0.0006
3765.00,0.0006
3764.00,0.0006
3763.00,0.0007
3762.00,0.0008
3761.00,0.0008
3760.00,0.0007
3759.00,0.0006
3758.00,0.0005
3757.00,0.0005
3756.00,0.0004
3755.00,0.0003
3754.00,0.0003
3753.00,0.0002
3752.00,0.0002
3751.00,0.0002
3750.00,0.0003
3749.00,0.0004
3748.00,0.0006
3747.00,0.0009
3746.00,0.0011
3745.00,0.0010
3744.00,0.0008
3743.00,0.0007
3742.00,0.0006
3741.00,0.0006
3740.00,0.0006
3739.00,0.0007
3738.00,0.0008
3737.00,0.0009
3736.00,0.0009
3735.00,0.0009
3734.00,0.0009
3733.00,0.0009
3732.00,0.0008
3731.00,0.0007
3730.00,0.0006
3729.00,0.0006
3728.00,0.0006
3727.00,0.0006
3726.00,0.0006
3725.00,0.0006
3724.00,0.0006
3723.00,0.0007
3722.00,0.0007
3721.00,0.0007
3720.00,0.0008
3719.00,0.0008
3718.00,0.0007
3717.00,0.0006
3716.00,0.0005
3715.00,0.0006
3714.00,0.0006
3713.00,0.0007
3712.00,0.0007
3711.00,0.0007
3710.00,0.0007
3709.00,0.0007
3708.00,0.0006
3707.00,0.0007
3706.00,0.0008
3705.00,0.0008
3704.00,0.0008
3703.00,0.0008
3702.00,0.0007
3701.00,0.0007
3700.00,0.0007
3699.00,0.0007
3698.00,0.0007
3697.00,0.0006
3696.00,0.0005
3695.00,0.0005
3694.00,0.0004
3693.00,0.0004
3692.00,0.0004
3691.00,0.0005
3690.00,0.0007
3689.00,0.0008
3688.00,0.0007
3687.00,0.0007
3686.00,0.0007
3685.00,0.0007
3684.00,0.0006
3683.00,0.0006
3682.00,0.0005
3681.00,0.0004
3680.00,0.0003
3679.00,0.0002
3678.00,0.0002
3677.00,0.0001
3676.00,0.0001
3675.00,0.0000
3674.00,0.0001
3673.00,0.0002
3672.00,0.0003
3671.00,0.0003
3670.00,0.0004
3669.00,0.0005
3668.00,0.0005
3667.00,0.0004
3666.00,0.0003
3665.00,0.0003
3664.00,0.0003
3663.00,0.0002
3662.00,0.0002
3661.00,0.0003
3660.00,0.0003
3659.00,0.0004
3658.00,0.0005
3657.00,0.0005
3656.00,0.0004
3655.00,0.0004
3654.00,0.0005
3653.00,0.0006
3652.00,0.0005
3651.00,0.0003
3650.00,0.0002
3649.00,0.0002
3648.00,0.0004
3647.00,0.0004
3646.00,0.0004
3645.00,0.0004
3644.00,0.0004
3643.00,0.0004
3642.00,0.0004
3641.00,0.0003
3640.00,0.0003
3639.00,0.0003
3638.00,0.0004
3637.00,0.0004
3636.00,0.0004
3635.00,0.0004
3634.00,0.0003
3633.00,0.0003
3632.00,0.0004
3631.00,0.0004
3630.00,0.0004
3629.00,0.0004
3628.00,0.0004
3627.00,0.0004
3626.00,0.0004
3625.00,0.0003
3624.00,0.0002
3623.00,0.0002
3622.00,0.0002
3621.00,0.0003
3620.00,0.0004
3619.00,0.0004
3618.00,0.0005
3617.00,0.0005
3616.00,0.0005
3615.00,0.0005
3614.00,0.0004
3613.00,0.0004
3612.00,0.0004
3611.00,0.0004
3610.00,0.0005
3609.00,0.0006
3608.00,0.0006
3607.00,0.0006
3606.00,0.0005
3605.00,0.0004
3604.00,0.0003
3603.00,0.0003
3602.00,0.0004
3601.00,0.0005
3600.00,0.0005
3599.00,0.0005
3598.00,0.0004
3597.00,0.0003
3596.00,0.0003
3595.00,0.0003
3594.00,0.0002
3593.00,0.0002
3592.00,0.0002
3591.00,0.0002
3590.00,0.0003
3589.00,0.0003
3588.00,0.0003
3587.00,0.0004
3586.00,0.0004
3585.00,0.0004
3584.00,0.0003
3583.00,0.0003
3582.00,0.0003
3581.00,0.0003
3580.00,0.0003
3579.00,0.0002
3578.00,0.0002
3577.00,0.0002
3576.00,0.0002
3575.00,0.0002
3574.00,0.0002
3573.00,0.0002
3572.00,0.0002
3571.00,0.0002
3570.00,0.0002
3569.00,0.0002
3568.00,0.0002
3567.00,0.0003
3566.00,0.0003
3565.00,0.0003
3564.00,0.0003
3563.00,0.0002
3562.00,0.0002
3561.00,0.0002
3560.00,0.0002
3559.00,0.0003
3558.00,0.0003
3557.00,0.0003
3556.00,0.0004
3555.00,0.0004
3554.00,0.0004
3553.00,0.0004
3552.00,0.0005
3551.00,0.0005
3550.00,0.0005
3549.00,0.0005
3548.00,0.0004
3547.00,0.0004
3546.00,0.0004
3545.00,0.0005
3544.00,0.0005
3543.00,0.0005
3542.00,0.0005
3541.00,0.0005
3540.00,0.0004
3539.00,0.0003
3538.00,0.0002
3537.00,0.0001
3536.00,0.0001
3535.00,0.0001
3534.00,0.0002
3533.00,0.0003
3532.00,0.0003
3531.00,0.0003
3530.00,0.0003
3529.00,0.0001
3528.00,0.0000
3527.00,-0.0000
3526.00,0.0001
3525.00,0.0002
3524.00,0.0004
3523.00,0.0005
3522.00,0.0005
3521.00,0.0004
3520.00,0.0003
3519.00,0.0001
3518.00,-0.0000
3517.00,-0.0001
3516.00,-0.0001
3515.00,-0.0001
3514.00,0.0000
3513.00,0.0001
3512.00,0.0001
3511.00,0.0001
3510.00,0.0000
3509.00,-0.0000
3508.00,-0.0000
3507.00,-0.0000
3506.00,-0.0000
3505.00,0.0000
3504.00,0.0000
3503.00,0.0001
3502.00,0.0001
3501.00,0.0002
3500.00,0.0001
3499.00,0.0001
3498.00,0.0001
3497.00,0.0002
3496.00,0.0002
3495.00,0.0002
3494.00,0.0001
3493.00,0.0001
3492.00,0.0000
3491.00,-0.0001
3490.00,-0.0001
3489.00,-0.0001
3488.00,-0.0001
3487.00,-0.0001
3486.00,-0.0001
3485.00,-0.0001
3484.00,-0.0001
3483.00,-0.0001
3482.00,-0.0002
3481.00,-0.0002
3480.00,-0.0002
3479.00,-0.0002
3478.00,-0.0002
3477.00,-0.0001
3476.00,-0.0001
3475.00,-0.0001
3474.00,-0.0001
3473.00,-0.0001
3472.00,-0.0000
3471.00,-0.0000
3470.00,0.0000
3469.00,0.0001
3468.00,0.0001
3467.00,0.0001
3466.00,0.0001
3465.00,0.0001
3464.00,0.0001
3463.00,-0.0001
3462.00,-0.0002
3461.00,-0.0004
3460.00,-0.0003
3459.00,-0.0002
3458.00,-0.0001
3457.00,-0.0001
3456.00,-0.0002
3455.00,-0.0002
3454.00,-0.0003
3453.00,-0.0003
3452.00,-0.0002
3451.00,-0.0002
3450.00,-0.0002
3449.00,-0.0002
3448.00,-0.0002
3447.00,-0.0003
3446.00,-0.0003
3445.00,-0.0002
3444.00,-0.0002
3443.00,-0.0002
3442.00,-0.0002
3441.00,-0.0003
3440.00,-0.0004
3439.00,-0.0004
3438.00,-0.0004
3437.00,-0.0004
3436.00,-0.0005
3435.00,-0.0005
3434.00,-0.0006
3433.00,-0.0005
3432.00,-0.0005
3431.00,-0.0004
3430.00,-0.0004
3429.00,-0.0004
3428.00,-0.0005
3427.00,-0.0005
3426.00,-0.0005
3425.00,-0.0004
3424.00,-0.0003
3423.00,-0.0003
3422.00,-0.0003
3421.00,-0.0003
3420.00,-0.0003
3419.00,-0.0003
3418.00,-0.0004
3417.00,-0.0004
3416.00,-0.0005
3415.00,-0.0005
3414.00,-0.0005
3413.00,-0.0005
3412.00,-0.0005
3411.00,-0.0005
3410.00,-0.0005
3409.00,-0.0005
3408.00,-0.0004
3407.00,-0.0004
3406.00,-0.0004
3405.00,-0.0005
3404.00,-0.0005
3403.00,-0.0006
3402.00,-0.0006
3401.00,-0.0006
3400.00,-0.0006
3399.00,-0.0005
3398.00,-0.0006
3397.00,-0.0006
3396.00,-0.0007
3395.00,-0.0007
3394.00,-0.0007
3393.00,-0.0007
3392.00,-0.0006
3391.00,-0.0006
3390.00,-0.0005
3389.00,-0.0005
3388.00,-0.0006
3387.00,-0.0006
3386.00,-0.0007
3385.00,-0.0007
3384.00,-0.0007
3383.00,-0.0006
3382.00,-0.0006
3381.00,-0.0005
3380.00,-0.0005
3379.00,-0.0005
3378.00,-0.0005
3377.00,-0.0006
3376.00,-0.0006
3375.00,-0.0006
3374.00,-0.0006
3373.00,-0.0006
3372.00,-0.0007
3371.00,-0.0007
3370.00,-0.0007
3369.00,-0.0007
3368.00,-0.0007
3367.00,-0.0007
3366.00,-0.0008
3365.00,-0.0009
3364.00,-0.0009
3363.00,-0.0008
3362.00,-0.0007
3361.00,-0.0006
3360.00,-0.0005
3359.00,-0.0004
3358.00,-0.0005
3357.00,-0.0005
3356.00,-0.0006
3355.00,-0.0006
3354.00,-0.0007
3353.00,-0.0007
3352.00,-0.0007
3351.00,-0.0007
3350.00,-0.0006
3349.00,-0.0006
3348.00,-0.0006
3347.00,-0.0006
3346.00,-0.0007
3345.00,-0.0007
3344.00,-0.0007
3343.00,-0.0008
3342.00,-0.0008
3341.00,-0.0007
3340.00,-0.0007
3339.00,-0.0006
3338.00,-0.0006
3337.00,-0.0006
3336.00,-0.0007
3335.00,-0.0007
3334.00,-0.0007
3333.00,-0.0007
3332.00,-0.0008
3331.00,-0.0009
3330.00,-0.0009
3329.00,-0.0010
3328.00,-0.0009
3327.00,-0.0009
3326.00,-0.0008
3325.00,-0.0007
3324.00,-0.0007
3323.00,-0.0007
3322.00,-0.0007
3321.00,-0.0008
3320.00,-0.0008
3319.00,-0.0008
3318.00,-0.0008
3317.00,-0.0009
3316.00,-0.0009
3315.00,-0.0009
3314.00,-0.0009
3313.00,-0.0009
3312.00,-0.0009
3311.00,-0.0009
3310.00,-0.0008
3309.00,-0.0008
3308.00,-0.0007
3307.00,-0.0007
3306.00,-0.0007
3305.00,-0.0008
3304.00,-0.0008
3303.00,-0.0008
3302.00,-0.0008
3301.00,-0.0008
3300.00,-0.0008
3299.00,-0.0008
3298.00,-0.0008
3297.00,-0.0008
3296.00,-0.0007
3295.00,-0.0007
3294.00,-0.0007
3293.00,-0.0007
3292.00,-0.0008
3291.00,-0.0008
3290.00,-0.0008
3289.00,-0.0008
3288.00,-0.0008
3287.00,-0.0007
3286.00,-0.0007
3285.00,-0.0007
3284.00,-0.0007
3283.00,-0.0007
3282.00,-0.0007
3281.00,-0.0007
3280.00,-0.0007
3279.00,-0.0008
3278.00,-0.0008
3277.00,-0.0008
3276.00,-0.0008
3275.00,-0.0008
3274.00,-0.0008
3273.00,-0.0007
3272.00,-0.0006
3271.00,-0.0006
3270.00,-0.0006
3269.00,-0.0006
3268.00,-0.0006
3267.00,-0.0006
3266.00,-0.0007
3265.00,-0.0008
3264.00,-0.0008
3263.00,-0.0009
3262.00,-0.0009
3261.00,-0.0008
3260.00,-0.0008
3259.00,-0.0007
3258.00,-0.0007
3257.00,-0.0008
3256.00,-0.0008
3255.00,-0.0009
3254.00,-0.0009
3253.00,-0.0008
3252.00,-0.0008
3251.00,-0.0008
3250.00,-0.0008
3249.00,-0.0009
3248.00,-0.0009
3247.00,-0.0009
3246.00,-0.0010
3245.00,-0.0010
3244.00,-0.0009
3243.00,-0.0009
3242.00,-0.0009
3241.00,-0.0009
3240.00,-0.0009
3239.00,-0.0009
3238.00,-0.0009
3237.00,-0.0008
3236.00,-0.0007
3235.00,-0.0007
3234.00,-0.0007
3233.00,-0.0007
3232.00,-0.0007
3231.00,-0.0007
3230.00,-0.0008
3229.00,-0.0008
3228.00,-0.0008
3227.00,-0.0009
3226.00,-0.0009
3225.00,-0.0009
3224.00,-0.0009
3223.00,-0.0009
3222.00,-0.0009
3221.00,-0.0009
3220.00,-0.0010
3219.00,-0.0010
3218.00,-0.0010
3217.00,-0.0010
3216.00,-0.0009
3215.00,-0.0008
3214.00,-0.0008
3213.00,-0.0008
3212.00,-0.0009
3211.00,-0.0010
3210.00,-0.0011
3209.00,-0.0011
3208.00,-0.0010
3207.00,-0.0010
3206.00,-0.0009
3205.00,-0.0008
3204.00,-0.0008
3203.00,-0.0007
3202.00,-0.0007
3201.00,-0.0008
3200.00,-0.0008
3199.00,-0.0008
3198.00,-0.0008
3197.00,-0.0009
3196.00,-0.0009
3195.00,-0.0009
3194.00,-0.0009
3193.00,-0.0009
3192.00,-0.0009
3191.00,-0.0009
3190.00,-0.0010
3189.00,-0.0010
3188.00,-0.0010
3187.00,-0.0011
3186.00,-0.0011
3185.00,-0.0010
3184.00,-0.0010
3183.00,-0.0009
3182.00,-0.0009
3181.00,-0.0008
3180.00,-0.0009
3179.00,-0.0009
3178.00,-0.0010
3177.00,-0.0011
3176.00,-0.0011
3175.00,-0.0011
3174.00,-0.0010
3173.00,-0.0010
3172.00,-0.0010
3171.00,-0.0010
3170.00,-0.0009
3169.00,-0.0010
3168.00,-0.0010
3167.00,-0.0009
3166.00,-0.0009
3165.00,-0.0008
3164.00,-0.0007
3163.00,-0.0007
3162.00,-0.0007
3161.00,-0.0008
3160.00,-0.0010
3159.00,-0.0011
3158.00,-0.0012
3157.00,-0.0012
3156.00,-0.0012
3155.00,-0.0011
3154.00,-0.0010
3153.00,-0.0009
3152.00,-0.0009
3151.00,-0.0009
3150.00,-0.0009
3149.00,-0.0010
3148.00,-0.0010
3147.00,-0.0010
3146.00,-0.0010
3145.00,-0.0010
3144.00,-0.0010
3143.00,-0.0009
3142.00,-0.0010
3141.00,-0.0010
3140.00,-0.0010
3139.00,-0.0010
3138.00,-0.0009
3137.00,-0.0009
3136.00,-0.0008
3135.00,-0.0008
3134.00,-0.0009
3133.00,-0.0009
3132.00,-0.0009
3131.00,-0.0009
3130.00,-0.0009
3129.00,-0.0009
3128.00,-0.0009
3127.00,-0.0009
3126.00,-0.0009
3125.00,-0.0009
3124.00,-0.0010
3123.00,-0.0010
3122.00,-0.0010
3121.00,-0.0010
3120.00,-0.0010
3119.00,-0.0009
3118.00,-0.0009
3117.00,-0.0009
3116.00,-0.0009
3115.00,-0.0010
3114.00,-0.0009
3113.00,-0.0009
3112.00,-0.0009
3111.00,-0.0009
3110.00,-0.0009
3109.00,-0.0010
3108.00,-0.0010
3107.00,-0.0009
3106.00,-0.0009
3105.00,-0.0009
3104.00,-0.0009
3103.00,-0.0009
3102.00,-0.0010
3101.00,-0.0010
3100.00,-0.0010
3099.00,-0.0011
3098.00,-0.0011
3097.00,-0.0011
3096.00,-0.0010
3095.00,-0.0009
3094.00,-0.0008
3093.00,-0.0008
3092.00,-0.0008
3091.00,-0.0008
3090.00,-0.0009
3089.00,-0.0010
3088.00,-0.0010
3087.00,-0.0010
3086.00,-0.0010
3085.00,-0.0010
3084.00,-0.0009
3083.00,-0.0009
3082.00,-0.0009
3081.00,-0.0009
3080.00,-0.0009
3079.00,-0.0008
3078.00,-0.0008
3077.00,-0.0008
3076.00,-0.0008
3075.00,-0.0008
3074.00,-0.0008
3073.00,-0.0008
3072.00,-0.0008
3071.00,-0.0008
3070.00,-0.0008
3069.00,-0.0008
3068.00,-0.0008
3067.00,-0.0008
3066.00,-0.0009
3065.00,-0.0009
3064.00,-0.0010
3063.00,-0.0010
3062.00,-0.0010
3061.00,-0.0009
3060.00,-0.0009
3059.00,-0.0008
3058.00,-0.0008
3057.00,-0.0008
3056.00,-0.0008
3055.00,-0.0008
3054.00,-0.0008
3053.00,-0.0008
3052.00,-0.0008
3051.00,-0.0008
3050.00,-0.0008
3049.00,-0.0007
3048.00,-0.0007
3047.00,-0.0007
3046.00,-0.0007
3045.00,-0.0008
3044.00,-0.0008
3043.00,-0.0009
3042.00,-0.0009
3041.00,-0.0009
3040.00,-0.0009
3039.00,-0.0009
3038.00,-0.0009
3037.00,-0.0008
3036.00,-0.0008
3035.00,-0.0008
3034.00,-0.0007
3033.00,-0.0007
3032.00,-0.0007
3031.00,-0.0008
3030.00,-0.0008
3029.00,-0.0009
3028.00,-0.0009
3027.00,-0.0009
3026.00,-0.0009
3025.00,-0.0009
3024.00,-0.0009
3023.00,-0.0009
3022.00,-0.0009
3021.00,-0.0009
3020.00,-0.0010
3019.00,-0.0010
3018.00,-0.0011
3017.00,-0.0011
3016.00,-0.0011
3015.00,-0.0012
3014.00,-0.0013
3013.00,-0.0013
3012.00,-0.0014
3011.00,-0.0014
3010.00,-0.0014
3009.00,-0.0015
3008.00,-0.0017
3007.00,-0.0018
3006.00,-0.0019
3005.00,-0.0020
3004.00,-0.0021
3003.00,-0.0022
3002.00,-0.0023
3001.00,-0.0025
3000.00,-0.0026
2999.00,-0.0027
2998.00,-0.0029
2997.00,-0.0030
2996.00,-0.0030
2995.00,-0.0030
2994.00,-0.0030
2993.00,-0.0031
2992.00,-0.0032
2991.00,-0.0033
2990.00,-0.0034
2989.00,-0.0035
2988.00,-0.0036
2987.00,-0.0038
2986.00,-0.0040
2985.00,-0.0043
2984.00,-0.0047
2983.00,-0.0049
2982.00,-0.0051
2981.00,-0.0051
2980.00,-0.0049
2979.00,-0.0047
2978.00,-0.0045
2977.00,-0.0043
2976.00,-0.0041
2975.00,-0.0041
2974.00,-0.0041
2973.00,-0.0042
2972.00,-0.0043
2971.00,-0.0043
2970.00,-0.0041
2969.00,-0.0039
2968.00,-0.0037
2967.00,-0.0036
2966.00,-0.0035
2965.00,-0.0035
2964.00,-0.0034
2963.00,-0.0033
2962.00,-0.0032
2961.00,-0.0031
2960.00,-0.0031
2959.00,-0.0031
2958.00,-0.0031
2957.00,-0.0030
2956.00,-0.0029
2955.00,-0.0028
2954.00,-0.0027
2953.00,-0.0026
2952.00,-0.0025
2951.00,-0.0025
2950.00,-0.0024
2949.00,-0.0023
2948.00,-0.0023
2947.00,-0.0022
2946.00,-0.0022
2945.00,-0.0022
2944.00,-0.0021
2943.00,-0.0020
2942.00,-0.0019
2941.00,-0.0019
2940.00,-0.0019
2939.00,-0.0019
2938.00,-0.0020
2937.00,-0.0020
2936.00,-0.0020
2935.00,-0.0020
2934.00,-0.0019
2933.00,-0.0019
2932.00,-0.0020
2931.00,-0.0020
2930.00,-0.0020
2929.00,-0.0020
2928.00,-0.0019
2927.00,-0.0019
2926.00,-0.0020
2925.00,-0.0020
2924.00,-0.0021
2923.00,-0.0021
2922.00,-0.0021
2921.00,-0.0022
2920.00,-0.0023
2919.00,-0.0024
2918.00,-0.0025
2917.00,-0.0026
2916.00,-0.0026
2915.00,-0.0025
2914.00,-0.0024
2913.00,-0.0023
2912.00,-0.0022
2911.00,-0.0021
2910.00,-0.0021
2909.00,-0.0021
2908.00,-0.0021
2907.00,-0.0021
2906.00,-0.0021
2905.00,-0.0021
2904.00,-0.0021
2903.00,-0.0021
2902.00,-0.0021
2901.00,-0.0021
2900.00,-0.0021
2899.00,-0.0021
2898.00,-0.0021
2897.00,-0.0021
2896.00,-0.0021
2895.00,-0.0021
2894.00,-0.0022
2893.00,-0.0022
2892.00,-0.0022
2891.00,-0.0022
2890.00,-0.0022
2889.00,-0.0022
2888.00,-0.0022
2887.00,-0.0021
2886.00,-0.0021
2885.00,-0.0022
2884.00,-0.0022
2883.00,-0.0022
2882.00,-0.0022
2881.00,-0.0021
2880.00,-0.0020
2879.00,-0.0020
2878.00,-0.0019
2877.00,-0.0019
2876.00,-0.0019
2875.00,-0.0019
2874.00,-0.0019
2873.00,-0.0019
2872.00,-0.0019
2871.00,-0.0019
2870.00,-0.0018
2869.00,-0.0018
2868.00,-0.0017
2867.00,-0.0017
2866.00,-0.0017
2865.00,-0.0016
2864.00,-0.0016
2863.00,-0.0015
2862.00,-0.0015
2861.00,-0.0015
2860.00,-0.0014
2859.00,-0.0013
2858.00,-0.0012
2857.00,-0.0012
2856.00,-0.0012
2855.00,-0.0013
2854.00,-0.0013
2853.00,-0.0014
2852.00,-0.0014
2851.00,-0.0013
2850.00,-0.0013
2849.00,-0.0013
2848.00,-0.0013
2847.00,-0.0013
2846.00,-0.0013
2845.00,-0.0012
2844.00,-0.0012
2843.00,-0.0012
2842.00,-0.0012
2841.00,-0.0012
2840.00,-0.0012
2839.00,-0.0012
2838.00,-0.0013
2837.00,-0.0012
2836.00,-0.0011
2835.00,-0.0010
2834.00,-0.0010
2833.00,-0.0010
2832.00,-0.0011
2831.00,-0.0011
2830.00,-0.0011
2829.00,-0.0011
2828.00,-0.0011
2827.00,-0.0010
2826.00,-0.0010
2825.00,-0.0010
2824.00,-0.0010
2823.00,-0.0010
2822.00,-0.0010
2821.00,-0.0011
2820.00,-0.0011
2819.00,-0.0011
2818.00,-0.0012
2817.00,-0.0012
2816.00,-0.0012
2815.00,-0.0012
2814.00,-0.0012
2813.00,-0.0012
2812.00,-0.0012
2811.00,-0.0012
2810.00,-0.0012
2809.00,-0.0011
2808.00,-0.0011
2807.00,-0.0011
2806.00,-0.0011
2805.00,-0.0011
2804.00,-0.0011
2803.00,-0.0011
2802.00,-0.0012
2801.00,-0.0011
2800.00,-0.0011
2799.00,-0.0010
2798.00,-0.0010
2797.00,-0.0010
2796.00,-0.0010
2795.00,-0.0010
2794.00,-0.0010
2793.00,-0.0010
2792.00,-0.0010
2791.00,-0.0010
2790.00,-0.0010
2789.00,-0.0010
2788.00,-0.0010
2787.00,-0.0010
2786.00,-0.0011
2785.00,-0.0011
2784.00,-0.0011
2783.00,-0.0011
2782.00,-0.0011
2781.00,-0.0012
2780.00,-0.0012
2779.00,-0.0012
2778.00,-0.0011
2777.00,-0.0011
2776.00,-0.0010
2775.00,-0.0010
2774.00,-0.0010
2773.00,-0.0011
2772.00,-0.0011
2771.00,-0.0012
2770.00,-0.0012
2769.00,-0.0013
2768.00,-0.0013
2767.00,-0.0013
2766.00,-0.0012
2765.00,-0.0012
2764.00,-0.0011
2763.00,-0.0011
2762.00,-0.0011
2761.00,-0.0011
2760.00,-0.0011
2759.00,-0.0011
2758.00,-0.0011
2757.00,-0.0012
2756.00,-0.0012
2755.00,-0.0012
2754.00,-0.0012
2753.00,-0.0012
2752.00,-0.0012
2751.00,-0.0012
2750.00,-0.0011
2749.00,-0.0011
2748.00,-0.0011
2747.00,-0.0011
2746.00,-0.0011
2745.00,-0.0011
2744.00,-0.0011
2743.00,-0.0011
2742.00,-0.0011
2741.00,-0.0011
2740.00,-0.0011
2739.00,-0.0012
2738.00,-0.0012
2737.00,-0.0012
2736.00,-0.0012
2735.00,-0.0012
2734.00,-0.0011
2733.00,-0.0011
2732.00,-0.0011
2731.00,-0.0011
2730.00,-0.0011
2729.00,-0.0011
2728.00,-0.0011
2727.00,-0.0011
2726.00,-0.0011
2725.00,-0.0011
2724.00,-0.0011
2723.00,-0.0011
2722.00,-0.0012
2721.00,-0.0012
2720.00,-0.0012
2719.00,-0.0012
2718.00,-0.0012
2717.00,-0.0011
2716.00,-0.0011
2715.00,-0.0011
2714.00,-0.0011
2713.00,-0.0011
2712.00,-0.0011
2711.00,-0.0011
2710.00,-0.0011
2709.00,-0.0011
2708.00,-0.0012
2707.00,-0.0012
2706.00,-0.0012
2705.00,-0.0012
2704.00,-0.0012
2703.00,-0.0012
2702.00,-0.0012
2701.00,-0.0012
2700.00,-0.0012
2699.00,-0.0012
2698.00,-0.0012
2697.00,-0.0012
2696.00,-0.0012
2695.00,-0.0012
2694.00,-0.0011
2693.00,-0.0011
2692.00,-0.0011
2691.00,-0.0011
2690.00,-0.0011
2689.00,-0.0011
2688.00,-0.0011
2687.00,-0.0011
2686.00,-0.0011
2685.00,-0.0011
2684.00,-0.0011
2683.00,-0.0011
2682.00,-0.0011
2681.00,-0.0011
2680.00,-0.0011
2679.00,-0.0011
2678.00,-0.0012
2677.00,-0.0012
2676.00,-0.0013
2675.00,-0.0013
2674.00,-0.0012
2673.00,-0.0012
2672.00,-0.0012
2671.00,-0.0013
2670.00,-0.0013
2669.00,-0.0013
2668.00,-0.0013
2667.00,-0.0012
2666.00,-0.0012
2665.00,-0.0012
2664.00,-0.0011
2663.00,-0.0011
2662.00,-0.0011
2661.00,-0.0011
2660.00,-0.0011
2659.00,-0.0010
2658.00,-0.0010
2657.00,-0.0010
2656.00,-0.0010
2655.00,-0.0011
2654.00,-0.0011
2653.00,-0.0010
2652.00,-0.0010
2651.00,-0.0010
2650.00,-0.0010
2649.00,-0.0010
2648.00,-0.0011
2647.00,-0.0011
2646.00,-0.0012
2645.00,-0.0011
2644.00,-0.0011
2643.00,-0.0011
2642.00,-0.0011
2641.00,-0.0011
2640.00,-0.0010
2639.00,-0.0010
2638.00,-0.0010
2637.00,-0.0010
2636.00,-0.0011
2635.00,-0.0011
2634.00,-0.0011
2633.00,-0.0010
2632.00,-0.0010
2631.00,-0.0011
2630.00,-0.0011
2629.00,-0.0012
2628.00,-0.0013
2627.00,-0.0013
2626.00,-0.0012
2625.00,-0.0012
2624.00,-0.0011
2623.00,-0.0010
2622.00,-0.0010
2621.00,-0.0010
2620.00,-0.0010
2619.00,-0.0010
2618.00,-0.0010
2617.00,-0.0010
2616.00,-0.0010
2615.00,-0.0011
2614.00,-0.0011
2613.00,-0.0011
2612.00,-0.0010
2611.00,-0.0010
2610.00,-0.0010
2609.00,-0.0011
2608.00,-0.0012
2607.00,-0.0012
2606.00,-0.0011
2605.00,-0.0011
2604.00,-0.0010
2603.00,-0.0010
2602.00,-0.0010
2601.00,-0.0010
2600.00,-0.0010
2599.00,-0.0011
2598.00,-0.0011
2597.00,-0.0012
2596.00,-0.0012
2595.00,-0.0013
2594.00,-0.0012
2593.00,-0.0012
2592.00,-0.0011
2591.00,-0.0010
2590.00,-0.0010
2589.00,-0.0010
2588.00,-0.0010
2587.00,-0.0010
2586.00,-0.0011
2585.00,-0.0012
2584.00,-0.0013
2583.00,-0.0013
2582.00,-0.0012
2581.00,-0.0011
2580.00,-0.0010
2579.00,-0.0010
2578.00,-0.0010
2577.00,-0.0010
2576.00,-0.0011
2575.00,-0.0012
2574.00,-0.0012
2573.00,-0.0012
2572.00,-0.0011
2571.00,-0.0012
2570.00,-0.0012
2569.00,-0.0012
2568.00,-0.0012
2567.00,-0.0011
2566.00,-0.0010
2565.00,-0.0010
2564.00,-0.0010
2563.00,-0.0010
2562.00,-0.0010
2561.00,-0.0009
2560.00,-0.0009
2559.00,-0.0010
2558.00,-0.0010
2557.00,-0.0009
2556.00,-0.0009
2555.00,-0.0009
2554.00,-0.0009
2553.00,-0.0010
2552.00,-0.0011
2551.00,-0.0012
2550.00,-0.0013
2549.00,-0.0014
2548.00,-0.0014
2547.00,-0.0015
2546.00,-0.0014
2545.00,-0.0014
2544.00,-0.0013
2543.00,-0.0013
2542.00,-0.0014
2541.00,-0.0015
2540.00,-0.0016
2539.00,-0.0016
2538.00,-0.0017
2537.00,-0.0017
2536.00,-0.0017
2535.00,-0.0016
2534.00,-0.0015
2533.00,-0.0014
2532.00,-0.0013
2531.00,-0.0013
2530.00,-0.0014
2529.00,-0.0014
2528.00,-0.0014
2527.00,-0.0014
2526.00,-0.0015
2525.00,-0.0015
2524.00,-0.0015
2523.00,-0.0015
2522.00,-0.0015
2521.00,-0.0015
2520.00,-0.0014
2519.00,-0.0014
2518.00,-0.0013
2517.00,-0.0012
2516.00,-0.0011
2515.00,-0.0011
2514.00,-0.0012
2513.00,-0.0013
2512.00,-0.0014
2511.00,-0.0013
2510.00,-0.0013
2509.00,-0.0012
2508.00,-0.0012
2507.00,-0.0012
2506.00,-0.0013
2505.00,-0.0014
2504.00,-0.0014
2503.00,-0.0013
2502.00,-0.0013
2501.00,-0.0012
2500.00,-0.0011
2499.00,-0.0011
2498.00,-0.0011
2497.00,-0.0011
2496.00,-0.0012
2495.00,-0.0011
2494.00,-0.0011
2493.00,-0.0011
2492.00,-0.0011
2491.00,-0.0011
2490.00,-0.0011
2489.00,-0.0011
2488.00,-0.0011
2487.00,-0.0011
2486.00,-0.0012
2485.00,-0.0013
2484.00,-0.0013
2483.00,-0.0013
2482.00,-0.0013
2481.00,-0.0011
2480.00,-0.0011
2479.00,-0.0010
2478.00,-0.0011
2477.00,-0.0012
2476.00,-0.0012
2475.00,-0.0012
2474.00,-0.0012
2473.00,-0.0011
2472.00,-0.0011
2471.00,-0.0011
2470.00,-0.0012
2469.00,-0.0012
2468.00,-0.0013
2467.00,-0.0013
2466.00,-0.0014
2465.00,-0.0014
2464.00,-0.0013
2463.00,-0.0013
2462.00,-0.0013
2461.00,-0.0013
2460.00,-0.0012
2459.00,-0.0012
2458.00,-0.0011
2457.00,-0.0012
2456.00,-0.0012
2455.00,-0.0012
2454.00,-0.0011
2453.00,-0.0010
2452.00,-0.0009
2451.00,-0.0009
2450.00,-0.0010
2449.00,-0.0011
2448.00,-0.0011
2447.00,-0.0011
2446.00,-0.0012
2445.00,-0.0013
2444.00,-0.0014
2443.00,-0.0014
2442.00,-0.0014
2441.00,-0.0014
2440.00,-0.0013
2439.00,-0.0013
2438.00,-0.0013
2437.00,-0.0013
2436.00,-0.0013
2435.00,-0.0013
2434.00,-0.0013
2433.00,-0.0013
2432.00,-0.0013
2431.00,-0.0013
2430.00,-0.0012
2429.00,-0.0012
2428.00,-0.0012
2427.00,-0.0012
2426.00,-0.0012
2425.00,-0.0012
2424.00,-0.0012
2423.00,-0.0012
2422.00,-0.0012
2421.00,-0.0012
2420.00,-0.0012
2419.00,-0.0013
2418.00,-0.0013
2417.00,-0.0014
2416.00,-0.0014
2415.00,-0.0014
2414.00,-0.0014
2413.00,-0.0013
2412.00,-0.0013
2411.00,-0.0013
2410.00,-0.0012
2409.00,-0.0012
2408.00,-0.0012
2407.00,-0.0012
2406.00,-0.0013
2405.00,-0.0013
2404.00,-0.0013
2403.00,-0.0014
2402.00,-0.0014
2401.00,-0.0014
2400.00,-0.0014
2399.00,-0.0014
2398.00,-0.0013
2397.00,-0.0013
2396.00,-0.0013
2395.00,-0.0013
2394.00,-0.0014
2393.00,-0.0014
2392.00,-0.0014
2391.00,-0.0014
2390.00,-0.0014
2389.00,-0.0014
2388.00,-0.0014
2387.00,-0.0014
2386.00,-0.0014
2385.00,-0.0014
2384.00,-0.0014
2383.00,-0.0014
2382.00,-0.0014
2381.00,-0.0013
2380.00,-0.0012
2379.00,-0.0012
2378.00,-0.0012
2377.00,-0.0012
2376.00,-0.0013
2375.00,-0.0013
2374.00,-0.0014
2373.00,-0.0014
2372.00,-0.0014
2371.00,-0.0014
2370.00,-0.0016
2369.00,-0.0018
2368.00,-0.0019
2367.00,-0.0019
2366.00,-0.0016
2365.00,-0.0013
2364.00,-0.0012
2363.00,-0.0014
2362.00,-0.0015
2361.00,-0.0014
2360.00,-0.0011
2359.00,-0.0010
2358.00,-0.0010
2357.00,-0.0012
2356.00,-0.0013
2355.00,-0.0015
2354.00,-0.0016
2353.00,-0.0016
2352.00,-0.0015
2351.00,-0.0014
2350.00,-0.0013
2349.00,-0.0013
2348.00,-0.0013
2347.00,-0.0013
2346.00,-0.0013
2345.00,-0.0012
2344.00,-0.0011
2343.00,-0.0010
2342.00,-0.0009
2341.00,-0.0009
2340.00,-0.0010
2339.00,-0.0011
2338.00,-0.0013
2337.00,-0.0014
2336.00,-0.0014
2335.00,-0.0013
2334.00,-0.0011
2333.00,-0.0011
2332.00,-0.0011
2331.00,-0.0013
2330.00,-0.0014
2329.00,-0.0013
2328.00,-0.0012
2327.00,-0.0011
2326.00,-0.0010
2325.00,-0.0010
2324.00,-0.0011
2323.00,-0.0012
2322.00,-0.0013
2321.00,-0.0013
2320.00,-0.0014
2319.00,-0.0015
2318.00,-0.0015
2317.00,-0.0015
2316.00,-0.0015
2315.00,-0.0014
2314.00,-0.0013
2313.00,-0.0013
2312.00,-0.0012
2311.00,-0.0012
2310.00,-0.0011
2309.00,-0.0011
2308.00,-0.0011
2307.00,-0.0011
2306.00,-0.0012
2305.00,-0.0012
2304.00,-0.0012
2303.00,-0.0014
2302.00,-0.0015
2301.00,-0.0015
2300.00,-0.0015
2299.00,-0.0015
2298.00,-0.0014
2297.00,-0.0015
2296.00,-0.0015
2295.00,-0.0015
2294.00,-0.0014
2293.00,-0.0012
2292.00,-0.0010
2291.00,-0.0009
2290.00,-0.0009
2289.00,-0.0010
2288.00,-0.0011
2287.00,-0.0010
2286.00,-0.0010
2285.00,-0.0009
2284.00,-0.0007
2283.00,-0.0006
2282.00,-0.0006
2281.00,-0.0007
2280.00,-0.0008
2279.00,-0.0008
2278.00,-0.0008
2277.00,-0.0009
2276.00,-0.0009
2275.00,-0.0010
2274.00,-0.0011
2273.00,-0.0012
2272.00,-0.0012
2271.00,-0.0012
2270.00,-0.0012
2269.00,-0.0012
2268.00,-0.0012
2267.00,-0.0011
2266.00,-0.0011
2265.00,-0.0010
2264.00,-0.0009
2263.00,-0.0008
2262.00,-0.0008
2261.00,-0.0009
2260.00,-0.0009
2259.00,-0.0010
2258.00,-0.0012
2257.00,-0.0014
2256.00,-0.0015
2255.00,-0.0015
2254.00,-0.0014
2253.00,-0.0013
2252.00,-0.0013
2251.00,-0.0012
2250.00,-0.0012
2249.00,-0.0013
2248.00,-0.0013
2247.00,-0.0012
2246.00,-0.0011
2245.00,-0.0010
2244.00,-0.0010
2243.00,-0.0010
2242.00,-0.0011
2241.00,-0.0012
2240.00,-0.0013
2239.00,-0.0013
2238.00,-0.0014
2237.00,-0.0014
2236.00,-0.0014
2235.00,-0.0014
2234.00,-0.0013
2233.00,-0.0013
2232.00,-0.0013
2231.00,-0.0014
2230.00,-0.0015
2229.00,-0.0016
2228.00,-0.0016
2227.00,-0.0015
2226.00,-0.0014
2225.00,-0.0014
2224.00,-0.0014
2223.00,-0.0015
2222.00,-0.0016
2221.00,-0.0017
2220.00,-0.0017
2219.00,-0.0016
2218.00,-0.0016
2217.00,-0.0015
2216.00,-0.0013
2215.00,-0.0011
2214.00,-0.0010
2213.00,-0.0010
2212.00,-0.0012
2211.00,-0.0014
2210.00,-0.0015
2209.00,-0.0015
2208.00,-0.0014
2207.00,-0.0013
2206.00,-0.0013
2205.00,-0.0013
2204.00,-0.0013
2203.00,-0.0013
2202.00,-0.0013
2201.00,-0.0014
2200.00,-0.0014
2199.00,-0.0014
2198.00,-0.0014
2197.00,-0.0014
2196.00,-0.0014
2195.00,-0.0015
2194.00,-0.0016
2193.00,-0.0016
2192.00,-0.0018
2191.00,-0.0020
2190.00,-0.0022
2189.00,-0.0023
2188.00,-0.0021
2187.00,-0.0016
2186.00,-0.0012
2185.00,-0.0011
2184.00,-0.0013
2183.00,-0.0015
2182.00,-0.0017
2181.00,-0.0016
2180.00,-0.0015
2179.00,-0.0014
2178.00,-0.0013
2177.00,-0.0013
2176.00,-0.0014
2175.00,-0.0015
2174.00,-0.0016
2173.00,-0.0016
2172.00,-0.0015
2171.00,-0.0013
2170.00,-0.0011
2169.00,-0.0010
2168.00,-0.0010
2167.00,-0.0011
2166.00,-0.0010
2165.00,-0.0009
2164.00,-0.0007
2163.00,-0.0006
2162.00,-0.0007
2161.00,-0.0009
2160.00,-0.0014
2159.00,-0.0019
2158.00,-0.0022
2157.00,-0.0022
2156.00,-0.0022
2155.00,-0.0020
2154.00,-0.0018
2153.00,-0.0017
2152.00,-0.0017
2151.00,-0.0019
2150.00,-0.0021
2149.00,-0.0023
2148.00,-0.0022
2147.00,-0.0020
2146.00,-0.0017
2145.00,-0.0015
2144.00,-0.0015
2143.00,-0.0014
2142.00,-0.0013
2141.00,-0.0012
2140.00,-0.0012
2139.00,-0.0014
2138.00,-0.0016
2137.00,-0.0018
2136.00,-0.0020
2135.00,-0.0021
2134.00,-0.0021
2133.00,-0.0021
2132.00,-0.0020
2131.00,-0.0019
2130.00,-0.0018
2129.00,-0.0016
2128.00,-0.0014
2127.00,-0.0013
2126.00,-0.0013
2125.00,-0.0014
2124.00,-0.0014
2123.00,-0.0015
2122.00,-0.0015
2121.00,-0.0015
2120.00,-0.0015
2119.00,-0.0015
2118.00,-0.0014
2117.00,-0.0014
2116.00,-0.0015
2115.00,-0.0017
2114.00,-0.0018
2113.00,-0.0019
2112.00,-0.0018
2111.00,-0.0016
2110.00,-0.0014
2109.00,-0.0013
2108.00,-0.0011
2107.00,-0.0011
2106.00,-0.0010
2105.00,-0.0010
2104.00,-0.0011
2103.00,-0.0011
2102.00,-0.0011
2101.00,-0.0012
2100.00,-0.0013
2099.00,-0.0014
2098.00,-0.0016
2097.00,-0.0017
2096.00,-0.0017
2095.00,-0.0016
2094.00,-0.0015
2093.00,-0.0014
2092.00,-0.0014
2091.00,-0.0014
2090.00,-0.0014
2089.00,-0.0015
2088.00,-0.0015
2087.00,-0.0015
2086.00,-0.0014
2085.00,-0.0013
2084.00,-0.0011
2083.00,-0.0010
2082.00,-0.0010
2081.00,-0.0011
2080.00,-0.0011
2079.00,-0.0011
2078.00,-0.0011
2077.00,-0.0012
2076.00,-0.0011
2075.00,-0.0011
2074.00,-0.0011
2073.00,-0.0011
2072.00,-0.0010
2071.00,-0.0009
2070.00,-0.0008
2069.00,-0.0010
2068.00,-0.0012
2067.00,-0.0014
2066.00,-0.0014
2065.00,-0.0014
2064.00,-0.0013
2063.00,-0.0011
2062.00,-0.0010
2061.00,-0.0010
2060.00,-0.0011
2059.00,-0.0012
2058.00,-0.0013
2057.00,-0.0013
2056.00,-0.0013
2055.00,-0.0012
2054.00,-0.0010
2053.00,-0.0007
2052.00,-0.0004
2051.00,-0.0004
2050.00,-0.0006
2049.00,-0.0009
2048.00,-0.0011
2047.00,-0.0011
2046.00,-0.0010
2045.00,-0.0008
2044.00,-0.0007
2043.00,-0.0006
2042.00,-0.0006
2041.00,-0.0007
2040.00,-0.0009
2039.00,-0.0011
2038.00,-0.0010
2037.00,-0.0008
2036.00,-0.0005
2035.00,-0.0005
2034.00,-0.0006
2033.00,-0.0007
2032.00,-0.0006
2031.00,-0.0003
2030.00,-0.0003
2029.00,-0.0005
2028.00,-0.0008
2027.00,-0.0011
2026.00,-0.0012
2025.00,-0.0014
2024.00,-0.0016
2023.00,-0.0019
2022.00,-0.0020
2021.00,-0.0020
2020.00,-0.0021
2019.00,-0.0021
2018.00,-0.0021
2017.00,-0.0020
2016.00,-0.0019
2015.00,-0.0018
2014.00,-0.0016
2013.00,-0.0015
2012.00,-0.0014
2011.00,-0.0013
2010.00,-0.0012
2009.00,-0.0012
2008.00,-0.0012
2007.00,-0.0013
2006.00,-0.0014
2005.00,-0.0015
2004.00,-0.0015
2003.00,-0.0013
2002.00,-0.0010
2001.00,-0.0006
2000.00,-0.0006
1999.00,-0.0008
1998.00,-0.0010
1997.00,-0.0010
1996.00,-0.0008
1995.00,-0.0006
1994.00,-0.0005
1993.00,-0.0005
1992.00,-0.0006
1991.00,-0.0009
1990.00,-0.0012
1989.00,-0.0014
1988.00,-0.0014
1987.00,-0.0013
1986.00,-0.0012
1985.00,-0.0011
1984.00,-0.0010
1983.00,-0.0010
1982.00,-0.0010
1981.00,-0.0010
1980.00,-0.0012
1979.00,-0.0015
1978.00,-0.0019
1977.00,-0.0021
1976.00,-0.0021
1975.00,-0.0017
1974.00,-0.0012
1973.00,-0.0010
1972.00,-0.0012
1971.00,-0.0015
1970.00,-0.0016
1969.00,-0.0014
1968.00,-0.0012
1967.00,-0.0012
1966.00,-0.0014
1965.00,-0.0015
1964.00,-0.0014
1963.00,-0.0013
1962.00,-0.0012
1961.00,-0.0012
1960.00,-0.0011
1959.00,-0.0010
1958.00,-0.0010
1957.00,-0.0012
1956.00,-0.0013
1955.00,-0.0013
1954.00,-0.0012
1953.00,-0.0011
1952.00,-0.0011
1951.00,-0.0012
1950.00,-0.0014
1949.00,-0.0014
1948.00,-0.0014
1947.00,-0.0013
1946.00,-0.0013
1945.00,-0.0015
1944.00,-0.0018
1943.00,-0.0020
1942.00,-0.0019
1941.00,-0.0018
1940.00,-0.0018
1939.00,-0.0019
1938.00,-0.0019
1937.00,-0.0019
1936.00,-0.0019
1935.00,-0.0019
1934.00,-0.0019
1933.00,-0.0020
1932.00,-0.0019
1931.00,-0.0017
1930.00,-0.0014
1929.00,-0.0012
1928.00,-0.0011
1927.00,-0.0011
1926.00,-0.0011
1925.00,-0.0011
1924.00,-0.0011
1923.00,-0.0011
1922.00,-0.0012
1921.00,-0.0012
1920.00,-0.0013
1919.00,-0.0014
1918.00,-0.0015
1917.00,-0.0015
1916.00,-0.0014
1915.00,-0.0014
1914.00,-0.0013
1913.00,-0.0012
1912.00,-0.0012
1911.00,-0.0013
1910.00,-0.0013
1909.00,-0.0014
1908.00,-0.0015
1907.00,-0.0015
1906.00,-0.0014
1905.00,-0.0014
1904.00,-0.0013
1903.00,-0.0013
1902.00,-0.0013
1901.00,-0.0014
1900.00,-0.0014
1899.00,-0.0014
1898.00,-0.0013
1897.00,-0.0013
1896.00,-0.0013
1895.00,-0.0014
1894.00,-0.0015
1893.00,-0.0014
1892.00,-0.0013
1891.00,-0.0012
1890.00,-0.0012
1889.00,-0.0012
1888.00,-0.0012
1887.00,-0.0013
1886.00,-0.0013
1885.00,-0.0014
1884.00,-0.0013
1883.00,-0.0013
1882.00,-0.0013
1881.00,-0.0013
1880.00,-0.0013
1879.00,-0.0013
1878.00,-0.0014
1877.00,-0.0014
1876.00,-0.0014
1875.00,-0.0013
1874.00,-0.0012
1873.00,-0.0011
1872.00,-0.0010
1871.00,-0.0009
1870.00,-0.0010
1869.00,-0.0010
1868.00,-0.0010
1867.00,-0.0011
1866.00,-0.0011
1865.00,-0.0011
1864.00,-0.0011
1863.00,-0.0012
1862.00,-0.0013
1861.00,-0.0014
1860.00,-0.0014
1859.00,-0.0014
1858.00,-0.0014
1857.00,-0.0013
1856.00,-0.0012
1855.00,-0.0011
1854.00,-0.0011
1853.00,-0.0012
1852.00,-0.0012
1851.00,-0.0012
1850.00,-0.0012
1849.00,-0.0012
1848.00,-0.0012
1847.00,-0.0012
1846.00,-0.0012
1845.00,-0.0012
1844.00,-0.0012
1843.00,-0.0012
1842.00,-0.0012
1841.00,-0.0011
1840.00,-0.0012
1839.00,-0.0012
1838.00,-0.0012
1837.00,-0.0011
1836.00,-0.0011
1835.00,-0.0011
1834.00,-0.0011
1833.00,-0.0011
1832.00,-0.0010
1831.00,-0.0009
1830.00,-0.0008
1829.00,-0.0008
1828.00,-0.0009
1827.00,-0.0009
1826.00,-0.0010
1825.00,-0.0010
1824.00,-0.0010
1823.00,-0.0011
1822.00,-0.0011
1821.00,-0.0011
1820.00,-0.0011
1819.00,-0.0011
1818.00,-0.0012
1817.00,-0.0012
1816.00,-0.0012
1815.00,-0.0011
1814.00,-0.0011
1813.00,-0.0011
1812.00,-0.0010
1811.00,-0.0010
1810.00,-0.0010
1809.00,-0.0009
1808.00,-0.0009
1807.00,-0.0009
1806.00,-0.0009
1805.00,-0.0009
1804.00,-0.0009
1803.00,-0.0009
1802.00,-0.0009
1801.00,-0.0009
1800.00,-0.0009
1799.00,-0.0009
1798.00,-0.0009
1797.00,-0.0008
1796.00,-0.0009
1795.00,-0.0009
1794.00,-0.0010
1793.00,-0.0010
1792.00,-0.0009
1791.00,-0.0009
1790.00,-0.0009
1789.00,-0.0009
1788.00,-0.0010
1787.00,-0.0010
1786.00,-0.0009
1785.00,-0.0009
1784.00,-0.0009
1783.00,-0.0009
1782.00,-0.0009
1781.00,-0.0009
1780.00,-0.0010
1779.00,-0.0010
1778.00,-0.0010
1777.00,-0.0010
1776.00,-0.0009
1775.00,-0.0009
1774.00,-0.0009
1773.00,-0.0010
1772.00,-0.0011
1771.00,-0.0011
1770.00,-0.0011
1769.00,-0.0011
1768.00,-0.0011
1767.00,-0.0011
1766.00,-0.0011
1765.00,-0.0011
1764.00,-0.0011
1763.00,-0.0011
1762.00,-0.0012
1761.00,-0.0012
1760.00,-0.0012
1759.00,-0.0012
1758.00,-0.0013
1757.00,-0.0013
1756.00,-0.0013
1755.00,-0.0012
1754.00,-0.0011
1753.00,-0.0011
1752.00,-0.0012
1751.00,-0.0013
1750.00,-0.0014
1749.00,-0.0014
1748.00,-0.0014
1747.00,-0.0014
1746.00,-0.0014
1745.00,-0.0014
1744.00,-0.0014
1743.00,-0.0014
1742.00,-0.0014
1741.00,-0.0014
1740.00,-0.0015
1739.00,-0.0015
1738.00,-0.0016
1737.00,-0.0016
1736.00,-0.0017
1735.00,-0.0018
1734.00,-0.0018
1733.00,-0.0018
1732.00,-0.0018
1731.00,-0.0018
1730.00,-0.0018
1729.00,-0.0018
1728.00,-0.0018
1727.00,-0.0019
1726.00,-0.0019
1725.00,-0.0019
1724.00,-0.0019
1723.00,-0.0019
1722.00,-0.0019
1721.00,-0.0019
1720.00,-0.0020
1719.00,-0.0021
1718.00,-0.0022
1717.00,-0.0022
1716.00,-0.0021
1715.00,-0.0020
1714.00,-0.0020
1713.00,-0.0019
1712.00,-0.0019
1711.00,-0.0020
1710.00,-0.0020
1709.00,-0.0020
1708.00,-0.0020
1707.00,-0.0020
1706.00,-0.0020
1705.00,-0.0019
1704.00,-0.0019
1703.00,-0.0019
1702.00,-0.0018
1701.00,-0.0019
1700.00,-0.0021
1699.00,-0.0021
1698.00,-0.0021
1697.00,-0.0021
1696.00,-0.0021
1695.00,-0.0020
1694.00,-0.0021
1693.00,-0.0021
1692.00,-0.0021
1691.00,-0.0021
1690.00,-0.0021
1689.00,-0.0020
1688.00,-0.0020
1687.00,-0.0020
1686.00,-0.0021
1685.00,-0.0021
1684.00,-0.0022
1683.00,-0.0022
1682.00,-0.0023
1681.00,-0.0024
1680.00,-0.0025
1679.00,-0.0025
1678.00,-0.0024
1677.00,-0.0023
1676.00,-0.0023
1675.00,-0.0023
1674.00,-0.0024
1673.00,-0.0024
1672.00,-0.0025
1671.00,-0.0026
1670.00,-0.0026
1669.00,-0.0026
1668.00,-0.0026
1667.00,-0.0027
1666.00,-0.0027
1665.00,-0.0028
1664.00,-0.0028
1663.00,-0.0029
1662.00,-0.0030
1661.00,-0.0029
1660.00,-0.0029
1659.00,-0.0028
1658.00,-0.0027
1657.00,-0.0026
1656.00,-0.0026
1655.00,-0.0027
1654.00,-0.0029
1653.00,-0.0030
1652.00,-0.0030
1651.00,-0.0030
1650.00,-0.0030
1649.00,-0.0030
1648.00,-0.0031
1647.00,-0.0033
1646.00,-0.0033
1645.00,-0.0033
1644.00,-0.0032
1643.00,-0.0032
1642.00,-0.0033
1641.00,-0.0033
1640.00,-0.0034
1639.00,-0.0034
1638.00,-0.0034
1637.00,-0.0034
1636.00,-0.0034
1635.00,-0.0033
1634.00,-0.0034
1633.00,-0.0036
1632.00,-0.0038
1631.00,-0.0039
1630.00,-0.0039
1629.00,-0.0040
1628.00,-0.0040
1627.00,-0.0040
1626.00,-0.0040
1625.00,-0.0040
1624.00,-0.0040
1623.00,-0.0041
1622.00,-0.0042
1621.00,-0.0042
1620.00,-0.0042
1619.00,-0.0042
1618.00,-0.0043
1617.00,-0.0044
1616.00,-0.0045
1615.00,-0.0045
1614.00,-0.0045
1613.00,-0.0046
1612.00,-0.0046
1611.00,-0.0046
1610.00,-0.0046
1609.00,-0.0047
1608.00,-0.0048
1607.00,-0.0048
1606.00,-0.0048
1605.00,-0.0048
1604.00,-0.0048
1603.00,-0.0049
1602.00,-0.0051
1601.00,-0.0052
1600.00,-0.0054
1599.00,-0.0054
1598.00,-0.0054
1597.00,-0.0054
1596.00,-0.0053
1595.00,-0.0053
1594.00,-0.0053
1593.00,-0.0053
1592.00,-0.0054
1591.00,-0.0055
1590.00,-0.0056
1589.00,-0.0056
1588.00,-0.0056
1587.00,-0.0055
1586.00,-0.0055
1585.00,-0.0055
1584.00,-0.0056
1583.00,-0.0056
1582.00,-0.0056
1581.00,-0.0056
1580.00,-0.0056
1579.00,-0.0055
1578.00,-0.0054
1577.00,-0.0054
1576.00,-0.0055
1575.00,-0.0056
1574.00,-0.0058
1573.00,-0.0058
1572.00,-0.0058
1571.00,-0.0057
1570.00,-0.0057
1569.00,-0.0058
1568.00,-0.0058
1567.00,-0.0057
1566.00,-0.0057
1565.00,-0.0057
1564.00,-0.0058
1563.00,-0.0058
1562.00,-0.0057
1561.00,-0.0055
1560.00,-0.0054
1559.00,-0.0055
1558.00,-0.0056
1557.00,-0.0057
1556.00,-0.0059
1555.00,-0.0059
1554.00,-0.0058
1553.00,-0.0057
1552.00,-0.0056
1551.00,-0.0056
1550.00,-0.0056
1549.00,-0.0057
1548.00,-0.0057
1547.00,-0.0057
1546.00,-0.0057
1545.00,-0.0057
1544.00,-0.0057
1543.00,-0.0058
1542.00,-0.0058
1541.00,-0.0058
1540.00,-0.0057
1539.00,-0.0056
1538.00,-0.0057
1537.00,-0.0057
1536.00,-0.0057
1535.00,-0.0056
1534.00,-0.0055
1533.00,-0.0054
1532.00,-0.0053
1531.00,-0.0053
1530.00,-0.0052
1529.00,-0.0052
1528.00,-0.0051
1527.00,-0.0052
1526.00,-0.0052
1525.00,-0.0052
1524.00,-0.0052
1523.00,-0.0052
1522.00,-0.0052
1521.00,-0.0050
1520.00,-0.0049
1519.00,-0.0048
1518.00,-0.0047
1517.00,-0.0048
1516.00,-0.0048
1515.00,-0.0048
1514.00,-0.0048
1513.00,-0.0048
1512.00,-0.0048
1511.00,-0.0048
1510.00,-0.0047
1509.00,-0.0046
1508.00,-0.0045
1507.00,-0.0045
1506.00,-0.0045
1505.00,-0.0046
1504.00,-0.0046
1503.00,-0.0047
1502.00,-0.0046
1501.00,-0.0046
1500.00,-0.0045
1499.00,-0.0044
1498.00,-0.0043
1497.00,-0.0043
1496.00,-0.0043
1495.00,-0.0044
1494.00,-0.0044
1493.00,-0.0045
1492.00,-0.0046
1491.00,-0.0046
1490.00,-0.0046
1489.00,-0.0045
1488.00,-0.0045
1487.00,-0.0045
1486.00,-0.0046
1485.00,-0.0046
1484.00,-0.0046
1483.00,-0.0046
1482.00,-0.0046
1481.00,-0.0046
1480.00,-0.0046
1479.00,-0.0047
1478.00,-0.0047
1477.00,-0.0047
1476.00,-0.0047
1475.00,-0.0048
1474.00,-0.0049
1473.00,-0.0049
1472.00,-0.0049
1471.00,-0.0048
1470.00,-0.0047
1469.00,-0.0046
1468.00,-0.0046
1467.00,-0.0046
1466.00,-0.0047
1465.00,-0.0049
1464.00,-0.0050
1463.00,-0.0051
1462.00,-0.0052
1461.00,-0.0052
1460.00,-0.0052
1459.00,-0.0052
1458.00,-0.0053
1457.00,-0.0054
1456.00,-0.0054
1455.00,-0.0054
1454.00,-0.0053
1453.00,-0.0052
1452.00,-0.0051
1451.00,-0.0051
1450.00,-0.0050
1449.00,-0.0050
1448.00,-0.0049
1447.00,-0.0049
1446.00,-0.0049
1445.00,-0.0049
1444.00,-0.0049
1443.00,-0.0050
1442.00,-0.0050
1441.00,-0.0051
1440.00,-0.0050
1439.00,-0.0050
1438.00,-0.0049
1437.00,-0.0049
1436.00,-0.0049
1435.00,-0.0049
1434.00,-0.0050
1433.00,-0.0050
1432.00,-0.0051
1431.00,-0.0051
1430.00,-0.0052
1429.00,-0.0053
1428.00,-0.0053
1427.00,-0.0053
1426.00,-0.0053
1425.00,-0.0053
1424.00,-0.0053
1423.00,-0.0053
1422.00,-0.0054
1421.00,-0.0054
1420.00,-0.0054
1419.00,-0.0053
1418.00,-0.0053
1417.00,-0.0053
1416.00,-0.0053
1415.00,-0.0053
1414.00,-0.0054
1413.00,-0.0055
1412.00,-0.0056
1411.00,-0.0057
1410.00,-0.0058
1409.00,-0.0058
1408.00,-0.0059
1407.00,-0.0059
1406.00,-0.0060
1405.00,-0.0061
1404.00,-0.0063
1403.00,-0.0064
1402.00,-0.0065
1401.00,-0.0066
1400.00,-0.0068
1399.00,-0.0069
1398.00,-0.0069
1397.00,-0.0069
1396.00,-0.0070
1395.00,-0.0070
1394.00,-0.0071
1393.00,-0.0071
1392.00,-0.0071
1391.00,-0.0072
1390.00,-0.0072
1389.00,-0.0073
1388.00,-0.0073
1387.00,-0.0073
1386.00,-0.0073
1385.00,-0.0074
1384.00,-0.0075
1383.00,-0.0075
1382.00,-0.0075
1381.00,-0.0074
1380.00,-0.0073
1379.00,-0.0073
1378.00,-0.0072
1377.00,-0.0072
1376.00,-0.0071
1375.00,-0.0070
1374.00,-0.0070
1373.00,-0.0070
1372.00,-0.0070
1371.00,-0.0069
1370.00,-0.0069
1369.00,-0.0068
1368.00,-0.0068
1367.00,-0.0068
1366.00,-0.0068
1365.00,-0.0068
1364.00,-0.0068
1363.00,-0.0068
1362.00,-0.0067
1361.00,-0.0066
1360.00,-0.0066
1359.00,-0.0065
1358.00,-0.0065
1357.00,-0.0064
1356.00,-0.0063
1355.00,-0.0062
1354.00,-0.0062
1353.00,-0.0062
1352.00,-0.0062
1351.00,-0.0063
1350.00,-0.0064
1349.00,-0.0065
1348.00,-0.0065
1347.00,-0.0064
1346.00,-0.0064
1345.00,-0.0064
1344.00,-0.0064
1343.00,-0.0064
1342.00,-0.0064
1341.00,-0.0063
1340.00,-0.0062
1339.00,-0.0062
1338.00,-0.0061
1337.00,-0.0062
1336.00,-0.0062
1335.00,-0.0062
1334.00,-0.0062
1333.00,-0.0062
1332.00,-0.0062
1331.00,-0.0062
1330.00,-0.0062
1329.00,-0.0061
1328.00,-0.0062
1327.00,-0.0062
1326.00,-0.0062
1325.00,-0.0062
1324.00,-0.0061
1323.00,-0.0060
1322.00,-0.0059
1321.00,-0.0058
1320.00,-0.0058
1319.00,-0.0059
1318.00,-0.0060
1317.00,-0.0061
1316.00,-0.0062
1315.00,-0.0062
1314.00,-0.0062
1313.00,-0.0061
1312.00,-0.0060
1311.00,-0.0059
1310.00,-0.0058
1309.00,-0.0058
1308.00,-0.0058
1307.00,-0.0059
1306.00,-0.0059
1305.00,-0.0059
1304.00,-0.0059
1303.00,-0.0058
1302.00,-0.0058
1301.00,-0.0058
1300.00,-0.0059
1299.00,-0.0059
1298.00,-0.0060
1297.00,-0.0060
1296.00,-0.0061
1295.00,-0.0061
1294.00,-0.0061
1293.00,-0.0060
1292.00,-0.0060
1291.00,-0.0060
1290.00,-0.0059
1289.00,-0.0059
1288.00,-0.0059
1287.00,-0.0060
1286.00,-0.0060
1285.00,-0.0060
1284.00,-0.0060
1283.00,-0.0060
1282.00,-0.0060
1281.00,-0.0060
1280.00,-0.0061
1279.00,-0.0062
1278.00,-0.0063
1277.00,-0.0064
1276.00,-0.0064
1275.00,-0.0064
1274.00,-0.0064
1273.00,-0.0065
1272.00,-0.0066
1271.00,-0.0066
1270.00,-0.0066
1269.00,-0.0066
1268.00,-0.0066
1267.00,-0.0066
1266.00,-0.0066
1265.00,-0.0067
1264.00,-0.0067
1263.00,-0.0069
1262.00,-0.0069
1261.00,-0.0070
1260.00,-0.0070
1259.00,-0.0069
1258.00,-0.0069
1257.00,-0.0069
1256.00,-0.0070
1255.00,-0.0071
1254.00,-0.0070
1253.00,-0.0070
1252.00,-0.0069
1251.00,-0.0069
1250.00,-0.0070
1249.00,-0.0070
1248.00,-0.0070
1247.00,-0.0069
1246.00,-0.0068
1245.00,-0.0068
1244.00,-0.0067
1243.00,-0.0067
1242.00,-0.0068
1241.00,-0.0068
1240.00,-0.0069
1239.00,-0.0069
1238.00,-0.0068
1237.00,-0.0067
1236.00,-0.0066
1235.00,-0.0066
1234.00,-0.0066
1233.00,-0.0066
1232.00,-0.0066
1231.00,-0.0066
1230.00,-0.0066
1229.00,-0.0065
1228.00,-0.0065
1227.00,-0.0064
1226.00,-0.0064
1225.00,-0.0064
1224.00,-0.0065
1223.00,-0.0065
1222.00,-0.0064
1221.00,-0.0063
1220.00,-0.0062
1219.00,-0.0062
1218.00,-0.0061
1217.00,-0.0061
1216.00,-0.0060
1215.00,-0.0060
1214.00,-0.0061
1213.00,-0.0061
1212.00,-0.0061
1211.00,-0.0060
1210.00,-0.0059
1209.00,-0.0058
1208.00,-0.0058
1207.00,-0.0058
1206.00,-0.0059
1205.00,-0.0060
1204.00,-0.0060
1203.00,-0.0060
1202.00,-0.0060
1201.00,-0.0060
1200.00,-0.0060
1199.00,-0.0059
1198.00,-0.0059
1197.00,-0.0059
1196.00,-0.0059
1195.00,-0.0059
1194.00,-0.0059
1193.00,-0.0059
1192.00,-0.0058
1191.00,-0.0059
1190.00,-0.0060
1189.00,-0.0061
1188.00,-0.0061
1187.00,-0.0061
1186.00,-0.0060
1185.00,-0.0060
1184.00,-0.0061
1183.00,-0.0062
1182.00,-0.0063
1181.00,-0.0065
1180.00,-0.0066
1179.00,-0.0066
1178.00,-0.0066
1177.00,-0.0066
1176.00,-0.0066
1175.00,-0.0065
1174.00,-0.0064
1173.00,-0.0064
1172.00,-0.0065
1171.00,-0.0067
1170.00,-0.0068
1169.00,-0.0069
1168.00,-0.0069
1167.00,-0.0069
1166.00,-0.0068
1165.00,-0.0069
1164.00,-0.0069
1163.00,-0.0070
1162.00,-0.0070
1161.00,-0.0070
1160.00,-0.0069
1159.00,-0.0069
1158.00,-0.0070
1157.00,-0.0070
1156.00,-0.0070
1155.00,-0.0069
1154.00,-0.0068
1153.00,-0.0068
1152.00,-0.0069
1151.00,-0.0070
1150.00,-0.0071
1149.00,-0.0071
1148.00,-0.0071
1147.00,-0.0070
1146.00,-0.0070
1145.00,-0.0069
1144.00,-0.0069
1143.00,-0.0068
1142.00,-0.0067
1141.00,-0.0067
1140.00,-0.0067
1139.00,-0.0067
1138.00,-0.0067
1137.00,-0.0066
1136.00,-0.0066
1135.00,-0.0065
1134.00,-0.0063
1133.00,-0.0063
1132.00,-0.0063
1131.00,-0.0063
1130.00,-0.0063
1129.00,-0.0062
1128.00,-0.0061
1127.00,-0.0061
1126.00,-0.0063
1125.00,-0.0065
1124.00,-0.0066
1123.00,-0.0065
1122.00,-0.0062
1121.00,-0.0059
1120.00,-0.0057
1119.00,-0.0057
1118.00,-0.0057
1117.00,-0.0058
1116.00,-0.0058
1115.00,-0.0057
1114.00,-0.0057
1113.00,-0.0057
1112.00,-0.0059
1111.00,-0.0060
1110.00,-0.0060
1109.00,-0.0060
1108.00,-0.0061
1107.00,-0.0062
1106.00,-0.0063
1105.00,-0.0064
1104.00,-0.0064
1103.00,-0.0062
1102.00,-0.0061
1101.00,-0.0061
1100.00,-0.0061
1099.00,-0.0062
1098.00,-0.0062
1097.00,-0.0062
1096.00,-0.0063
1095.00,-0.0064
1094.00,-0.0064
1093.00,-0.0064
1092.00,-0.0063
1091.00,-0.0063
1090.00,-0.0064
1089.00,-0.0066
1088.00,-0.0069
1087.00,-0.0070
1086.00,-0.0069
1085.00,-0.0068
1084.00,-0.0067
1083.00,-0.0067
1082.00,-0.0066
1081.00,-0.0065
1080.00,-0.0064
1079.00,-0.0063
1078.00,-0.0061
1077.00,-0.0060
1076.00,-0.0061
1075.00,-0.0063
1074.00,-0.0065
1073.00,-0.0067
1072.00,-0.0066
1071.00,-0.0066
1070.00,-0.0067
1069.00,-0.0069
1068.00,-0.0070
1067.00,-0.0069
1066.00,-0.0067
1065.00,-0.0065
1064.00,-0.0063
1063.00,-0.0062
1062.00,-0.0062
1061.00,-0.0064
1060.00,-0.0066
1059.00,-0.0067
1058.00,-0.0067
1057.00,-0.0065
1056.00,-0.0063
1055.00,-0.0062
1054.00,-0.0061
1053.00,-0.0059
1052.00,-0.0058
1051.00,-0.0058
1050.00,-0.0058
1049.00,-0.0058
1048.00,-0.0057
1047.00,-0.0057
1046.00,-0.0057
1045.00,-0.0058
1044.00,-0.0058
1043.00,-0.0057
1042.00,-0.0058
1041.00,-0.0059
1040.00,-0.0059
1039.00,-0.0058
1038.00,-0.0057
1037.00,-0.0057
1036.00,-0.0057
1035.00,-0.0058
1034.00,-0.0058
1033.00,-0.0058
1032.00,-0.0058
1031.00,-0.0058
1030.00,-0.0058
1029.00,-0.0059
1028.00,-0.0059
1027.00,-0.0059
1026.00,-0.0058
1025.00,-0.0057
1024.00,-0.0057
1023.00,-0.0057
1022.00,-0.0058
1021.00,-0.0059
1020.00,-0.0059
1019.00,-0.0059
1018.00,-0.0058
1017.00,-0.0058
1016.00,-0.0058
1015.00,-0.0057
1014.00,-0.0056
1013.00,-0.0055
1012.00,-0.0054
1011.00,-0.0054
1010.00,-0.0054
1009.00,-0.0054
1008.00,-0.0055
1007.00,-0.0057
1006.00,-0.0057
1005.00,-0.0057
1004.00,-0.0055
1003.00,-0.0054
1002.00,-0.0052
1001.00,-0.0053
1000.00,-0.0054
999.00,-0.0057
998.00,-0.0058
997.00,-0.0058
996.00,-0.0056
995.00,-0.0054
994.00,-0.0053
993.00,-0.0054
992.00,-0.0056
991.00,-0.0057
990.00,-0.0058
989.00,-0.0058
988.00,-0.0057
987.00,-0.0055
986.00,-0.0054
985.00,-0.0053
984.00,-0.0053
983.00,-0.0055
982.00,-0.0056
981.00,-0.0057
980.00,-0.0056
979.00,-0.0056
978.00,-0.0057
977.00,-0.0059
976.00,-0.0061
975.00,-0.0062
974.00,-0.0061
973.00,-0.0060
972.00,-0.0060
971.00,-0.0061
970.00,-0.0063
969.00,-0.0065
968.00,-0.0066
967.00,-0.0067
966.00,-0.0067
965.00,-0.0068
964.00,-0.0068
963.00,-0.0067
962.00,-0.0065
961.00,-0.0065
960.00,-0.0065
959.00,-0.0066
958.00,-0.0067
957.00,-0.0068
956.00,-0.0068
955.00,-0.0069
954.00,-0.0069
953.00,-0.0069
952.00,-0.0069
951.00,-0.0067
950.00,-0.0066
949.00,-0.0065
948.00,-0.0065
947.00,-0.0065
946.00,-0.0066
945.00,-0.0066
944.00,-0.0067
943.00,-0.0068
942.00,-0.0069
941.00,-0.0068
940.00,-0.0067
939.00,-0.0065
938.00,-0.0064
937.00,-0.0063
936.00,-0.0064
935.00,-0.0065
934.00,-0.0065
933.00,-0.0063
932.00,-0.0060
931.00,-0.0058
930.00,-0.0057
929.00,-0.0056
928.00,-0.0056
927.00,-0.0055
926.00,-0.0055
925.00,-0.0056
924.00,-0.0056
923.00,-0.0056
922.00,-0.0055
921.00,-0.0055
920.00,-0.0055
919.00,-0.0056
918.00,-0.0056
917.00,-0.0055
916.00,-0.0054
915.00,-0.0054
914.00,-0.0054
913.00,-0.0055
912.00,-0.0056
911.00,-0.0057
910.00,-0.0058
909.00,-0.0060
908.00,-0.0063
907.00,-0.0064
906.00,-0.0062
905.00,-0.0059
904.00,-0.0055
903.00,-0.0052
902.00,-0.0050
901.00,-0.0051
900.00,-0.0053
899.00,-0.0055
898.00,-0.0055
897.00,-0.0054
896.00,-0.0053
895.00,-0.0053
894.00,-0.0054
893.00,-0.0056
892.00,-0.0059
891.00,-0.0060
890.00,-0.0060
889.00,-0.0058
888.00,-0.0056
887.00,-0.0056
886.00,-0.0058
885.00,-0.0059
884.00,-0.0059
883.00,-0.0056
882.00,-0.0054
881.00,-0.0053
880.00,-0.0054
879.00,-0.0056
878.00,-0.0057
877.00,-0.0060
876.00,-0.0062
875.00,-0.0063
874.00,-0.0063
873.00,-0.0063
872.00,-0.0063
871.00,-0.0062
870.00,-0.0061
869.00,-0.0061
868.00,-0.0062
867.00,-0.0063
866.00,-0.0063
865.00,-0.0062
864.00,-0.0061
863.00,-0.0060
862.00,-0.0058
861.00,-0.0057
860.00,-0.0057
859.00,-0.0059
858.00,-0.0061
857.00,-0.0063
856.00,-0.0064
855.00,-0.0063
854.00,-0.0062
853.00,-0.0061
852.00,-0.0062
851.00,-0.0063
850.00,-0.0062
849.00,-0.0061
848.00,-0.0059
847.00,-0.0058
846.00,-0.0056
845.00,-0.0055
844.00,-0.0054
843.00,-0.0055
842.00,-0.0057
841.00,-0.0060
840.00,-0.0064
839.00,-0.0067
838.00,-0.0069
837.00,-0.0070
836.00,-0.0069
835.00,-0.0067
834.00,-0.0067
833.00,-0.0067
832.00,-0.0068
831.00,-0.0070
830.00,-0.0071
829.00,-0.0073
828.00,-0.0073
827.00,-0.0072
826.00,-0.0070
825.00,-0.0068
824.00,-0.0066
823.00,-0.0065
822.00,-0.0065
821.00,-0.0065
820.00,-0.0065
819.00,-0.0065
818.00,-0.0065
817.00,-0.0066
816.00,-0.0069
815.00,-0.0071
814.00,-0.0072
813.00,-0.0071
812.00,-0.0071
811.00,-0.0071
810.00,-0.0070
809.00,-0.0069
808.00,-0.0068
807.00,-0.0068
806.00,-0.0070
805.00,-0.0073
804.00,-0.0075
803.00,-0.0076
802.00,-0.0075
801.00,-0.0073
800.00,-0.0070
799.00,-0.0068
798.00,-0.0068
797.00,-0.0069
796.00,-0.0071
795.00,-0.0073
794.00,-0.0074
793.00,-0.0075
792.00,-0.0075
791.00,-0.0072
790.00,-0.0070
789.00,-0.0069
788.00,-0.0069
787.00,-0.0070
786.00,-0.0070
785.00,-0.0069
784.00,-0.0068
783.00,-0.0068
782.00,-0.0068
781.00,-0.0068
780.00,-0.0070
779.00,-0.0072
778.00,-0.0072
777.00,-0.0071
776.00,-0.0070
775.00,-0.0070
774.00,-0.0071
773.00,-0.0073
772.00,-0.0074
771.00,-0.0074
770.00,-0.0074
769.00,-0.0074
768.00,-0.0075
767.00,-0.0076
766.00,-0.0077
765.00,-0.0078
764.00,-0.0078
763.00,-0.0079
762.00,-0.0082
761.00,-0.0085
760.00,-0.0086
759.00,-0.0083
758.00,-0.0079
757.00,-0.0076
756.00,-0.0076
755.00,-0.0077
754.00,-0.0079
753.00,-0.0078
752.00,-0.0077
751.00,-0.0075
750.00,-0.0073
749.00,-0.0073
748.00,-0.0074
747.00,-0.0075
746.00,-0.0077
745.00,-0.0079
744.00,-0.0080
743.00,-0.0081
742.00,-0.0082
741.00,-0.0084
740.00,-0.0087
739.00,-0.0091
738.00,-0.0093
737.00,-0.0094
736.00,-0.0094
735.00,-0.0093
734.00,-0.0093
733.00,-0.0092
732.00,-0.0092
731.00,-0.0091
730.00,-0.0089
729.00,-0.0086
728.00,-0.0083
727.00,-0.0080
726.00,-0.0079
725.00,-0.0080
724.00,-0.0083
723.00,-0.0086
722.00,-0.0087
721.00,-0.0087
720.00,-0.0086
719.00,-0.0086
718.00,-0.0087
717.00,-0.0088
716.00,-0.0089
715.00,-0.0091
714.00,-0.0092
713.00,-0.0091
712.00,-0.0091
711.00,-0.0091
710.00,-0.0093
709.00,-0.0094
708.00,-0.0094
707.00,-0.0093
706.00,-0.0091
705.00,-0.0089
704.00,-0.0085
703.00,-0.0083
702.00,-0.0083
701.00,-0.0086
700.00,-0.0090
699.00,-0.0091
698.00,-0.0092
697.00,-0.0092
696.00,-0.0094
695.00,-0.0095
694.00,-0.0094
693.00,-0.0091
692.00,-0.0089
691.00,-0.0088
690.00,-0.0088
689.00,-0.0087
688.00,-0.0088
687.00,-0.0089
686.00,-0.0090
685.00,-0.0091
684.00,-0.0092
683.00,-0.0096
682.00,-0.0100
681.00,-0.0102
680.00,-0.0101
679.00,-0.0099
678.00,-0.0097
677.00,-0.0096
676.00,-0.0095
675.00,-0.0096
674.00,-0.0097
673.00,-0.0098
672.00,-0.0097
671.00,-0.0096
670.00,-0.0096
669.00,-0.0097
668.00,-0.0100
667.00,-0.0099
666.00,-0.0095
665.00,-0.0091
664.00,-0.0090
663.00,-0.0092
662.00,-0.0097
661.00,-0.0103
660.00,-0.0109
659.00,-0.0112
658.00,-0.0110
657.00,-0.0103
656.00,-0.0097
655.00,-0.0097
654.00,-0.0102
653.00,-0.0110
652.00,-0.0117
651.00,-0.0119
650.00,-0.0117
