Created as New Dataset,Monday, April 03 2023
cm-1,A
4000.00,0.0042
3999.00,0.0043
3998.00,0.0042
3997.00,0.0042
3996.00,0.0042
3995.00,0.0042
3994.00,0.0042
3993.00,0.0042
3992.00,0.0042
3991.00,0.0042
3990.00,0.0042
3989.00,0.0041
3988.00,0.0041
3987.00,0.0041
3986.00,0.0042
3985.00,0.0042
3984.00,0.0042
3983.00,0.0042
3982.00,0.0042
3981.00,0.0042
3980.00,0.0042
3979.00,0.0042
3978.00,0.0042
3977.00,0.0041
3976.00,0.0041
3975.00,0.0040
3974.00,0.0040
3973.00,0.0040
3972.00,0.0041
3971.00,0.0042
3970.00,0.0042
3969.00,0.0042
3968.00,0.0042
3967.00,0.0041
3966.00,0.0041
3965.00,0.0041
3964.00,0.0041
3963.00,0.0042
3962.00,0.0042
3961.00,0.0042
3960.00,0.0041
3959.00,0.0041
3958.00,0.0040
3957.00,0.0040
3956.00,0.0040
3955.00,0.0040
3954.00,0.0040
3953.00,0.0040
3952.00,0.0041
3951.00,0.0041
3950.00,0.0042
3949.00,0.0043
3948.00,0.0043
3947.00,0.0043
3946.00,0.0043
3945.00,0.0042
3944.00,0.0041
3943.00,0.0040
3942.00,0.0040
3941.00,0.0040
3940.00,0.0040
3939.00,0.0040
3938.00,0.0040
3937.00,0.0040
3936.00,0.0040
3935.00,0.0041
3934.00,0.0041
3933.00,0.0041
3932.00,0.0041
3931.00,0.0041
3930.00,0.0041
3929.00,0.0041
3928.00,0.0041
3927.00,0.0041
3926.00,0.0041
3925.00,0.0041
3924.00,0.0042
3923.00,0.0042
3922.00,0.0043
3921.00,0.0043
3920.00,0.0043
3919.00,0.0042
3918.00,0.0042
3917.00,0.0042
3916.00,0.0041
3915.00,0.0040
3914.00,0.0040
3913.00,0.0039
3912.00,0.0039
3911.00,0.0039
3910.00,0.0039
3909.00,0.0039
3908.00,0.0040
3907.00,0.0041
3906.00,0.0042
3905.00,0.0043
3904.00,0.0043
3903.00,0.0045
3902.00,0.0046
3901.00,0.0046
3900.00,0.0045
3899.00,0.0043
3898.00,0.0041
3897.00,0.0040
3896.00,0.0040
3895.00,0.0040
3894.00,0.0040
3893.00,0.0040
3892.00,0.0039
3891.00,0.0039
3890.00,0.0039
3889.00,0.0039
3888.00,0.0040
3887.00,0.0039
3886.00,0.0037
3885.00,0.0037
3884.00,0.0039
3883.00,0.0041
3882.00,0.0041
3881.00,0.0039
3880.00,0.0038
3879.00,0.0038
3878.00,0.0039
3877.00,0.0040
3876.00,0.0041
3875.00,0.0040
3874.00,0.0039
3873.00,0.0039
3872.00,0.0041
3871.00,0.0041
3870.00,0.0040
3869.00,0.0040
3868.00,0.0040
3867.00,0.0040
3866.00,0.0040
3865.00,0.0039
3864.00,0.0040
3863.00,0.0040
3862.00,0.0040
3861.00,0.0040
3860.00,0.0039
3859.00,0.0039
3858.00,0.0039
3857.00,0.0039
3856.00,0.0038
3855.00,0.0036
3854.00,0.0035
3853.00,0.0036
3852.00,0.0037
3851.00,0.0037
3850.00,0.0037
3849.00,0.0036
3848.00,0.0035
3847.00,0.0035
3846.00,0.0036
3845.00,0.0036
3844.00,0.0036
3843.00,0.0036
3842.00,0.0036
3841.00,0.0037
3840.00,0.0038
3839.00,0.0038
3838.00,0.0038
3837.00,0.0038
3836.00,0.0037
3835.00,0.0038
3834.00,0.0038
3833.00,0.0038
3832.00,0.0037
3831.00,0.0037
3830.00,0.0037
3829.00,0.0037
3828.00,0.0036
3827.00,0.0035
3826.00,0.0034
3825.00,0.0036
3824.00,0.0038
3823.00,0.0039
3822.00,0.0038
3821.00,0.0037
3820.00,0.0036
3819.00,0.0036
3818.00,0.0036
3817.00,0.0035
3816.00,0.0034
3815.00,0.0034
3814.00,0.0035
3813.00,0.0035
3812.00,0.0034
3811.00,0.0033
3810.00,0.0033
3809.00,0.0033
3808.00,0.0033
3807.00,0.0033
3806.00,0.0034
3805.00,0.0036
3804.00,0.0038
3803.00,0.0038
3802.00,0.0037
3801.00,0.0036
3800.00,0.0036
3799.00,0.0037
3798.00,0.0036
3797.00,0.0035
3796.00,0.0034
3795.00,0.0034
3794.00,0.0034
3793.00,0.0034
3792.00,0.0034
3791.00,0.0033
3790.00,0.0033
3789.00,0.0033
3788.00,0.0033
3787.00,0.0034
3786.00,0.0034
3785.00,0.0035
3784.00,0.0035
3783.00,0.0036
3782.00,0.0036
3781.00,0.0035
3780.00,0.0034
3779.00,0.0034
3778.00,0.0034
3777.00,0.0034
3776.00,0.0034
3775.00,0.0033
3774.00,0.0033
3773.00,0.0033
3772.00,0.0033
3771.00,0.0033
3770.00,0.0033
3769.00,0.0033
3768.00,0.0033
3767.00,0.0033
3766.00,0.0032
3765.00,0.0032
3764.00,0.0032
3763.00,0.0033
3762.00,0.0034
3761.00,0.0034
3760.00,0.0034
3759.00,0.0033
3758.00,0.0032
3757.00,0.0032
3756.00,0.0031
3755.00,0.0031
3754.00,0.0031
3753.00,0.0030
3752.00,0.0030
3751.00,0.0031
3750.00,0.0033
3749.00,0.0034
3748.00,0.0037
3747.00,0.0039
3746.00,0.0039
3745.00,0.0036
3744.00,0.0033
3743.00,0.0033
3742.00,0.0033
3741.00,0.0034
3740.00,0.0035
3739.00,0.0037
3738.00,0.0038
3737.00,0.0038
3736.00,0.0038
3735.00,0.0038
3734.00,0.0037
3733.00,0.0035
3732.00,0.0034
3731.00,0.0033
3730.00,0.0033
3729.00,0.0033
3728.00,0.0034
3727.00,0.0033
3726.00,0.0033
3725.00,0.0033
3724.00,0.0033
3723.00,0.0033
3722.00,0.0033
3721.00,0.0033
3720.00,0.0033
3719.00,0.0034
3718.00,0.0033
3717.00,0.0032
3716.00,0.0032
3715.00,0.0032
3714.00,0.0033
3713.00,0.0034
3712.00,0.0035
3711.00,0.0036
3710.00,0.0035
3709.00,0.0034
3708.00,0.0034
3707.00,0.0034
3706.00,0.0035
3705.00,0.0037
3704.00,0.0037
3703.00,0.0037
3702.00,0.0036
3701.00,0.0035
3700.00,0.0036
3699.00,0.0036
3698.00,0.0036
3697.00,0.0035
3696.00,0.0034
3695.00,0.0034
3694.00,0.0034
3693.00,0.0034
3692.00,0.0034
3691.00,0.0035
3690.00,0.0037
3689.00,0.0038
3688.00,0.0037
3687.00,0.0037
3686.00,0.0036
3685.00,0.0035
3684.00,0.0034
3683.00,0.0034
3682.00,0.0034
3681.00,0.0033
3680.00,0.0033
3679.00,0.0033
3678.00,0.0034
3677.00,0.0034
3676.00,0.0034
3675.00,0.0034
3674.00,0.0035
3673.00,0.0037
3672.00,0.0038
3671.00,0.0039
3670.00,0.0040
3669.00,0.0041
3668.00,0.0041
3667.00,0.0041
3666.00,0.0040
3665.00,0.0039
3664.00,0.0039
3663.00,0.0040
3662.00,0.0041
3661.00,0.0042
3660.00,0.0044
3659.00,0.0046
3658.00,0.0048
3657.00,0.0049
3656.00,0.0050
3655.00,0.0052
3654.00,0.0054
3653.00,0.0056
3652.00,0.0056
3651.00,0.0057
3650.00,0.0058
3649.00,0.0061
3648.00,0.0062
3647.00,0.0062
3646.00,0.0061
3645.00,0.0061
3644.00,0.0061
3643.00,0.0061
3642.00,0.0062
3641.00,0.0062
3640.00,0.0063
3639.00,0.0064
3638.00,0.0064
3637.00,0.0065
3636.00,0.0067
3635.00,0.0068
3634.00,0.0070
3633.00,0.0072
3632.00,0.0074
3631.00,0.0076
3630.00,0.0078
3629.00,0.0081
3628.00,0.0083
3627.00,0.0083
3626.00,0.0082
3625.00,0.0080
3624.00,0.0080
3623.00,0.0080
3622.00,0.0082
3621.00,0.0084
3620.00,0.0086
3619.00,0.0088
3618.00,0.0090
3617.00,0.0090
3616.00,0.0091
3615.00,0.0091
3614.00,0.0090
3613.00,0.0090
3612.00,0.0091
3611.00,0.0092
3610.00,0.0093
3609.00,0.0095
3608.00,0.0096
3607.00,0.0096
3606.00,0.0095
3605.00,0.0094
3604.00,0.0093
3603.00,0.0094
3602.00,0.0095
3601.00,0.0097
3600.00,0.0099
3599.00,0.0100
3598.00,0.0100
3597.00,0.0100
3596.00,0.0100
3595.00,0.0101
3594.00,0.0102
3593.00,0.0102
3592.00,0.0102
3591.00,0.0103
3590.00,0.0103
3589.00,0.0104
3588.00,0.0106
3587.00,0.0108
3586.00,0.0109
3585.00,0.0109
3584.00,0.0109
3583.00,0.0108
3582.00,0.0108
3581.00,0.0107
3580.00,0.0108
3579.00,0.0108
3578.00,0.0109
3577.00,0.0110
3576.00,0.0110
3575.00,0.0111
3574.00,0.0111
3573.00,0.0112
3572.00,0.0112
3571.00,0.0113
3570.00,0.0113
3569.00,0.0114
3568.00,0.0117
3567.00,0.0120
3566.00,0.0122
3565.00,0.0122
3564.00,0.0121
3563.00,0.0120
3562.00,0.0119
3561.00,0.0119
3560.00,0.0120
3559.00,0.0121
3558.00,0.0121
3557.00,0.0122
3556.00,0.0123
3555.00,0.0123
3554.00,0.0124
3553.00,0.0125
3552.00,0.0126
3551.00,0.0127
3550.00,0.0128
3549.00,0.0129
3548.00,0.0129
3547.00,0.0130
3546.00,0.0132
3545.00,0.0133
3544.00,0.0134
3543.00,0.0134
3542.00,0.0134
3541.00,0.0133
3540.00,0.0132
3539.00,0.0131
3538.00,0.0130
3537.00,0.0130
3536.00,0.0131
3535.00,0.0132
3534.00,0.0134
3533.00,0.0135
3532.00,0.0135
3531.00,0.0135
3530.00,0.0135
3529.00,0.0135
3528.00,0.0136
3527.00,0.0137
3526.00,0.0138
3525.00,0.0140
3524.00,0.0141
3523.00,0.0142
3522.00,0.0142
3521.00,0.0142
3520.00,0.0140
3519.00,0.0139
3518.00,0.0139
3517.00,0.0139
3516.00,0.0139
3515.00,0.0140
3514.00,0.0141
3513.00,0.0142
3512.00,0.0143
3511.00,0.0144
3510.00,0.0145
3509.00,0.0145
3508.00,0.0145
3507.00,0.0145
3506.00,0.0145
3505.00,0.0146
3504.00,0.0147
3503.00,0.0148
3502.00,0.0150
3501.00,0.0150
3500.00,0.0150
3499.00,0.0150
3498.00,0.0150
3497.00,0.0151
3496.00,0.0151
3495.00,0.0151
3494.00,0.0151
3493.00,0.0151
3492.00,0.0151
3491.00,0.0151
3490.00,0.0151
3489.00,0.0151
3488.00,0.0152
3487.00,0.0152
3486.00,0.0153
3485.00,0.0154
3484.00,0.0154
3483.00,0.0155
3482.00,0.0155
3481.00,0.0156
3480.00,0.0156
3479.00,0.0156
3478.00,0.0156
3477.00,0.0157
3476.00,0.0157
3475.00,0.0158
3474.00,0.0159
3473.00,0.0160
3472.00,0.0160
3471.00,0.0161
3470.00,0.0161
3469.00,0.0161
3468.00,0.0161
3467.00,0.0162
3466.00,0.0163
3465.00,0.0164
3464.00,0.0164
3463.00,0.0164
3462.00,0.0163
3461.00,0.0163
3460.00,0.0163
3459.00,0.0165
3458.00,0.0166
3457.00,0.0166
3456.00,0.0165
3455.00,0.0164
3454.00,0.0164
3453.00,0.0165
3452.00,0.0166
3451.00,0.0167
3450.00,0.0168
3449.00,0.0168
3448.00,0.0169
3447.00,0.0169
3446.00,0.0170
3445.00,0.0170
3444.00,0.0170
3443.00,0.0170
3442.00,0.0169
3441.00,0.0169
3440.00,0.0168
3439.00,0.0168
3438.00,0.0168
3437.00,0.0169
3436.00,0.0169
3435.00,0.0170
3434.00,0.0170
3433.00,0.0171
3432.00,0.0171
3431.00,0.0172
3430.00,0.0172
3429.00,0.0172
3428.00,0.0172
3427.00,0.0172
3426.00,0.0173
3425.00,0.0174
3424.00,0.0175
3423.00,0.0176
3422.00,0.0176
3421.00,0.0177
3420.00,0.0177
3419.00,0.0178
3418.00,0.0178
3417.00,0.0177
3416.00,0.0176
3415.00,0.0176
3414.00,0.0176
3413.00,0.0177
3412.00,0.0178
3411.00,0.0179
3410.00,0.0179
3409.00,0.0180
3408.00,0.0180
3407.00,0.0180
3406.00,0.0180
3405.00,0.0180
3404.00,0.0179
3403.00,0.0179
3402.00,0.0179
3401.00,0.0180
3400.00,0.0181
3399.00,0.0181
3398.00,0.0182
3397.00,0.0182
3396.00,0.0181
3395.00,0.0181
3394.00,0.0181
3393.00,0.0182
3392.00,0.0183
3391.00,0.0184
3390.00,0.0184
3389.00,0.0184
3388.00,0.0184
3387.00,0.0183
3386.00,0.0183
3385.00,0.0183
3384.00,0.0184
3383.00,0.0184
3382.00,0.0185
3381.00,0.0185
3380.00,0.0185
3379.00,0.0185
3378.00,0.0185
3377.00,0.0185
3376.00,0.0185
3375.00,0.0185
3374.00,0.0185
3373.00,0.0185
3372.00,0.0185
3371.00,0.0184
3370.00,0.0184
3369.00,0.0184
3368.00,0.0185
3367.00,0.0185
3366.00,0.0185
3365.00,0.0184
3364.00,0.0184
3363.00,0.0185
3362.00,0.0186
3361.00,0.0188
3360.00,0.0189
3359.00,0.0189
3358.00,0.0188
3357.00,0.0188
3356.00,0.0188
3355.00,0.0188
3354.00,0.0188
3353.00,0.0188
3352.00,0.0187
3351.00,0.0187
3350.00,0.0188
3349.00,0.0188
3348.00,0.0188
3347.00,0.0188
3346.00,0.0188
3345.00,0.0187
3344.00,0.0187
3343.00,0.0187
3342.00,0.0187
3341.00,0.0188
3340.00,0.0188
3339.00,0.0189
3338.00,0.0189
3337.00,0.0189
3336.00,0.0188
3335.00,0.0188
3334.00,0.0188
3333.00,0.0188
3332.00,0.0188
3331.00,0.0187
3330.00,0.0187
3329.00,0.0186
3328.00,0.0186
3327.00,0.0187
3326.00,0.0187
3325.00,0.0188
3324.00,0.0189
3323.00,0.0189
3322.00,0.0189
3321.00,0.0189
3320.00,0.0189
3319.00,0.0189
3318.00,0.0189
3317.00,0.0189
3316.00,0.0189
3315.00,0.0188
3314.00,0.0188
3313.00,0.0187
3312.00,0.0187
3311.00,0.0186
3310.00,0.0187
3309.00,0.0188
3308.00,0.0189
3307.00,0.0190
3306.00,0.0189
3305.00,0.0188
3304.00,0.0188
3303.00,0.0187
3302.00,0.0187
3301.00,0.0188
3300.00,0.0188
3299.00,0.0188
3298.00,0.0188
3297.00,0.0188
3296.00,0.0189
3295.00,0.0190
3294.00,0.0190
3293.00,0.0190
3292.00,0.0189
3291.00,0.0189
3290.00,0.0189
3289.00,0.0188
3288.00,0.0188
3287.00,0.0188
3286.00,0.0188
3285.00,0.0189
3284.00,0.0190
3283.00,0.0190
3282.00,0.0190
3281.00,0.0189
3280.00,0.0189
3279.00,0.0189
3278.00,0.0189
3277.00,0.0189
3276.00,0.0189
3275.00,0.0189
3274.00,0.0189
3273.00,0.0190
3272.00,0.0190
3271.00,0.0191
3270.00,0.0191
3269.00,0.0192
3268.00,0.0192
3267.00,0.0191
3266.00,0.0190
3265.00,0.0189
3264.00,0.0188
3263.00,0.0188
3262.00,0.0188
3261.00,0.0189
3260.00,0.0190
3259.00,0.0190
3258.00,0.0190
3257.00,0.0190
3256.00,0.0190
3255.00,0.0190
3254.00,0.0190
3253.00,0.0190
3252.00,0.0190
3251.00,0.0190
3250.00,0.0190
3249.00,0.0190
3248.00,0.0190
3247.00,0.0190
3246.00,0.0190
3245.00,0.0190
3244.00,0.0190
3243.00,0.0190
3242.00,0.0190
3241.00,0.0190
3240.00,0.0190
3239.00,0.0190
3238.00,0.0190
3237.00,0.0190
3236.00,0.0191
3235.00,0.0192
3234.00,0.0192
3233.00,0.0192
3232.00,0.0192
3231.00,0.0192
3230.00,0.0191
3229.00,0.0191
3228.00,0.0191
3227.00,0.0191
3226.00,0.0191
3225.00,0.0191
3224.00,0.0191
3223.00,0.0190
3222.00,0.0190
3221.00,0.0190
3220.00,0.0189
3219.00,0.0189
3218.00,0.0189
3217.00,0.0190
3216.00,0.0191
3215.00,0.0191
3214.00,0.0191
3213.00,0.0190
3212.00,0.0189
3211.00,0.0188
3210.00,0.0188
3209.00,0.0189
3208.00,0.0189
3207.00,0.0189
3206.00,0.0190
3205.00,0.0190
3204.00,0.0191
3203.00,0.0191
3202.00,0.0190
3201.00,0.0190
3200.00,0.0190
3199.00,0.0190
3198.00,0.0190
3197.00,0.0190
3196.00,0.0190
3195.00,0.0190
3194.00,0.0190
3193.00,0.0189
3192.00,0.0189
3191.00,0.0188
3190.00,0.0188
3189.00,0.0187
3188.00,0.0186
3187.00,0.0186
3186.00,0.0186
3185.00,0.0187
3184.00,0.0187
3183.00,0.0188
3182.00,0.0188
3181.00,0.0188
3180.00,0.0188
3179.00,0.0187
3178.00,0.0186
3177.00,0.0185
3176.00,0.0184
3175.00,0.0184
3174.00,0.0185
3173.00,0.0185
3172.00,0.0185
3171.00,0.0185
3170.00,0.0185
3169.00,0.0185
3168.00,0.0184
3167.00,0.0184
3166.00,0.0185
3165.00,0.0186
3164.00,0.0186
3163.00,0.0187
3162.00,0.0186
3161.00,0.0185
3160.00,0.0184
3159.00,0.0182
3158.00,0.0181
3157.00,0.0181
3156.00,0.0182
3155.00,0.0182
3154.00,0.0183
3153.00,0.0184
3152.00,0.0184
3151.00,0.0183
3150.00,0.0182
3149.00,0.0182
3148.00,0.0181
3147.00,0.0181
3146.00,0.0181
3145.00,0.0181
3144.00,0.0181
3143.00,0.0181
3142.00,0.0181
3141.00,0.0180
3140.00,0.0180
3139.00,0.0180
3138.00,0.0180
3137.00,0.0180
3136.00,0.0180
3135.00,0.0180
3134.00,0.0179
3133.00,0.0179
3132.00,0.0179
3131.00,0.0179
3130.00,0.0179
3129.00,0.0179
3128.00,0.0178
3127.00,0.0178
3126.00,0.0178
3125.00,0.0177
3124.00,0.0177
3123.00,0.0177
3122.00,0.0176
3121.00,0.0176
3120.00,0.0176
3119.00,0.0176
3118.00,0.0176
3117.00,0.0176
3116.00,0.0176
3115.00,0.0176
3114.00,0.0176
3113.00,0.0176
3112.00,0.0175
3111.00,0.0175
3110.00,0.0174
3109.00,0.0174
3108.00,0.0174
3107.00,0.0174
3106.00,0.0175
3105.00,0.0175
3104.00,0.0175
3103.00,0.0174
3102.00,0.0173
3101.00,0.0173
3100.00,0.0172
3099.00,0.0172
3098.00,0.0172
3097.00,0.0172
3096.00,0.0172
3095.00,0.0173
3094.00,0.0173
3093.00,0.0173
3092.00,0.0173
3091.00,0.0173
3090.00,0.0171
3089.00,0.0170
3088.00,0.0169
3087.00,0.0169
3086.00,0.0170
3085.00,0.0171
3084.00,0.0171
3083.00,0.0170
3082.00,0.0170
3081.00,0.0170
3080.00,0.0170
3079.00,0.0170
3078.00,0.0170
3077.00,0.0169
3076.00,0.0169
3075.00,0.0169
3074.00,0.0169
3073.00,0.0169
3072.00,0.0169
3071.00,0.0169
3070.00,0.0169
3069.00,0.0169
3068.00,0.0169
3067.00,0.0168
3066.00,0.0168
3065.00,0.0167
3064.00,0.0166
3063.00,0.0165
3062.00,0.0165
3061.00,0.0166
3060.00,0.0166
3059.00,0.0166
3058.00,0.0165
3057.00,0.0165
3056.00,0.0165
3055.00,0.0165
3054.00,0.0164
3053.00,0.0164
3052.00,0.0164
3051.00,0.0164
3050.00,0.0165
3049.00,0.0165
3048.00,0.0165
3047.00,0.0165
3046.00,0.0164
3045.00,0.0164
3044.00,0.0163
3043.00,0.0162
3042.00,0.0161
3041.00,0.0160
3040.00,0.0159
3039.00,0.0159
3038.00,0.0159
3037.00,0.0160
3036.00,0.0160
3035.00,0.0160
3034.00,0.0160
3033.00,0.0159
3032.00,0.0159
3031.00,0.0158
3030.00,0.0158
3029.00,0.0157
3028.00,0.0156
3027.00,0.0156
3026.00,0.0155
3025.00,0.0155
3024.00,0.0155
3023.00,0.0155
3022.00,0.0155
3021.00,0.0155
3020.00,0.0154
3019.00,0.0153
3018.00,0.0152
3017.00,0.0152
3016.00,0.0151
3015.00,0.0151
3014.00,0.0150
3013.00,0.0149
3012.00,0.0148
3011.00,0.0147
3010.00,0.0146
3009.00,0.0145
3008.00,0.0143
3007.00,0.0141
3006.00,0.0139
3005.00,0.0138
3004.00,0.0137
3003.00,0.0135
3002.00,0.0134
3001.00,0.0132
3000.00,0.0130
2999.00,0.0128
2998.00,0.0127
2997.00,0.0125
2996.00,0.0124
2995.00,0.0124
2994.00,0.0123
2993.00,0.0123
2992.00,0.0122
2991.00,0.0121
2990.00,0.0119
2989.00,0.0118
2988.00,0.0117
2987.00,0.0115
2986.00,0.0112
2985.00,0.0107
2984.00,0.0103
2983.00,0.0099
2982.00,0.0097
2981.00,0.0097
2980.00,0.0098
2979.00,0.0100
2978.00,0.0103
2977.00,0.0105
2976.00,0.0107
2975.00,0.0107
2974.00,0.0107
2973.00,0.0105
2972.00,0.0104
2971.00,0.0104
2970.00,0.0106
2969.00,0.0108
2968.00,0.0111
2967.00,0.0112
2966.00,0.0113
2965.00,0.0113
2964.00,0.0114
2963.00,0.0115
2962.00,0.0116
2961.00,0.0116
2960.00,0.0116
2959.00,0.0116
2958.00,0.0117
2957.00,0.0117
2956.00,0.0118
2955.00,0.0119
2954.00,0.0120
2953.00,0.0121
2952.00,0.0122
2951.00,0.0122
2950.00,0.0123
2949.00,0.0123
2948.00,0.0123
2947.00,0.0123
2946.00,0.0124
2945.00,0.0124
2944.00,0.0125
2943.00,0.0126
2942.00,0.0126
2941.00,0.0127
2940.00,0.0126
2939.00,0.0126
2938.00,0.0125
2937.00,0.0125
2936.00,0.0125
2935.00,0.0125
2934.00,0.0124
2933.00,0.0123
2932.00,0.0123
2931.00,0.0122
2930.00,0.0123
2929.00,0.0123
2928.00,0.0123
2927.00,0.0122
2926.00,0.0122
2925.00,0.0121
2924.00,0.0121
2923.00,0.0121
2922.00,0.0121
2921.00,0.0121
2920.00,0.0120
2919.00,0.0120
2918.00,0.0120
2917.00,0.0120
2916.00,0.0120
2915.00,0.0120
2914.00,0.0120
2913.00,0.0120
2912.00,0.0120
2911.00,0.0119
2910.00,0.0119
2909.00,0.0119
2908.00,0.0118
2907.00,0.0118
2906.00,0.0118
2905.00,0.0117
2904.00,0.0117
2903.00,0.0117
2902.00,0.0116
2901.00,0.0116
2900.00,0.0116
2899.00,0.0116
2898.00,0.0116
2897.00,0.0116
2896.00,0.0115
2895.00,0.0115
2894.00,0.0115
2893.00,0.0114
2892.00,0.0114
2891.00,0.0114
2890.00,0.0114
2889.00,0.0113
2888.00,0.0113
2887.00,0.0113
2886.00,0.0113
2885.00,0.0112
2884.00,0.0112
2883.00,0.0112
2882.00,0.0112
2881.00,0.0113
2880.00,0.0113
2879.00,0.0114
2878.00,0.0115
2877.00,0.0115
2876.00,0.0115
2875.00,0.0115
2874.00,0.0115
2873.00,0.0114
2872.00,0.0114
2871.00,0.0114
2870.00,0.0115
2869.00,0.0115
2868.00,0.0115
2867.00,0.0115
2866.00,0.0115
2865.00,0.0115
2864.00,0.0116
2863.00,0.0116
2862.00,0.0115
2861.00,0.0115
2860.00,0.0116
2859.00,0.0116
2858.00,0.0116
2857.00,0.0117
2856.00,0.0116
2855.00,0.0116
2854.00,0.0115
2853.00,0.0114
2852.00,0.0114
2851.00,0.0115
2850.00,0.0116
2849.00,0.0117
2848.00,0.0117
2847.00,0.0117
2846.00,0.0117
2845.00,0.0117
2844.00,0.0117
2843.00,0.0117
2842.00,0.0117
2841.00,0.0116
2840.00,0.0115
2839.00,0.0114
2838.00,0.0114
2837.00,0.0114
2836.00,0.0115
2835.00,0.0116
2834.00,0.0116
2833.00,0.0116
2832.00,0.0115
2831.00,0.0115
2830.00,0.0114
2829.00,0.0114
2828.00,0.0114
2827.00,0.0114
2826.00,0.0114
2825.00,0.0114
2824.00,0.0114
2823.00,0.0114
2822.00,0.0114
2821.00,0.0113
2820.00,0.0113
2819.00,0.0112
2818.00,0.0112
2817.00,0.0111
2816.00,0.0111
2815.00,0.0111
2814.00,0.0110
2813.00,0.0110
2812.00,0.0110
2811.00,0.0111
2810.00,0.0111
2809.00,0.0111
2808.00,0.0111
2807.00,0.0111
2806.00,0.0111
2805.00,0.0111
2804.00,0.0111
2803.00,0.0111
2802.00,0.0111
2801.00,0.0110
2800.00,0.0110
2799.00,0.0111
2798.00,0.0111
2797.00,0.0111
2796.00,0.0110
2795.00,0.0110
2794.00,0.0110
2793.00,0.0109
2792.00,0.0109
2791.00,0.0109
2790.00,0.0109
2789.00,0.0110
2788.00,0.0110
2787.00,0.0109
2786.00,0.0109
2785.00,0.0108
2784.00,0.0108
2783.00,0.0107
2782.00,0.0106
2781.00,0.0106
2780.00,0.0105
2779.00,0.0105
2778.00,0.0105
2777.00,0.0106
2776.00,0.0106
2775.00,0.0106
2774.00,0.0106
2773.00,0.0106
2772.00,0.0106
2771.00,0.0105
2770.00,0.0104
2769.00,0.0104
2768.00,0.0103
2767.00,0.0104
2766.00,0.0104
2765.00,0.0104
2764.00,0.0104
2763.00,0.0103
2762.00,0.0103
2761.00,0.0103
2760.00,0.0104
2759.00,0.0104
2758.00,0.0103
2757.00,0.0103
2756.00,0.0102
2755.00,0.0102
2754.00,0.0102
2753.00,0.0102
2752.00,0.0102
2751.00,0.0102
2750.00,0.0103
2749.00,0.0103
2748.00,0.0103
2747.00,0.0103
2746.00,0.0102
2745.00,0.0102
2744.00,0.0102
2743.00,0.0101
2742.00,0.0101
2741.00,0.0101
2740.00,0.0101
2739.00,0.0100
2738.00,0.0100
2737.00,0.0099
2736.00,0.0099
2735.00,0.0099
2734.00,0.0099
2733.00,0.0100
2732.00,0.0100
2731.00,0.0100
2730.00,0.0100
2729.00,0.0100
2728.00,0.0099
2727.00,0.0099
2726.00,0.0099
2725.00,0.0099
2724.00,0.0099
2723.00,0.0098
2722.00,0.0098
2721.00,0.0097
2720.00,0.0097
2719.00,0.0097
2718.00,0.0097
2717.00,0.0097
2716.00,0.0097
2715.00,0.0097
2714.00,0.0097
2713.00,0.0097
2712.00,0.0097
2711.00,0.0097
2710.00,0.0097
2709.00,0.0097
2708.00,0.0097
2707.00,0.0096
2706.00,0.0096
2705.00,0.0096
2704.00,0.0096
2703.00,0.0095
2702.00,0.0095
2701.00,0.0095
2700.00,0.0095
2699.00,0.0095
2698.00,0.0095
2697.00,0.0095
2696.00,0.0094
2695.00,0.0094
2694.00,0.0095
2693.00,0.0095
2692.00,0.0095
2691.00,0.0095
2690.00,0.0094
2689.00,0.0094
2688.00,0.0094
2687.00,0.0094
2686.00,0.0094
2685.00,0.0094
2684.00,0.0094
2683.00,0.0094
2682.00,0.0094
2681.00,0.0094
2680.00,0.0093
2679.00,0.0092
2678.00,0.0092
2677.00,0.0091
2676.00,0.0091
2675.00,0.0091
2674.00,0.0091
2673.00,0.0092
2672.00,0.0091
2671.00,0.0091
2670.00,0.0091
2669.00,0.0091
2668.00,0.0091
2667.00,0.0091
2666.00,0.0091
2665.00,0.0090
2664.00,0.0091
2663.00,0.0091
2662.00,0.0091
2661.00,0.0091
2660.00,0.0091
2659.00,0.0091
2658.00,0.0091
2657.00,0.0091
2656.00,0.0091
2655.00,0.0091
2654.00,0.0091
2653.00,0.0091
2652.00,0.0091
2651.00,0.0091
2650.00,0.0091
2649.00,0.0091
2648.00,0.0091
2647.00,0.0090
2646.00,0.0090
2645.00,0.0090
2644.00,0.0090
2643.00,0.0091
2642.00,0.0091
2641.00,0.0091
2640.00,0.0091
2639.00,0.0090
2638.00,0.0090
2637.00,0.0090
2636.00,0.0089
2635.00,0.0089
2634.00,0.0090
2633.00,0.0090
2632.00,0.0090
2631.00,0.0089
2630.00,0.0089
2629.00,0.0088
2628.00,0.0087
2627.00,0.0087
2626.00,0.0088
2625.00,0.0088
2624.00,0.0089
2623.00,0.0089
2622.00,0.0089
2621.00,0.0089
2620.00,0.0090
2619.00,0.0090
2618.00,0.0090
2617.00,0.0090
2616.00,0.0089
2615.00,0.0088
2614.00,0.0088
2613.00,0.0088
2612.00,0.0088
2611.00,0.0089
2610.00,0.0089
2609.00,0.0088
2608.00,0.0087
2607.00,0.0087
2606.00,0.0088
2605.00,0.0089
2604.00,0.0089
2603.00,0.0089
2602.00,0.0089
2601.00,0.0089
2600.00,0.0088
2599.00,0.0087
2598.00,0.0087
2597.00,0.0087
2596.00,0.0087
2595.00,0.0087
2594.00,0.0087
2593.00,0.0087
2592.00,0.0088
2591.00,0.0088
2590.00,0.0088
2589.00,0.0088
2588.00,0.0088
2587.00,0.0088
2586.00,0.0087
2585.00,0.0087
2584.00,0.0086
2583.00,0.0086
2582.00,0.0086
2581.00,0.0086
2580.00,0.0087
2579.00,0.0087
2578.00,0.0087
2577.00,0.0087
2576.00,0.0086
2575.00,0.0085
2574.00,0.0085
2573.00,0.0086
2572.00,0.0086
2571.00,0.0086
2570.00,0.0085
2569.00,0.0085
2568.00,0.0085
2567.00,0.0086
2566.00,0.0087
2565.00,0.0087
2564.00,0.0087
2563.00,0.0087
2562.00,0.0087
2561.00,0.0087
2560.00,0.0087
2559.00,0.0086
2558.00,0.0086
2557.00,0.0086
2556.00,0.0086
2555.00,0.0086
2554.00,0.0086
2553.00,0.0086
2552.00,0.0085
2551.00,0.0084
2550.00,0.0083
2549.00,0.0082
2548.00,0.0081
2547.00,0.0081
2546.00,0.0081
2545.00,0.0082
2544.00,0.0082
2543.00,0.0082
2542.00,0.0082
2541.00,0.0081
2540.00,0.0080
2539.00,0.0080
2538.00,0.0079
2537.00,0.0079
2536.00,0.0079
2535.00,0.0080
2534.00,0.0080
2533.00,0.0081
2532.00,0.0082
2531.00,0.0081
2530.00,0.0081
2529.00,0.0081
2528.00,0.0080
2527.00,0.0080
2526.00,0.0079
2525.00,0.0079
2524.00,0.0078
2523.00,0.0079
2522.00,0.0079
2521.00,0.0079
2520.00,0.0080
2519.00,0.0080
2518.00,0.0081
2517.00,0.0081
2516.00,0.0082
2515.00,0.0081
2514.00,0.0080
2513.00,0.0079
2512.00,0.0078
2511.00,0.0079
2510.00,0.0080
2509.00,0.0080
2508.00,0.0081
2507.00,0.0080
2506.00,0.0080
2505.00,0.0079
2504.00,0.0079
2503.00,0.0079
2502.00,0.0080
2501.00,0.0080
2500.00,0.0081
2499.00,0.0081
2498.00,0.0081
2497.00,0.0080
2496.00,0.0080
2495.00,0.0080
2494.00,0.0080
2493.00,0.0081
2492.00,0.0080
2491.00,0.0080
2490.00,0.0080
2489.00,0.0081
2488.00,0.0081
2487.00,0.0081
2486.00,0.0080
2485.00,0.0079
2484.00,0.0078
2483.00,0.0078
2482.00,0.0078
2481.00,0.0079
2480.00,0.0080
2479.00,0.0080
2478.00,0.0080
2477.00,0.0079
2476.00,0.0078
2475.00,0.0078
2474.00,0.0078
2473.00,0.0078
2472.00,0.0078
2471.00,0.0078
2470.00,0.0078
2469.00,0.0078
2468.00,0.0077
2467.00,0.0077
2466.00,0.0076
2465.00,0.0076
2464.00,0.0076
2463.00,0.0075
2462.00,0.0076
2461.00,0.0076
2460.00,0.0076
2459.00,0.0077
2458.00,0.0078
2457.00,0.0078
2456.00,0.0078
2455.00,0.0078
2454.00,0.0078
2453.00,0.0079
2452.00,0.0079
2451.00,0.0078
2450.00,0.0078
2449.00,0.0077
2448.00,0.0077
2447.00,0.0077
2446.00,0.0077
2445.00,0.0076
2444.00,0.0076
2443.00,0.0075
2442.00,0.0076
2441.00,0.0076
2440.00,0.0076
2439.00,0.0076
2438.00,0.0076
2437.00,0.0076
2436.00,0.0075
2435.00,0.0075
2434.00,0.0075
2433.00,0.0074
2432.00,0.0074
2431.00,0.0075
2430.00,0.0075
2429.00,0.0075
2428.00,0.0075
2427.00,0.0075
2426.00,0.0074
2425.00,0.0075
2424.00,0.0075
2423.00,0.0075
2422.00,0.0075
2421.00,0.0075
2420.00,0.0074
2419.00,0.0074
2418.00,0.0074
2417.00,0.0073
2416.00,0.0072
2415.00,0.0072
2414.00,0.0073
2413.00,0.0073
2412.00,0.0073
2411.00,0.0073
2410.00,0.0073
2409.00,0.0073
2408.00,0.0074
2407.00,0.0074
2406.00,0.0074
2405.00,0.0073
2404.00,0.0073
2403.00,0.0073
2402.00,0.0073
2401.00,0.0073
2400.00,0.0073
2399.00,0.0073
2398.00,0.0073
2397.00,0.0072
2396.00,0.0071
2395.00,0.0071
2394.00,0.0071
2393.00,0.0070
2392.00,0.0070
2391.00,0.0070
2390.00,0.0070
2389.00,0.0070
2388.00,0.0070
2387.00,0.0071
2386.00,0.0071
2385.00,0.0071
2384.00,0.0071
2383.00,0.0071
2382.00,0.0071
2381.00,0.0072
2380.00,0.0073
2379.00,0.0074
2378.00,0.0075
2377.00,0.0074
2376.00,0.0074
2375.00,0.0073
2374.00,0.0072
2373.00,0.0072
2372.00,0.0072
2371.00,0.0071
2370.00,0.0069
2369.00,0.0066
2368.00,0.0064
2367.00,0.0064
2366.00,0.0066
2365.00,0.0070
2364.00,0.0071
2363.00,0.0070
2362.00,0.0069
2361.00,0.0069
2360.00,0.0070
2359.00,0.0070
2358.00,0.0069
2357.00,0.0069
2356.00,0.0068
2355.00,0.0068
2354.00,0.0068
2353.00,0.0069
2352.00,0.0069
2351.00,0.0069
2350.00,0.0069
2349.00,0.0068
2348.00,0.0068
2347.00,0.0069
2346.00,0.0069
2345.00,0.0069
2344.00,0.0070
2343.00,0.0071
2342.00,0.0072
2341.00,0.0073
2340.00,0.0072
2339.00,0.0070
2338.00,0.0067
2337.00,0.0065
2336.00,0.0065
2335.00,0.0066
2334.00,0.0067
2333.00,0.0069
2332.00,0.0069
2331.00,0.0069
2330.00,0.0069
2329.00,0.0068
2328.00,0.0068
2327.00,0.0069
2326.00,0.0069
2325.00,0.0068
2324.00,0.0068
2323.00,0.0067
2322.00,0.0066
2321.00,0.0066
2320.00,0.0066
2319.00,0.0065
2318.00,0.0065
2317.00,0.0066
2316.00,0.0066
2315.00,0.0067
2314.00,0.0067
2313.00,0.0067
2312.00,0.0067
2311.00,0.0067
2310.00,0.0068
2309.00,0.0069
2308.00,0.0069
2307.00,0.0068
2306.00,0.0067
2305.00,0.0067
2304.00,0.0066
2303.00,0.0066
2302.00,0.0065
2301.00,0.0064
2300.00,0.0065
2299.00,0.0065
2298.00,0.0065
2297.00,0.0065
2296.00,0.0065
2295.00,0.0065
2294.00,0.0065
2293.00,0.0067
2292.00,0.0068
2291.00,0.0068
2290.00,0.0068
2289.00,0.0067
2288.00,0.0067
2287.00,0.0068
2286.00,0.0069
2285.00,0.0071
2284.00,0.0071
2283.00,0.0072
2282.00,0.0072
2281.00,0.0071
2280.00,0.0071
2279.00,0.0071
2278.00,0.0070
2277.00,0.0070
2276.00,0.0069
2275.00,0.0068
2274.00,0.0066
2273.00,0.0065
2272.00,0.0065
2271.00,0.0065
2270.00,0.0065
2269.00,0.0065
2268.00,0.0065
2267.00,0.0065
2266.00,0.0066
2265.00,0.0067
2264.00,0.0068
2263.00,0.0069
2262.00,0.0069
2261.00,0.0069
2260.00,0.0068
2259.00,0.0068
2258.00,0.0066
2257.00,0.0064
2256.00,0.0063
2255.00,0.0063
2254.00,0.0063
2253.00,0.0064
2252.00,0.0064
2251.00,0.0065
2250.00,0.0066
2249.00,0.0065
2248.00,0.0065
2247.00,0.0065
2246.00,0.0066
2245.00,0.0067
2244.00,0.0068
2243.00,0.0068
2242.00,0.0068
2241.00,0.0067
2240.00,0.0066
2239.00,0.0065
2238.00,0.0065
2237.00,0.0065
2236.00,0.0065
2235.00,0.0065
2234.00,0.0066
2233.00,0.0067
2232.00,0.0067
2231.00,0.0066
2230.00,0.0064
2229.00,0.0062
2228.00,0.0062
2227.00,0.0063
2226.00,0.0063
2225.00,0.0063
2224.00,0.0062
2223.00,0.0060
2222.00,0.0059
2221.00,0.0059
2220.00,0.0059
2219.00,0.0059
2218.00,0.0060
2217.00,0.0061
2216.00,0.0062
2215.00,0.0063
2214.00,0.0064
2213.00,0.0064
2212.00,0.0063
2211.00,0.0062
2210.00,0.0061
2209.00,0.0061
2208.00,0.0062
2207.00,0.0063
2206.00,0.0063
2205.00,0.0063
2204.00,0.0062
2203.00,0.0062
2202.00,0.0061
2201.00,0.0061
2200.00,0.0061
2199.00,0.0061
2198.00,0.0062
2197.00,0.0062
2196.00,0.0062
2195.00,0.0061
2194.00,0.0060
2193.00,0.0059
2192.00,0.0058
2191.00,0.0057
2190.00,0.0055
2189.00,0.0055
2188.00,0.0055
2187.00,0.0058
2186.00,0.0060
2185.00,0.0061
2184.00,0.0059
2183.00,0.0057
2182.00,0.0055
2181.00,0.0055
2180.00,0.0056
2179.00,0.0059
2178.00,0.0061
2177.00,0.0063
2176.00,0.0064
2175.00,0.0062
2174.00,0.0060
2173.00,0.0058
2172.00,0.0058
2171.00,0.0060
2170.00,0.0063
2169.00,0.0064
2168.00,0.0065
2167.00,0.0064
2166.00,0.0065
2165.00,0.0067
2164.00,0.0068
2163.00,0.0069
2162.00,0.0068
2161.00,0.0066
2160.00,0.0062
2159.00,0.0057
2158.00,0.0054
2157.00,0.0053
2156.00,0.0054
2155.00,0.0055
2154.00,0.0056
2153.00,0.0058
2152.00,0.0059
2151.00,0.0058
2150.00,0.0056
2149.00,0.0056
2148.00,0.0057
2147.00,0.0059
2146.00,0.0061
2145.00,0.0062
2144.00,0.0061
2143.00,0.0061
2142.00,0.0062
2141.00,0.0062
2140.00,0.0063
2139.00,0.0061
2138.00,0.0060
2137.00,0.0058
2136.00,0.0056
2135.00,0.0055
2134.00,0.0055
2133.00,0.0056
2132.00,0.0056
2131.00,0.0056
2130.00,0.0056
2129.00,0.0057
2128.00,0.0058
2127.00,0.0059
2126.00,0.0059
2125.00,0.0058
2124.00,0.0057
2123.00,0.0056
2122.00,0.0055
2121.00,0.0055
2120.00,0.0055
2119.00,0.0055
2118.00,0.0055
2117.00,0.0055
2116.00,0.0054
2115.00,0.0052
2114.00,0.0051
2113.00,0.0050
2112.00,0.0051
2111.00,0.0053
2110.00,0.0056
2109.00,0.0058
2108.00,0.0060
2107.00,0.0061
2106.00,0.0062
2105.00,0.0061
2104.00,0.0061
2103.00,0.0060
2102.00,0.0060
2101.00,0.0059
2100.00,0.0058
2099.00,0.0055
2098.00,0.0054
2097.00,0.0053
2096.00,0.0054
2095.00,0.0054
2094.00,0.0055
2093.00,0.0056
2092.00,0.0055
2091.00,0.0055
2090.00,0.0053
2089.00,0.0053
2088.00,0.0052
2087.00,0.0052
2086.00,0.0052
2085.00,0.0052
2084.00,0.0054
2083.00,0.0054
2082.00,0.0054
2081.00,0.0054
2080.00,0.0054
2079.00,0.0054
2078.00,0.0054
2077.00,0.0054
2076.00,0.0054
2075.00,0.0055
2074.00,0.0055
2073.00,0.0055
2072.00,0.0056
2071.00,0.0056
2070.00,0.0056
2069.00,0.0054
2068.00,0.0051
2067.00,0.0048
2066.00,0.0048
2065.00,0.0050
2064.00,0.0052
2063.00,0.0053
2062.00,0.0054
2061.00,0.0054
2060.00,0.0053
2059.00,0.0053
2058.00,0.0053
2057.00,0.0053
2056.00,0.0054
2055.00,0.0055
2054.00,0.0055
2053.00,0.0056
2052.00,0.0056
2051.00,0.0055
2050.00,0.0054
2049.00,0.0053
2048.00,0.0053
2047.00,0.0055
2046.00,0.0058
2045.00,0.0060
2044.00,0.0061
2043.00,0.0060
2042.00,0.0059
2041.00,0.0056
2040.00,0.0053
2039.00,0.0051
2038.00,0.0052
2037.00,0.0055
2036.00,0.0057
2035.00,0.0057
2034.00,0.0055
2033.00,0.0055
2032.00,0.0057
2031.00,0.0060
2030.00,0.0060
2029.00,0.0057
2028.00,0.0054
2027.00,0.0052
2026.00,0.0051
2025.00,0.0049
2024.00,0.0046
2023.00,0.0044
2022.00,0.0043
2021.00,0.0043
2020.00,0.0044
2019.00,0.0043
2018.00,0.0042
2017.00,0.0041
2016.00,0.0042
2015.00,0.0044
2014.00,0.0046
2013.00,0.0048
2012.00,0.0048
2011.00,0.0048
2010.00,0.0048
2009.00,0.0049
2008.00,0.0049
2007.00,0.0049
2006.00,0.0047
2005.00,0.0046
2004.00,0.0046
2003.00,0.0049
2002.00,0.0053
2001.00,0.0056
2000.00,0.0056
1999.00,0.0053
1998.00,0.0050
1997.00,0.0049
1996.00,0.0050
1995.00,0.0053
1994.00,0.0055
1993.00,0.0055
1992.00,0.0053
1991.00,0.0049
1990.00,0.0046
1989.00,0.0043
1988.00,0.0042
1987.00,0.0042
1986.00,0.0042
1985.00,0.0043
1984.00,0.0045
1983.00,0.0046
1982.00,0.0046
1981.00,0.0045
1980.00,0.0043
1979.00,0.0039
1978.00,0.0036
1977.00,0.0033
1976.00,0.0034
1975.00,0.0038
1974.00,0.0043
1973.00,0.0046
1972.00,0.0046
1971.00,0.0044
1970.00,0.0043
1969.00,0.0044
1968.00,0.0046
1967.00,0.0045
1966.00,0.0044
1965.00,0.0043
1964.00,0.0043
1963.00,0.0044
1962.00,0.0045
1961.00,0.0045
1960.00,0.0046
1959.00,0.0047
1958.00,0.0047
1957.00,0.0046
1956.00,0.0044
1955.00,0.0044
1954.00,0.0044
1953.00,0.0045
1952.00,0.0045
1951.00,0.0044
1950.00,0.0043
1949.00,0.0042
1948.00,0.0042
1947.00,0.0042
1946.00,0.0042
1945.00,0.0041
1944.00,0.0038
1943.00,0.0036
1942.00,0.0034
1941.00,0.0033
1940.00,0.0032
1939.00,0.0031
1938.00,0.0030
1937.00,0.0031
1936.00,0.0031
1935.00,0.0031
1934.00,0.0030
1933.00,0.0030
1932.00,0.0031
1931.00,0.0033
1930.00,0.0035
1929.00,0.0038
1928.00,0.0039
1927.00,0.0040
1926.00,0.0040
1925.00,0.0040
1924.00,0.0039
1923.00,0.0039
1922.00,0.0038
1921.00,0.0039
1920.00,0.0038
1919.00,0.0036
1918.00,0.0034
1917.00,0.0034
1916.00,0.0035
1915.00,0.0036
1914.00,0.0037
1913.00,0.0038
1912.00,0.0038
1911.00,0.0038
1910.00,0.0036
1909.00,0.0035
1908.00,0.0035
1907.00,0.0035
1906.00,0.0035
1905.00,0.0037
1904.00,0.0038
1903.00,0.0038
1902.00,0.0037
1901.00,0.0037
1900.00,0.0036
1899.00,0.0036
1898.00,0.0036
1897.00,0.0036
1896.00,0.0034
1895.00,0.0031
1894.00,0.0031
1893.00,0.0031
1892.00,0.0032
1891.00,0.0033
1890.00,0.0032
1889.00,0.0031
1888.00,0.0030
1887.00,0.0030
1886.00,0.0030
1885.00,0.0030
1884.00,0.0031
1883.00,0.0031
1882.00,0.0031
1881.00,0.0030
1880.00,0.0030
1879.00,0.0030
1878.00,0.0029
1877.00,0.0029
1876.00,0.0029
1875.00,0.0029
1874.00,0.0030
1873.00,0.0032
1872.00,0.0034
1871.00,0.0035
1870.00,0.0035
1869.00,0.0034
1868.00,0.0032
1867.00,0.0031
1866.00,0.0031
1865.00,0.0030
1864.00,0.0030
1863.00,0.0029
1862.00,0.0028
1861.00,0.0028
1860.00,0.0027
1859.00,0.0027
1858.00,0.0027
1857.00,0.0028
1856.00,0.0029
1855.00,0.0029
1854.00,0.0028
1853.00,0.0028
1852.00,0.0028
1851.00,0.0029
1850.00,0.0030
1849.00,0.0030
1848.00,0.0029
1847.00,0.0030
1846.00,0.0030
1845.00,0.0028
1844.00,0.0026
1843.00,0.0024
1842.00,0.0024
1841.00,0.0025
1840.00,0.0026
1839.00,0.0027
1838.00,0.0027
1837.00,0.0027
1836.00,0.0027
1835.00,0.0027
1834.00,0.0027
1833.00,0.0029
1832.00,0.0031
1831.00,0.0031
1830.00,0.0030
1829.00,0.0028
1828.00,0.0028
1827.00,0.0028
1826.00,0.0028
1825.00,0.0026
1824.00,0.0025
1823.00,0.0025
1822.00,0.0025
1821.00,0.0026
1820.00,0.0026
1819.00,0.0026
1818.00,0.0025
1817.00,0.0025
1816.00,0.0025
1815.00,0.0025
1814.00,0.0026
1813.00,0.0027
1812.00,0.0027
1811.00,0.0027
1810.00,0.0027
1809.00,0.0027
1808.00,0.0028
1807.00,0.0028
1806.00,0.0028
1805.00,0.0028
1804.00,0.0029
1803.00,0.0029
1802.00,0.0029
1801.00,0.0028
1800.00,0.0028
1799.00,0.0028
1798.00,0.0028
1797.00,0.0029
1796.00,0.0031
1795.00,0.0032
1794.00,0.0033
1793.00,0.0033
1792.00,0.0033
1791.00,0.0032
1790.00,0.0032
1789.00,0.0033
1788.00,0.0034
1787.00,0.0035
1786.00,0.0036
1785.00,0.0037
1784.00,0.0038
1783.00,0.0039
1782.00,0.0040
1781.00,0.0041
1780.00,0.0041
1779.00,0.0042
1778.00,0.0044
1777.00,0.0046
1776.00,0.0049
1775.00,0.0051
1774.00,0.0052
1773.00,0.0051
1772.00,0.0050
1771.00,0.0050
1770.00,0.0051
1769.00,0.0053
1768.00,0.0054
1767.00,0.0054
1766.00,0.0056
1765.00,0.0058
1764.00,0.0060
1763.00,0.0061
1762.00,0.0060
1761.00,0.0060
1760.00,0.0061
1759.00,0.0062
1758.00,0.0063
1757.00,0.0063
1756.00,0.0064
1755.00,0.0065
1754.00,0.0068
1753.00,0.0069
1752.00,0.0069
1751.00,0.0068
1750.00,0.0068
1749.00,0.0069
1748.00,0.0071
1747.00,0.0072
1746.00,0.0073
1745.00,0.0074
1744.00,0.0076
1743.00,0.0077
1742.00,0.0078
1741.00,0.0079
1740.00,0.0079
1739.00,0.0079
1738.00,0.0080
1737.00,0.0083
1736.00,0.0086
1735.00,0.0086
1734.00,0.0086
1733.00,0.0086
1732.00,0.0088
1731.00,0.0091
1730.00,0.0093
1729.00,0.0094
1728.00,0.0096
1727.00,0.0098
1726.00,0.0100
1725.00,0.0102
1724.00,0.0104
1723.00,0.0106
1722.00,0.0108
1721.00,0.0110
1720.00,0.0112
1719.00,0.0113
1718.00,0.0113
1717.00,0.0114
1716.00,0.0116
1715.00,0.0118
1714.00,0.0120
1713.00,0.0122
1712.00,0.0123
1711.00,0.0124
1710.00,0.0125
1709.00,0.0126
1708.00,0.0127
1707.00,0.0129
1706.00,0.0129
1705.00,0.0130
1704.00,0.0132
1703.00,0.0134
1702.00,0.0135
1701.00,0.0134
1700.00,0.0132
1699.00,0.0131
1698.00,0.0133
1697.00,0.0135
1696.00,0.0136
1695.00,0.0135
1694.00,0.0134
1693.00,0.0136
1692.00,0.0137
1691.00,0.0139
1690.00,0.0140
1689.00,0.0142
1688.00,0.0144
1687.00,0.0145
1686.00,0.0145
1685.00,0.0144
1684.00,0.0144
1683.00,0.0144
1682.00,0.0145
1681.00,0.0145
1680.00,0.0146
1679.00,0.0147
1678.00,0.0148
1677.00,0.0151
1676.00,0.0152
1675.00,0.0153
1674.00,0.0154
1673.00,0.0154
1672.00,0.0155
1671.00,0.0156
1670.00,0.0156
1669.00,0.0157
1668.00,0.0157
1667.00,0.0157
1666.00,0.0158
1665.00,0.0158
1664.00,0.0159
1663.00,0.0160
1662.00,0.0161
1661.00,0.0161
1660.00,0.0163
1659.00,0.0165
1658.00,0.0167
1657.00,0.0168
1656.00,0.0169
1655.00,0.0168
1654.00,0.0166
1653.00,0.0169
1652.00,0.0171
1651.00,0.0172
1650.00,0.0174
1649.00,0.0176
1648.00,0.0178
1647.00,0.0179
1646.00,0.0181
1645.00,0.0181
1644.00,0.0182
1643.00,0.0183
1642.00,0.0184
1641.00,0.0184
1640.00,0.0185
1639.00,0.0186
1638.00,0.0187
1637.00,0.0189
1636.00,0.0193
1635.00,0.0197
1634.00,0.0197
1633.00,0.0196
1632.00,0.0196
1631.00,0.0196
1630.00,0.0198
1629.00,0.0200
1628.00,0.0202
1627.00,0.0204
1626.00,0.0206
1625.00,0.0208
1624.00,0.0210
1623.00,0.0211
1622.00,0.0211
1621.00,0.0211
1620.00,0.0212
1619.00,0.0212
1618.00,0.0212
1617.00,0.0213
1616.00,0.0215
1615.00,0.0217
1614.00,0.0218
1613.00,0.0218
1612.00,0.0219
1611.00,0.0220
1610.00,0.0221
1609.00,0.0223
1608.00,0.0224
1607.00,0.0225
1606.00,0.0227
1605.00,0.0228
1604.00,0.0229
1603.00,0.0230
1602.00,0.0230
1601.00,0.0229
1600.00,0.0229
1599.00,0.0230
1598.00,0.0232
1597.00,0.0234
1596.00,0.0236
1595.00,0.0238
1594.00,0.0240
1593.00,0.0240
1592.00,0.0241
1591.00,0.0242
1590.00,0.0243
1589.00,0.0244
1588.00,0.0246
1587.00,0.0248
1586.00,0.0249
1585.00,0.0250
1584.00,0.0251
1583.00,0.0252
1582.00,0.0253
1581.00,0.0254
1580.00,0.0254
1579.00,0.0255
1578.00,0.0256
1577.00,0.0258
1576.00,0.0260
1575.00,0.0261
1574.00,0.0261
1573.00,0.0260
1572.00,0.0260
1571.00,0.0261
1570.00,0.0263
1569.00,0.0265
1568.00,0.0266
1567.00,0.0266
1566.00,0.0265
1565.00,0.0264
1564.00,0.0264
1563.00,0.0262
1562.00,0.0261
1561.00,0.0258
1560.00,0.0258
1559.00,0.0266
1558.00,0.0270
1557.00,0.0267
1556.00,0.0263
1555.00,0.0262
1554.00,0.0262
1553.00,0.0262
1552.00,0.0261
1551.00,0.0260
1550.00,0.0259
1549.00,0.0257
1548.00,0.0255
1547.00,0.0253
1546.00,0.0252
1545.00,0.0251
1544.00,0.0250
1543.00,0.0248
1542.00,0.0246
1541.00,0.0244
1540.00,0.0245
1539.00,0.0245
1538.00,0.0243
1537.00,0.0240
1536.00,0.0239
1535.00,0.0237
1534.00,0.0235
1533.00,0.0234
1532.00,0.0233
1531.00,0.0231
1530.00,0.0229
1529.00,0.0229
1528.00,0.0227
1527.00,0.0225
1526.00,0.0223
1525.00,0.0220
1524.00,0.0218
1523.00,0.0216
1522.00,0.0214
1521.00,0.0213
1520.00,0.0212
1519.00,0.0211
1518.00,0.0210
1517.00,0.0208
1516.00,0.0206
1515.00,0.0205
1514.00,0.0203
1513.00,0.0201
1512.00,0.0200
1511.00,0.0198
1510.00,0.0198
1509.00,0.0197
1508.00,0.0196
1507.00,0.0195
1506.00,0.0193
1505.00,0.0190
1504.00,0.0188
1503.00,0.0187
1502.00,0.0186
1501.00,0.0184
1500.00,0.0184
1499.00,0.0184
1498.00,0.0183
1497.00,0.0183
1496.00,0.0183
1495.00,0.0182
1494.00,0.0181
1493.00,0.0180
1492.00,0.0179
1491.00,0.0179
1490.00,0.0180
1489.00,0.0180
1488.00,0.0180
1487.00,0.0179
1486.00,0.0178
1485.00,0.0176
1484.00,0.0175
1483.00,0.0175
1482.00,0.0174
1481.00,0.0174
1480.00,0.0174
1479.00,0.0174
1478.00,0.0174
1477.00,0.0174
1476.00,0.0174
1475.00,0.0174
1474.00,0.0173
1473.00,0.0174
1472.00,0.0174
1471.00,0.0175
1470.00,0.0176
1469.00,0.0177
1468.00,0.0178
1467.00,0.0178
1466.00,0.0178
1465.00,0.0178
1464.00,0.0178
1463.00,0.0177
1462.00,0.0177
1461.00,0.0177
1460.00,0.0177
1459.00,0.0178
1458.00,0.0180
1457.00,0.0182
1456.00,0.0183
1455.00,0.0183
1454.00,0.0183
1453.00,0.0184
1452.00,0.0185
1451.00,0.0186
1450.00,0.0187
1449.00,0.0188
1448.00,0.0190
1447.00,0.0191
1446.00,0.0192
1445.00,0.0193
1444.00,0.0193
1443.00,0.0193
1442.00,0.0193
1441.00,0.0194
1440.00,0.0195
1439.00,0.0196
1438.00,0.0198
1437.00,0.0199
1436.00,0.0201
1435.00,0.0201
1434.00,0.0201
1433.00,0.0201
1432.00,0.0202
1431.00,0.0203
1430.00,0.0203
1429.00,0.0203
1428.00,0.0204
1427.00,0.0204
1426.00,0.0205
1425.00,0.0207
1424.00,0.0208
1423.00,0.0209
1422.00,0.0209
1421.00,0.0209
1420.00,0.0209
1419.00,0.0211
1418.00,0.0213
1417.00,0.0215
1416.00,0.0215
1415.00,0.0215
1414.00,0.0214
1413.00,0.0213
1412.00,0.0213
1411.00,0.0213
1410.00,0.0213
1409.00,0.0213
1408.00,0.0213
1407.00,0.0214
1406.00,0.0214
1405.00,0.0214
1404.00,0.0214
1403.00,0.0214
1402.00,0.0213
1401.00,0.0213
1400.00,0.0213
1399.00,0.0214
1398.00,0.0215
1397.00,0.0215
1396.00,0.0216
1395.00,0.0217
1394.00,0.0216
1393.00,0.0216
1392.00,0.0216
1391.00,0.0216
1390.00,0.0216
1389.00,0.0216
1388.00,0.0217
1387.00,0.0218
1386.00,0.0218
1385.00,0.0218
1384.00,0.0217
1383.00,0.0217
1382.00,0.0217
1381.00,0.0219
1380.00,0.0220
1379.00,0.0221
1378.00,0.0222
1377.00,0.0223
1376.00,0.0224
1375.00,0.0225
1374.00,0.0226
1373.00,0.0227
1372.00,0.0227
1371.00,0.0226
1370.00,0.0227
1369.00,0.0227
1368.00,0.0227
1367.00,0.0228
1366.00,0.0228
1365.00,0.0228
1364.00,0.0229
1363.00,0.0230
1362.00,0.0231
1361.00,0.0231
1360.00,0.0230
1359.00,0.0230
1358.00,0.0229
1357.00,0.0229
1356.00,0.0230
1355.00,0.0230
1354.00,0.0230
1353.00,0.0229
1352.00,0.0229
1351.00,0.0227
1350.00,0.0226
1349.00,0.0225
1348.00,0.0224
1347.00,0.0224
1346.00,0.0223
1345.00,0.0222
1344.00,0.0222
1343.00,0.0221
1342.00,0.0221
1341.00,0.0221
1340.00,0.0222
1339.00,0.0222
1338.00,0.0222
1337.00,0.0221
1336.00,0.0220
1335.00,0.0219
1334.00,0.0218
1333.00,0.0217
1332.00,0.0217
1331.00,0.0216
1330.00,0.0216
1329.00,0.0215
1328.00,0.0215
1327.00,0.0214
1326.00,0.0214
1325.00,0.0213
1324.00,0.0214
1323.00,0.0214
1322.00,0.0215
1321.00,0.0215
1320.00,0.0215
1319.00,0.0214
1318.00,0.0213
1317.00,0.0211
1316.00,0.0210
1315.00,0.0210
1314.00,0.0210
1313.00,0.0211
1312.00,0.0211
1311.00,0.0212
1310.00,0.0212
1309.00,0.0212
1308.00,0.0212
1307.00,0.0212
1306.00,0.0211
1305.00,0.0211
1304.00,0.0212
1303.00,0.0212
1302.00,0.0213
1301.00,0.0213
1300.00,0.0213
1299.00,0.0212
1298.00,0.0212
1297.00,0.0211
1296.00,0.0210
1295.00,0.0210
1294.00,0.0211
1293.00,0.0212
1292.00,0.0212
1291.00,0.0213
1290.00,0.0213
1289.00,0.0213
1288.00,0.0213
1287.00,0.0213
1286.00,0.0212
1285.00,0.0212
1284.00,0.0212
1283.00,0.0213
1282.00,0.0213
1281.00,0.0212
1280.00,0.0211
1279.00,0.0210
1278.00,0.0209
1277.00,0.0209
1276.00,0.0208
1275.00,0.0208
1274.00,0.0208
1273.00,0.0208
1272.00,0.0207
1271.00,0.0207
1270.00,0.0206
1269.00,0.0206
1268.00,0.0206
1267.00,0.0206
1266.00,0.0206
1265.00,0.0206
1264.00,0.0206
1263.00,0.0205
1262.00,0.0205
1261.00,0.0204
1260.00,0.0205
1259.00,0.0206
1258.00,0.0206
1257.00,0.0206
1256.00,0.0205
1255.00,0.0204
1254.00,0.0203
1253.00,0.0204
1252.00,0.0205
1251.00,0.0205
1250.00,0.0204
1249.00,0.0204
1248.00,0.0204
1247.00,0.0205
1246.00,0.0206
1245.00,0.0207
1244.00,0.0207
1243.00,0.0207
1242.00,0.0207
1241.00,0.0206
1240.00,0.0205
1239.00,0.0205
1238.00,0.0206
1237.00,0.0207
1236.00,0.0208
1235.00,0.0208
1234.00,0.0208
1233.00,0.0208
1232.00,0.0208
1231.00,0.0208
1230.00,0.0208
1229.00,0.0208
1228.00,0.0208
1227.00,0.0209
1226.00,0.0208
1225.00,0.0207
1224.00,0.0206
1223.00,0.0205
1222.00,0.0205
1221.00,0.0206
1220.00,0.0207
1219.00,0.0207
1218.00,0.0206
1217.00,0.0206
1216.00,0.0206
1215.00,0.0205
1214.00,0.0205
1213.00,0.0205
1212.00,0.0205
1211.00,0.0206
1210.00,0.0207
1209.00,0.0207
1208.00,0.0207
1207.00,0.0207
1206.00,0.0206
1205.00,0.0206
1204.00,0.0205
1203.00,0.0205
1202.00,0.0205
1201.00,0.0205
1200.00,0.0205
1199.00,0.0205
1198.00,0.0204
1197.00,0.0203
1196.00,0.0202
1195.00,0.0200
1194.00,0.0199
1193.00,0.0199
1192.00,0.0199
1191.00,0.0198
1190.00,0.0198
1189.00,0.0196
1188.00,0.0195
1187.00,0.0195
1186.00,0.0195
1185.00,0.0195
1184.00,0.0194
1183.00,0.0193
1182.00,0.0191
1181.00,0.0189
1180.00,0.0187
1179.00,0.0186
1178.00,0.0185
1177.00,0.0185
1176.00,0.0184
1175.00,0.0185
1174.00,0.0185
1173.00,0.0186
1172.00,0.0186
1171.00,0.0185
1170.00,0.0184
1169.00,0.0183
1168.00,0.0183
1167.00,0.0182
1166.00,0.0182
1165.00,0.0181
1164.00,0.0180
1163.00,0.0180
1162.00,0.0180
1161.00,0.0180
1160.00,0.0179
1159.00,0.0179
1158.00,0.0178
1157.00,0.0178
1156.00,0.0178
1155.00,0.0178
1154.00,0.0179
1153.00,0.0178
1152.00,0.0176
1151.00,0.0174
1150.00,0.0173
1149.00,0.0172
1148.00,0.0172
1147.00,0.0172
1146.00,0.0173
1145.00,0.0174
1144.00,0.0175
1143.00,0.0176
1142.00,0.0177
1141.00,0.0177
1140.00,0.0177
1139.00,0.0176
1138.00,0.0176
1137.00,0.0177
1136.00,0.0178
1135.00,0.0179
1134.00,0.0180
1133.00,0.0181
1132.00,0.0180
1131.00,0.0180
1130.00,0.0180
1129.00,0.0181
1128.00,0.0182
1127.00,0.0182
1126.00,0.0181
1125.00,0.0179
1124.00,0.0178
1123.00,0.0180
1122.00,0.0183
1121.00,0.0186
1120.00,0.0189
1119.00,0.0189
1118.00,0.0189
1117.00,0.0189
1116.00,0.0190
1115.00,0.0192
1114.00,0.0194
1113.00,0.0195
1112.00,0.0195
1111.00,0.0195
1110.00,0.0196
1109.00,0.0196
1108.00,0.0197
1107.00,0.0197
1106.00,0.0197
1105.00,0.0197
1104.00,0.0197
1103.00,0.0199
1102.00,0.0201
1101.00,0.0202
1100.00,0.0203
1099.00,0.0204
1098.00,0.0203
1097.00,0.0203
1096.00,0.0201
1095.00,0.0200
1094.00,0.0200
1093.00,0.0201
1092.00,0.0202
1091.00,0.0203
1090.00,0.0203
1089.00,0.0200
1088.00,0.0198
1087.00,0.0198
1086.00,0.0199
1085.00,0.0200
1084.00,0.0202
1083.00,0.0202
1082.00,0.0202
1081.00,0.0202
1080.00,0.0202
1079.00,0.0203
1078.00,0.0205
1077.00,0.0207
1076.00,0.0207
1075.00,0.0205
1074.00,0.0202
1073.00,0.0201
1072.00,0.0201
1071.00,0.0201
1070.00,0.0200
1069.00,0.0199
1068.00,0.0198
1067.00,0.0198
1066.00,0.0200
1065.00,0.0202
1064.00,0.0204
1063.00,0.0207
1062.00,0.0208
1061.00,0.0206
1060.00,0.0203
1059.00,0.0201
1058.00,0.0201
1057.00,0.0203
1056.00,0.0205
1055.00,0.0207
1054.00,0.0209
1053.00,0.0210
1052.00,0.0211
1051.00,0.0211
1050.00,0.0212
1049.00,0.0214
1048.00,0.0217
1047.00,0.0218
1046.00,0.0218
1045.00,0.0219
1044.00,0.0221
1043.00,0.0222
1042.00,0.0223
1041.00,0.0222
1040.00,0.0221
1039.00,0.0221
1038.00,0.0222
1037.00,0.0223
1036.00,0.0224
1035.00,0.0224
1034.00,0.0225
1033.00,0.0226
1032.00,0.0226
1031.00,0.0226
1030.00,0.0225
1029.00,0.0223
1028.00,0.0222
1027.00,0.0222
1026.00,0.0222
1025.00,0.0222
1024.00,0.0222
1023.00,0.0220
1022.00,0.0218
1021.00,0.0216
1020.00,0.0215
1019.00,0.0215
1018.00,0.0215
1017.00,0.0215
1016.00,0.0216
1015.00,0.0217
1014.00,0.0218
1013.00,0.0218
1012.00,0.0218
1011.00,0.0219
1010.00,0.0219
1009.00,0.0219
1008.00,0.0218
1007.00,0.0216
1006.00,0.0215
1005.00,0.0215
1004.00,0.0215
1003.00,0.0216
1002.00,0.0216
1001.00,0.0214
1000.00,0.0211
999.00,0.0208
998.00,0.0206
997.00,0.0205
996.00,0.0206
995.00,0.0206
994.00,0.0203
993.00,0.0200
992.00,0.0197
991.00,0.0195
990.00,0.0194
989.00,0.0193
988.00,0.0193
987.00,0.0193
986.00,0.0193
985.00,0.0192
984.00,0.0191
983.00,0.0189
982.00,0.0189
981.00,0.0189
980.00,0.0188
979.00,0.0187
978.00,0.0184
977.00,0.0181
976.00,0.0179
975.00,0.0179
974.00,0.0179
973.00,0.0179
972.00,0.0178
971.00,0.0177
970.00,0.0174
969.00,0.0172
968.00,0.0171
967.00,0.0169
966.00,0.0168
965.00,0.0166
964.00,0.0165
963.00,0.0165
962.00,0.0166
961.00,0.0166
960.00,0.0165
959.00,0.0164
958.00,0.0163
957.00,0.0162
956.00,0.0162
955.00,0.0161
954.00,0.0161
953.00,0.0160
952.00,0.0160
951.00,0.0160
950.00,0.0161
949.00,0.0161
948.00,0.0160
947.00,0.0158
946.00,0.0156
945.00,0.0155
944.00,0.0154
943.00,0.0154
942.00,0.0154
941.00,0.0155
940.00,0.0157
939.00,0.0159
938.00,0.0162
937.00,0.0162
936.00,0.0161
935.00,0.0160
934.00,0.0161
933.00,0.0163
932.00,0.0167
931.00,0.0170
930.00,0.0171
929.00,0.0171
928.00,0.0171
927.00,0.0171
926.00,0.0171
925.00,0.0172
924.00,0.0173
923.00,0.0175
922.00,0.0175
921.00,0.0175
920.00,0.0175
919.00,0.0176
918.00,0.0177
917.00,0.0179
916.00,0.0181
915.00,0.0183
914.00,0.0183
913.00,0.0183
912.00,0.0183
911.00,0.0183
910.00,0.0182
909.00,0.0179
908.00,0.0176
907.00,0.0173
906.00,0.0173
905.00,0.0176
904.00,0.0181
903.00,0.0185
902.00,0.0187
901.00,0.0186
900.00,0.0182
899.00,0.0180
898.00,0.0180
897.00,0.0181
896.00,0.0183
895.00,0.0182
894.00,0.0179
893.00,0.0177
892.00,0.0174
891.00,0.0173
890.00,0.0174
889.00,0.0175
888.00,0.0176
887.00,0.0174
886.00,0.0171
885.00,0.0169
884.00,0.0170
883.00,0.0173
882.00,0.0176
881.00,0.0178
880.00,0.0178
879.00,0.0176
878.00,0.0174
877.00,0.0171
876.00,0.0169
875.00,0.0169
874.00,0.0170
873.00,0.0171
872.00,0.0171
871.00,0.0170
870.00,0.0170
869.00,0.0169
868.00,0.0169
867.00,0.0168
866.00,0.0167
865.00,0.0168
864.00,0.0168
863.00,0.0169
862.00,0.0171
861.00,0.0172
860.00,0.0173
859.00,0.0172
858.00,0.0170
857.00,0.0167
856.00,0.0166
855.00,0.0168
854.00,0.0170
853.00,0.0171
852.00,0.0171
851.00,0.0171
850.00,0.0171
849.00,0.0172
848.00,0.0173
847.00,0.0175
846.00,0.0177
845.00,0.0178
844.00,0.0179
843.00,0.0179
842.00,0.0179
841.00,0.0178
840.00,0.0177
839.00,0.0177
838.00,0.0178
837.00,0.0180
836.00,0.0182
835.00,0.0184
834.00,0.0184
833.00,0.0184
832.00,0.0186
831.00,0.0188
830.00,0.0189
829.00,0.0188
828.00,0.0187
827.00,0.0187
826.00,0.0188
825.00,0.0191
824.00,0.0194
823.00,0.0195
822.00,0.0195
821.00,0.0195
820.00,0.0196
819.00,0.0198
818.00,0.0199
817.00,0.0198
816.00,0.0197
815.00,0.0196
814.00,0.0197
813.00,0.0199
812.00,0.0201
811.00,0.0202
810.00,0.0203
809.00,0.0203
808.00,0.0202
807.00,0.0200
806.00,0.0198
805.00,0.0195
804.00,0.0194
803.00,0.0194
802.00,0.0197
801.00,0.0200
800.00,0.0204
799.00,0.0206
798.00,0.0205
797.00,0.0204
796.00,0.0202
795.00,0.0201
794.00,0.0201
793.00,0.0200
792.00,0.0201
791.00,0.0203
790.00,0.0206
789.00,0.0207
788.00,0.0207
787.00,0.0207
786.00,0.0207
785.00,0.0209
784.00,0.0211
783.00,0.0212
782.00,0.0213
781.00,0.0213
780.00,0.0213
779.00,0.0213
778.00,0.0214
777.00,0.0216
776.00,0.0218
775.00,0.0220
774.00,0.0219
773.00,0.0219
772.00,0.0218
771.00,0.0219
770.00,0.0221
769.00,0.0221
768.00,0.0221
767.00,0.0219
766.00,0.0218
765.00,0.0217
764.00,0.0217
763.00,0.0217
762.00,0.0215
761.00,0.0213
760.00,0.0213
759.00,0.0217
758.00,0.0222
757.00,0.0225
756.00,0.0224
755.00,0.0222
754.00,0.0220
753.00,0.0220
752.00,0.0222
751.00,0.0225
750.00,0.0227
749.00,0.0227
748.00,0.0226
747.00,0.0224
746.00,0.0223
745.00,0.0222
744.00,0.0221
743.00,0.0220
742.00,0.0219
741.00,0.0217
740.00,0.0214
739.00,0.0212
738.00,0.0211
737.00,0.0211
736.00,0.0212
735.00,0.0212
734.00,0.0211
733.00,0.0210
732.00,0.0210
731.00,0.0212
730.00,0.0214
729.00,0.0216
728.00,0.0218
727.00,0.0220
726.00,0.0222
725.00,0.0221
724.00,0.0220
723.00,0.0218
722.00,0.0217
721.00,0.0218
720.00,0.0219
719.00,0.0220
718.00,0.0221
717.00,0.0222
716.00,0.0222
715.00,0.0222
714.00,0.0222
713.00,0.0223
712.00,0.0224
711.00,0.0225
710.00,0.0225
709.00,0.0224
708.00,0.0224
707.00,0.0225
706.00,0.0227
705.00,0.0230
704.00,0.0235
703.00,0.0240
702.00,0.0244
701.00,0.0245
700.00,0.0244
699.00,0.0242
698.00,0.0241
697.00,0.0241
696.00,0.0240
695.00,0.0241
694.00,0.0242
693.00,0.0244
692.00,0.0246
691.00,0.0247
690.00,0.0248
689.00,0.0251
688.00,0.0254
687.00,0.0256
686.00,0.0257
685.00,0.0257
684.00,0.0254
683.00,0.0247
682.00,0.0242
681.00,0.0240
680.00,0.0241
679.00,0.0241
678.00,0.0237
677.00,0.0233
676.00,0.0231
675.00,0.0230
674.00,0.0231
673.00,0.0234
672.00,0.0239
671.00,0.0244
670.00,0.0247
669.00,0.0246
668.00,0.0243
667.00,0.0241
666.00,0.0241
665.00,0.0239
664.00,0.0235
663.00,0.0229
662.00,0.0221
661.00,0.0215
660.00,0.0213
659.00,0.0216
658.00,0.0224
657.00,0.0235
656.00,0.0247
655.00,0.0251
654.00,0.0251
653.00,0.0241
652.00,0.0226
651.00,0.0228
650.00,0.0227
