Created as New Dataset,Monday, April 03 2023
cm-1,A
4000.00,0.0278
3999.00,0.0278
3998.00,0.0277
3997.00,0.0277
3996.00,0.0277
3995.00,0.0277
3994.00,0.0276
3993.00,0.0276
3992.00,0.0276
3991.00,0.0277
3990.00,0.0276
3989.00,0.0276
3988.00,0.0276
3987.00,0.0276
3986.00,0.0276
3985.00,0.0276
3984.00,0.0276
3983.00,0.0276
3982.00,0.0277
3981.00,0.0277
3980.00,0.0276
3979.00,0.0276
3978.00,0.0276
3977.00,0.0275
3976.00,0.0275
3975.00,0.0274
3974.00,0.0274
3973.00,0.0274
3972.00,0.0275
3971.00,0.0276
3970.00,0.0276
3969.00,0.0277
3968.00,0.0276
3967.00,0.0275
3966.00,0.0275
3965.00,0.0274
3964.00,0.0275
3963.00,0.0275
3962.00,0.0276
3961.00,0.0276
3960.00,0.0275
3959.00,0.0275
3958.00,0.0274
3957.00,0.0274
3956.00,0.0274
3955.00,0.0274
3954.00,0.0273
3953.00,0.0272
3952.00,0.0272
3951.00,0.0272
3950.00,0.0273
3949.00,0.0274
3948.00,0.0274
3947.00,0.0274
3946.00,0.0273
3945.00,0.0273
3944.00,0.0272
3943.00,0.0272
3942.00,0.0272
3941.00,0.0272
3940.00,0.0272
3939.00,0.0273
3938.00,0.0273
3937.00,0.0273
3936.00,0.0272
3935.00,0.0271
3934.00,0.0271
3933.00,0.0271
3932.00,0.0271
3931.00,0.0271
3930.00,0.0271
3929.00,0.0271
3928.00,0.0271
3927.00,0.0271
3926.00,0.0271
3925.00,0.0271
3924.00,0.0271
3923.00,0.0270
3922.00,0.0270
3921.00,0.0269
3920.00,0.0269
3919.00,0.0269
3918.00,0.0270
3917.00,0.0271
3916.00,0.0272
3915.00,0.0272
3914.00,0.0273
3913.00,0.0273
3912.00,0.0274
3911.00,0.0274
3910.00,0.0273
3909.00,0.0271
3908.00,0.0269
3907.00,0.0266
3906.00,0.0263
3905.00,0.0262
3904.00,0.0261
3903.00,0.0260
3902.00,0.0260
3901.00,0.0262
3900.00,0.0264
3899.00,0.0266
3898.00,0.0267
3897.00,0.0267
3896.00,0.0268
3895.00,0.0268
3894.00,0.0268
3893.00,0.0268
3892.00,0.0269
3891.00,0.0267
3890.00,0.0264
3889.00,0.0262
3888.00,0.0262
3887.00,0.0263
3886.00,0.0264
3885.00,0.0263
3884.00,0.0261
3883.00,0.0260
3882.00,0.0262
3881.00,0.0264
3880.00,0.0265
3879.00,0.0265
3878.00,0.0264
3877.00,0.0266
3876.00,0.0268
3875.00,0.0267
3874.00,0.0264
3873.00,0.0261
3872.00,0.0259
3871.00,0.0261
3870.00,0.0262
3869.00,0.0261
3868.00,0.0259
3867.00,0.0259
3866.00,0.0261
3865.00,0.0264
3864.00,0.0266
3863.00,0.0266
3862.00,0.0267
3861.00,0.0267
3860.00,0.0267
3859.00,0.0265
3858.00,0.0260
3857.00,0.0254
3856.00,0.0247
3855.00,0.0246
3854.00,0.0251
3853.00,0.0254
3852.00,0.0253
3851.00,0.0254
3850.00,0.0259
3849.00,0.0264
3848.00,0.0267
3847.00,0.0267
3846.00,0.0267
3845.00,0.0266
3844.00,0.0264
3843.00,0.0261
3842.00,0.0258
3841.00,0.0256
3840.00,0.0256
3839.00,0.0258
3838.00,0.0259
3837.00,0.0259
3836.00,0.0259
3835.00,0.0260
3834.00,0.0262
3833.00,0.0265
3832.00,0.0267
3831.00,0.0267
3830.00,0.0267
3829.00,0.0267
3828.00,0.0268
3827.00,0.0268
3826.00,0.0266
3825.00,0.0263
3824.00,0.0261
3823.00,0.0262
3822.00,0.0263
3821.00,0.0263
3820.00,0.0259
3819.00,0.0255
3818.00,0.0257
3817.00,0.0262
3816.00,0.0266
3815.00,0.0268
3814.00,0.0268
3813.00,0.0270
3812.00,0.0271
3811.00,0.0269
3810.00,0.0267
3809.00,0.0265
3808.00,0.0266
3807.00,0.0266
3806.00,0.0264
3805.00,0.0261
3804.00,0.0261
3803.00,0.0263
3802.00,0.0266
3801.00,0.0266
3800.00,0.0263
3799.00,0.0263
3798.00,0.0265
3797.00,0.0268
3796.00,0.0270
3795.00,0.0270
3794.00,0.0271
3793.00,0.0273
3792.00,0.0274
3791.00,0.0275
3790.00,0.0275
3789.00,0.0275
3788.00,0.0275
3787.00,0.0275
3786.00,0.0275
3785.00,0.0275
3784.00,0.0274
3783.00,0.0272
3782.00,0.0271
3781.00,0.0271
3780.00,0.0272
3779.00,0.0272
3778.00,0.0272
3777.00,0.0272
3776.00,0.0273
3775.00,0.0273
3774.00,0.0272
3773.00,0.0270
3772.00,0.0269
3771.00,0.0269
3770.00,0.0268
3769.00,0.0266
3768.00,0.0265
3767.00,0.0267
3766.00,0.0269
3765.00,0.0270
3764.00,0.0269
3763.00,0.0268
3762.00,0.0268
3761.00,0.0268
3760.00,0.0268
3759.00,0.0267
3758.00,0.0266
3757.00,0.0263
3756.00,0.0261
3755.00,0.0257
3754.00,0.0254
3753.00,0.0251
3752.00,0.0251
3751.00,0.0253
3750.00,0.0254
3749.00,0.0252
3748.00,0.0250
3747.00,0.0251
3746.00,0.0254
3745.00,0.0258
3744.00,0.0258
3743.00,0.0255
3742.00,0.0255
3741.00,0.0259
3740.00,0.0261
3739.00,0.0260
3738.00,0.0257
3737.00,0.0256
3736.00,0.0255
3735.00,0.0255
3734.00,0.0255
3733.00,0.0256
3732.00,0.0259
3731.00,0.0261
3730.00,0.0262
3729.00,0.0264
3728.00,0.0266
3727.00,0.0267
3726.00,0.0267
3725.00,0.0265
3724.00,0.0265
3723.00,0.0265
3722.00,0.0266
3721.00,0.0268
3720.00,0.0269
3719.00,0.0270
3718.00,0.0270
3717.00,0.0269
3716.00,0.0266
3715.00,0.0264
3714.00,0.0262
3713.00,0.0262
3712.00,0.0263
3711.00,0.0264
3710.00,0.0263
3709.00,0.0264
3708.00,0.0266
3707.00,0.0269
3706.00,0.0271
3705.00,0.0273
3704.00,0.0273
3703.00,0.0272
3702.00,0.0272
3701.00,0.0271
3700.00,0.0271
3699.00,0.0272
3698.00,0.0273
3697.00,0.0274
3696.00,0.0273
3695.00,0.0270
3694.00,0.0267
3693.00,0.0264
3692.00,0.0262
3691.00,0.0262
3690.00,0.0265
3689.00,0.0267
3688.00,0.0268
3687.00,0.0267
3686.00,0.0269
3685.00,0.0271
3684.00,0.0273
3683.00,0.0272
3682.00,0.0271
3681.00,0.0268
3680.00,0.0264
3679.00,0.0258
3678.00,0.0253
3677.00,0.0252
3676.00,0.0254
3675.00,0.0254
3674.00,0.0249
3673.00,0.0248
3672.00,0.0251
3671.00,0.0257
3670.00,0.0263
3669.00,0.0265
3668.00,0.0265
3667.00,0.0267
3666.00,0.0270
3665.00,0.0272
3664.00,0.0274
3663.00,0.0275
3662.00,0.0275
3661.00,0.0275
3660.00,0.0274
3659.00,0.0273
3658.00,0.0273
3657.00,0.0273
3656.00,0.0272
3655.00,0.0270
3654.00,0.0266
3653.00,0.0262
3652.00,0.0258
3651.00,0.0255
3650.00,0.0256
3649.00,0.0257
3648.00,0.0258
3647.00,0.0260
3646.00,0.0263
3645.00,0.0267
3644.00,0.0272
3643.00,0.0276
3642.00,0.0278
3641.00,0.0279
3640.00,0.0279
3639.00,0.0280
3638.00,0.0280
3637.00,0.0279
3636.00,0.0278
3635.00,0.0277
3634.00,0.0275
3633.00,0.0271
3632.00,0.0267
3631.00,0.0264
3630.00,0.0266
3629.00,0.0270
3628.00,0.0271
3627.00,0.0270
3626.00,0.0271
3625.00,0.0274
3624.00,0.0276
3623.00,0.0275
3622.00,0.0273
3621.00,0.0273
3620.00,0.0274
3619.00,0.0274
3618.00,0.0273
3617.00,0.0272
3616.00,0.0272
3615.00,0.0273
3614.00,0.0273
3613.00,0.0273
3612.00,0.0272
3611.00,0.0272
3610.00,0.0273
3609.00,0.0276
3608.00,0.0278
3607.00,0.0279
3606.00,0.0279
3605.00,0.0279
3604.00,0.0279
3603.00,0.0280
3602.00,0.0281
3601.00,0.0282
3600.00,0.0282
3599.00,0.0280
3598.00,0.0278
3597.00,0.0277
3596.00,0.0277
3595.00,0.0278
3594.00,0.0279
3593.00,0.0278
3592.00,0.0277
3591.00,0.0275
3590.00,0.0273
3589.00,0.0273
3588.00,0.0275
3587.00,0.0276
3586.00,0.0276
3585.00,0.0277
3584.00,0.0279
3583.00,0.0281
3582.00,0.0282
3581.00,0.0282
3580.00,0.0282
3579.00,0.0282
3578.00,0.0282
3577.00,0.0283
3576.00,0.0283
3575.00,0.0284
3574.00,0.0284
3573.00,0.0284
3572.00,0.0282
3571.00,0.0279
3570.00,0.0276
3569.00,0.0274
3568.00,0.0274
3567.00,0.0276
3566.00,0.0276
3565.00,0.0276
3564.00,0.0276
3563.00,0.0278
3562.00,0.0280
3561.00,0.0282
3560.00,0.0283
3559.00,0.0283
3558.00,0.0284
3557.00,0.0285
3556.00,0.0285
3555.00,0.0285
3554.00,0.0285
3553.00,0.0285
3552.00,0.0285
3551.00,0.0285
3550.00,0.0285
3549.00,0.0284
3548.00,0.0284
3547.00,0.0284
3546.00,0.0285
3545.00,0.0285
3544.00,0.0285
3543.00,0.0286
3542.00,0.0287
3541.00,0.0287
3540.00,0.0287
3539.00,0.0286
3538.00,0.0285
3537.00,0.0285
3536.00,0.0285
3535.00,0.0286
3534.00,0.0286
3533.00,0.0287
3532.00,0.0287
3531.00,0.0286
3530.00,0.0285
3529.00,0.0284
3528.00,0.0283
3527.00,0.0282
3526.00,0.0283
3525.00,0.0284
3524.00,0.0286
3523.00,0.0287
3522.00,0.0288
3521.00,0.0288
3520.00,0.0287
3519.00,0.0286
3518.00,0.0286
3517.00,0.0286
3516.00,0.0285
3515.00,0.0286
3514.00,0.0286
3513.00,0.0287
3512.00,0.0288
3511.00,0.0289
3510.00,0.0288
3509.00,0.0288
3508.00,0.0287
3507.00,0.0286
3506.00,0.0286
3505.00,0.0286
3504.00,0.0287
3503.00,0.0287
3502.00,0.0288
3501.00,0.0288
3500.00,0.0288
3499.00,0.0288
3498.00,0.0289
3497.00,0.0290
3496.00,0.0290
3495.00,0.0289
3494.00,0.0289
3493.00,0.0289
3492.00,0.0288
3491.00,0.0288
3490.00,0.0287
3489.00,0.0287
3488.00,0.0286
3487.00,0.0287
3486.00,0.0287
3485.00,0.0287
3484.00,0.0287
3483.00,0.0288
3482.00,0.0288
3481.00,0.0288
3480.00,0.0288
3479.00,0.0289
3478.00,0.0289
3477.00,0.0289
3476.00,0.0290
3475.00,0.0290
3474.00,0.0290
3473.00,0.0290
3472.00,0.0290
3471.00,0.0291
3470.00,0.0291
3469.00,0.0291
3468.00,0.0291
3467.00,0.0291
3466.00,0.0291
3465.00,0.0291
3464.00,0.0291
3463.00,0.0290
3462.00,0.0289
3461.00,0.0288
3460.00,0.0289
3459.00,0.0290
3458.00,0.0291
3457.00,0.0292
3456.00,0.0291
3455.00,0.0290
3454.00,0.0289
3453.00,0.0289
3452.00,0.0290
3451.00,0.0290
3450.00,0.0290
3449.00,0.0290
3448.00,0.0290
3447.00,0.0290
3446.00,0.0290
3445.00,0.0290
3444.00,0.0291
3443.00,0.0291
3442.00,0.0291
3441.00,0.0290
3440.00,0.0289
3439.00,0.0288
3438.00,0.0289
3437.00,0.0289
3436.00,0.0289
3435.00,0.0288
3434.00,0.0288
3433.00,0.0288
3432.00,0.0288
3431.00,0.0289
3430.00,0.0289
3429.00,0.0289
3428.00,0.0288
3427.00,0.0288
3426.00,0.0289
3425.00,0.0289
3424.00,0.0290
3423.00,0.0291
3422.00,0.0291
3421.00,0.0291
3420.00,0.0291
3419.00,0.0291
3418.00,0.0291
3417.00,0.0290
3416.00,0.0290
3415.00,0.0290
3414.00,0.0290
3413.00,0.0290
3412.00,0.0290
3411.00,0.0290
3410.00,0.0291
3409.00,0.0291
3408.00,0.0292
3407.00,0.0292
3406.00,0.0291
3405.00,0.0291
3404.00,0.0290
3403.00,0.0290
3402.00,0.0290
3401.00,0.0291
3400.00,0.0291
3399.00,0.0291
3398.00,0.0291
3397.00,0.0290
3396.00,0.0290
3395.00,0.0289
3394.00,0.0289
3393.00,0.0290
3392.00,0.0290
3391.00,0.0291
3390.00,0.0291
3389.00,0.0292
3388.00,0.0291
3387.00,0.0291
3386.00,0.0290
3385.00,0.0290
3384.00,0.0291
3383.00,0.0291
3382.00,0.0291
3381.00,0.0291
3380.00,0.0292
3379.00,0.0292
3378.00,0.0292
3377.00,0.0292
3376.00,0.0291
3375.00,0.0291
3374.00,0.0291
3373.00,0.0291
3372.00,0.0290
3371.00,0.0290
3370.00,0.0289
3369.00,0.0289
3368.00,0.0290
3367.00,0.0290
3366.00,0.0290
3365.00,0.0290
3364.00,0.0290
3363.00,0.0290
3362.00,0.0291
3361.00,0.0292
3360.00,0.0292
3359.00,0.0293
3358.00,0.0292
3357.00,0.0291
3356.00,0.0291
3355.00,0.0291
3354.00,0.0292
3353.00,0.0292
3352.00,0.0292
3351.00,0.0292
3350.00,0.0292
3349.00,0.0292
3348.00,0.0292
3347.00,0.0291
3346.00,0.0291
3345.00,0.0291
3344.00,0.0290
3343.00,0.0290
3342.00,0.0291
3341.00,0.0291
3340.00,0.0292
3339.00,0.0292
3338.00,0.0292
3337.00,0.0292
3336.00,0.0292
3335.00,0.0292
3334.00,0.0292
3333.00,0.0292
3332.00,0.0292
3331.00,0.0291
3330.00,0.0290
3329.00,0.0290
3328.00,0.0289
3327.00,0.0290
3326.00,0.0291
3325.00,0.0292
3324.00,0.0293
3323.00,0.0293
3322.00,0.0293
3321.00,0.0292
3320.00,0.0292
3319.00,0.0292
3318.00,0.0292
3317.00,0.0292
3316.00,0.0292
3315.00,0.0292
3314.00,0.0291
3313.00,0.0291
3312.00,0.0291
3311.00,0.0291
3310.00,0.0291
3309.00,0.0292
3308.00,0.0293
3307.00,0.0293
3306.00,0.0293
3305.00,0.0293
3304.00,0.0292
3303.00,0.0292
3302.00,0.0292
3301.00,0.0292
3300.00,0.0292
3299.00,0.0292
3298.00,0.0292
3297.00,0.0292
3296.00,0.0293
3295.00,0.0293
3294.00,0.0294
3293.00,0.0293
3292.00,0.0292
3291.00,0.0292
3290.00,0.0292
3289.00,0.0292
3288.00,0.0292
3287.00,0.0292
3286.00,0.0292
3285.00,0.0293
3284.00,0.0294
3283.00,0.0294
3282.00,0.0294
3281.00,0.0294
3280.00,0.0294
3279.00,0.0294
3278.00,0.0294
3277.00,0.0294
3276.00,0.0294
3275.00,0.0294
3274.00,0.0294
3273.00,0.0294
3272.00,0.0294
3271.00,0.0295
3270.00,0.0295
3269.00,0.0295
3268.00,0.0296
3267.00,0.0296
3266.00,0.0295
3265.00,0.0294
3264.00,0.0293
3263.00,0.0292
3262.00,0.0292
3261.00,0.0292
3260.00,0.0293
3259.00,0.0294
3258.00,0.0294
3257.00,0.0293
3256.00,0.0293
3255.00,0.0292
3254.00,0.0293
3253.00,0.0294
3252.00,0.0294
3251.00,0.0294
3250.00,0.0294
3249.00,0.0293
3248.00,0.0293
3247.00,0.0292
3246.00,0.0292
3245.00,0.0293
3244.00,0.0293
3243.00,0.0293
3242.00,0.0293
3241.00,0.0293
3240.00,0.0293
3239.00,0.0293
3238.00,0.0294
3237.00,0.0295
3236.00,0.0296
3235.00,0.0296
3234.00,0.0296
3233.00,0.0296
3232.00,0.0296
3231.00,0.0295
3230.00,0.0294
3229.00,0.0293
3228.00,0.0293
3227.00,0.0293
3226.00,0.0294
3225.00,0.0294
3224.00,0.0294
3223.00,0.0294
3222.00,0.0294
3221.00,0.0294
3220.00,0.0294
3219.00,0.0294
3218.00,0.0293
3217.00,0.0294
3216.00,0.0294
3215.00,0.0295
3214.00,0.0295
3213.00,0.0295
3212.00,0.0294
3211.00,0.0293
3210.00,0.0293
3209.00,0.0293
3208.00,0.0294
3207.00,0.0294
3206.00,0.0294
3205.00,0.0295
3204.00,0.0295
3203.00,0.0295
3202.00,0.0295
3201.00,0.0295
3200.00,0.0295
3199.00,0.0295
3198.00,0.0295
3197.00,0.0295
3196.00,0.0295
3195.00,0.0294
3194.00,0.0294
3193.00,0.0294
3192.00,0.0294
3191.00,0.0294
3190.00,0.0293
3189.00,0.0293
3188.00,0.0292
3187.00,0.0292
3186.00,0.0292
3185.00,0.0293
3184.00,0.0293
3183.00,0.0294
3182.00,0.0295
3181.00,0.0295
3180.00,0.0295
3179.00,0.0294
3178.00,0.0293
3177.00,0.0292
3176.00,0.0292
3175.00,0.0293
3174.00,0.0293
3173.00,0.0293
3172.00,0.0293
3171.00,0.0293
3170.00,0.0293
3169.00,0.0293
3168.00,0.0293
3167.00,0.0293
3166.00,0.0293
3165.00,0.0294
3164.00,0.0295
3163.00,0.0295
3162.00,0.0294
3161.00,0.0294
3160.00,0.0293
3159.00,0.0292
3158.00,0.0291
3157.00,0.0291
3156.00,0.0291
3155.00,0.0292
3154.00,0.0293
3153.00,0.0294
3152.00,0.0294
3151.00,0.0294
3150.00,0.0293
3149.00,0.0293
3148.00,0.0293
3147.00,0.0293
3146.00,0.0293
3145.00,0.0293
3144.00,0.0293
3143.00,0.0292
3142.00,0.0292
3141.00,0.0292
3140.00,0.0292
3139.00,0.0291
3138.00,0.0291
3137.00,0.0292
3136.00,0.0292
3135.00,0.0292
3134.00,0.0292
3133.00,0.0291
3132.00,0.0291
3131.00,0.0292
3130.00,0.0292
3129.00,0.0293
3128.00,0.0293
3127.00,0.0292
3126.00,0.0292
3125.00,0.0292
3124.00,0.0292
3123.00,0.0292
3122.00,0.0291
3121.00,0.0291
3120.00,0.0291
3119.00,0.0291
3118.00,0.0292
3117.00,0.0292
3116.00,0.0292
3115.00,0.0292
3114.00,0.0292
3113.00,0.0292
3112.00,0.0292
3111.00,0.0292
3110.00,0.0292
3109.00,0.0291
3108.00,0.0291
3107.00,0.0291
3106.00,0.0292
3105.00,0.0292
3104.00,0.0292
3103.00,0.0291
3102.00,0.0291
3101.00,0.0291
3100.00,0.0290
3099.00,0.0290
3098.00,0.0290
3097.00,0.0291
3096.00,0.0292
3095.00,0.0293
3094.00,0.0293
3093.00,0.0293
3092.00,0.0293
3091.00,0.0292
3090.00,0.0292
3089.00,0.0291
3088.00,0.0290
3087.00,0.0290
3086.00,0.0291
3085.00,0.0292
3084.00,0.0292
3083.00,0.0292
3082.00,0.0292
3081.00,0.0292
3080.00,0.0293
3079.00,0.0293
3078.00,0.0293
3077.00,0.0293
3076.00,0.0292
3075.00,0.0293
3074.00,0.0293
3073.00,0.0293
3072.00,0.0294
3071.00,0.0294
3070.00,0.0294
3069.00,0.0294
3068.00,0.0294
3067.00,0.0294
3066.00,0.0294
3065.00,0.0293
3064.00,0.0292
3063.00,0.0291
3062.00,0.0292
3061.00,0.0292
3060.00,0.0293
3059.00,0.0293
3058.00,0.0293
3057.00,0.0293
3056.00,0.0293
3055.00,0.0293
3054.00,0.0292
3053.00,0.0292
3052.00,0.0292
3051.00,0.0292
3050.00,0.0293
3049.00,0.0293
3048.00,0.0294
3047.00,0.0294
3046.00,0.0293
3045.00,0.0293
3044.00,0.0292
3043.00,0.0292
3042.00,0.0291
3041.00,0.0291
3040.00,0.0291
3039.00,0.0291
3038.00,0.0291
3037.00,0.0291
3036.00,0.0292
3035.00,0.0292
3034.00,0.0292
3033.00,0.0292
3032.00,0.0292
3031.00,0.0291
3030.00,0.0290
3029.00,0.0290
3028.00,0.0289
3027.00,0.0290
3026.00,0.0290
3025.00,0.0290
3024.00,0.0290
3023.00,0.0290
3022.00,0.0290
3021.00,0.0290
3020.00,0.0290
3019.00,0.0289
3018.00,0.0288
3017.00,0.0287
3016.00,0.0287
3015.00,0.0286
3014.00,0.0286
3013.00,0.0285
3012.00,0.0285
3011.00,0.0284
3010.00,0.0284
3009.00,0.0282
3008.00,0.0281
3007.00,0.0279
3006.00,0.0278
3005.00,0.0277
3004.00,0.0277
3003.00,0.0276
3002.00,0.0274
3001.00,0.0272
3000.00,0.0270
2999.00,0.0269
2998.00,0.0268
2997.00,0.0267
2996.00,0.0266
2995.00,0.0265
2994.00,0.0265
2993.00,0.0265
2992.00,0.0264
2991.00,0.0263
2990.00,0.0262
2989.00,0.0261
2988.00,0.0260
2987.00,0.0259
2986.00,0.0256
2985.00,0.0252
2984.00,0.0248
2983.00,0.0245
2982.00,0.0243
2981.00,0.0243
2980.00,0.0245
2979.00,0.0247
2978.00,0.0249
2977.00,0.0251
2976.00,0.0252
2975.00,0.0253
2974.00,0.0252
2973.00,0.0251
2972.00,0.0250
2971.00,0.0251
2970.00,0.0252
2969.00,0.0254
2968.00,0.0256
2967.00,0.0257
2966.00,0.0258
2965.00,0.0259
2964.00,0.0260
2963.00,0.0261
2962.00,0.0262
2961.00,0.0262
2960.00,0.0262
2959.00,0.0263
2958.00,0.0263
2957.00,0.0263
2956.00,0.0264
2955.00,0.0265
2954.00,0.0266
2953.00,0.0267
2952.00,0.0268
2951.00,0.0269
2950.00,0.0269
2949.00,0.0270
2948.00,0.0271
2947.00,0.0271
2946.00,0.0271
2945.00,0.0271
2944.00,0.0272
2943.00,0.0273
2942.00,0.0274
2941.00,0.0274
2940.00,0.0273
2939.00,0.0272
2938.00,0.0272
2937.00,0.0272
2936.00,0.0272
2935.00,0.0272
2934.00,0.0272
2933.00,0.0272
2932.00,0.0271
2931.00,0.0271
2930.00,0.0271
2929.00,0.0270
2928.00,0.0271
2927.00,0.0270
2926.00,0.0270
2925.00,0.0269
2924.00,0.0269
2923.00,0.0269
2922.00,0.0268
2921.00,0.0268
2920.00,0.0267
2919.00,0.0266
2918.00,0.0265
2917.00,0.0266
2916.00,0.0266
2915.00,0.0267
2914.00,0.0268
2913.00,0.0269
2912.00,0.0270
2911.00,0.0270
2910.00,0.0271
2909.00,0.0271
2908.00,0.0271
2907.00,0.0271
2906.00,0.0271
2905.00,0.0271
2904.00,0.0271
2903.00,0.0271
2902.00,0.0271
2901.00,0.0271
2900.00,0.0271
2899.00,0.0271
2898.00,0.0271
2897.00,0.0270
2896.00,0.0270
2895.00,0.0270
2894.00,0.0270
2893.00,0.0270
2892.00,0.0271
2891.00,0.0271
2890.00,0.0271
2889.00,0.0270
2888.00,0.0270
2887.00,0.0271
2886.00,0.0271
2885.00,0.0271
2884.00,0.0271
2883.00,0.0270
2882.00,0.0271
2881.00,0.0271
2880.00,0.0272
2879.00,0.0272
2878.00,0.0273
2877.00,0.0273
2876.00,0.0273
2875.00,0.0273
2874.00,0.0273
2873.00,0.0273
2872.00,0.0273
2871.00,0.0273
2870.00,0.0273
2869.00,0.0274
2868.00,0.0274
2867.00,0.0274
2866.00,0.0274
2865.00,0.0275
2864.00,0.0275
2863.00,0.0275
2862.00,0.0275
2861.00,0.0275
2860.00,0.0276
2859.00,0.0277
2858.00,0.0277
2857.00,0.0278
2856.00,0.0277
2855.00,0.0277
2854.00,0.0276
2853.00,0.0276
2852.00,0.0276
2851.00,0.0276
2850.00,0.0277
2849.00,0.0277
2848.00,0.0278
2847.00,0.0278
2846.00,0.0278
2845.00,0.0278
2844.00,0.0279
2843.00,0.0279
2842.00,0.0280
2841.00,0.0280
2840.00,0.0280
2839.00,0.0279
2838.00,0.0279
2837.00,0.0279
2836.00,0.0280
2835.00,0.0280
2834.00,0.0281
2833.00,0.0281
2832.00,0.0280
2831.00,0.0280
2830.00,0.0280
2829.00,0.0280
2828.00,0.0280
2827.00,0.0281
2826.00,0.0281
2825.00,0.0281
2824.00,0.0281
2823.00,0.0281
2822.00,0.0281
2821.00,0.0280
2820.00,0.0280
2819.00,0.0279
2818.00,0.0279
2817.00,0.0279
2816.00,0.0279
2815.00,0.0279
2814.00,0.0279
2813.00,0.0279
2812.00,0.0279
2811.00,0.0279
2810.00,0.0279
2809.00,0.0279
2808.00,0.0279
2807.00,0.0279
2806.00,0.0279
2805.00,0.0280
2804.00,0.0280
2803.00,0.0280
2802.00,0.0280
2801.00,0.0280
2800.00,0.0280
2799.00,0.0280
2798.00,0.0280
2797.00,0.0280
2796.00,0.0280
2795.00,0.0280
2794.00,0.0280
2793.00,0.0280
2792.00,0.0280
2791.00,0.0280
2790.00,0.0280
2789.00,0.0280
2788.00,0.0280
2787.00,0.0280
2786.00,0.0280
2785.00,0.0280
2784.00,0.0280
2783.00,0.0279
2782.00,0.0279
2781.00,0.0278
2780.00,0.0277
2779.00,0.0278
2778.00,0.0278
2777.00,0.0279
2776.00,0.0279
2775.00,0.0279
2774.00,0.0279
2773.00,0.0279
2772.00,0.0279
2771.00,0.0278
2770.00,0.0277
2769.00,0.0277
2768.00,0.0276
2767.00,0.0276
2766.00,0.0277
2765.00,0.0277
2764.00,0.0278
2763.00,0.0278
2762.00,0.0278
2761.00,0.0278
2760.00,0.0278
2759.00,0.0278
2758.00,0.0278
2757.00,0.0278
2756.00,0.0278
2755.00,0.0278
2754.00,0.0278
2753.00,0.0278
2752.00,0.0278
2751.00,0.0278
2750.00,0.0278
2749.00,0.0278
2748.00,0.0278
2747.00,0.0278
2746.00,0.0278
2745.00,0.0278
2744.00,0.0279
2743.00,0.0279
2742.00,0.0279
2741.00,0.0279
2740.00,0.0278
2739.00,0.0278
2738.00,0.0277
2737.00,0.0277
2736.00,0.0277
2735.00,0.0277
2734.00,0.0278
2733.00,0.0278
2732.00,0.0278
2731.00,0.0278
2730.00,0.0277
2729.00,0.0277
2728.00,0.0277
2727.00,0.0277
2726.00,0.0277
2725.00,0.0277
2724.00,0.0277
2723.00,0.0277
2722.00,0.0277
2721.00,0.0276
2720.00,0.0276
2719.00,0.0276
2718.00,0.0277
2717.00,0.0277
2716.00,0.0277
2715.00,0.0277
2714.00,0.0277
2713.00,0.0277
2712.00,0.0277
2711.00,0.0277
2710.00,0.0277
2709.00,0.0277
2708.00,0.0277
2707.00,0.0276
2706.00,0.0276
2705.00,0.0276
2704.00,0.0276
2703.00,0.0276
2702.00,0.0276
2701.00,0.0276
2700.00,0.0276
2699.00,0.0276
2698.00,0.0276
2697.00,0.0276
2696.00,0.0276
2695.00,0.0276
2694.00,0.0276
2693.00,0.0277
2692.00,0.0277
2691.00,0.0277
2690.00,0.0276
2689.00,0.0276
2688.00,0.0276
2687.00,0.0276
2686.00,0.0276
2685.00,0.0276
2684.00,0.0276
2683.00,0.0276
2682.00,0.0276
2681.00,0.0276
2680.00,0.0276
2679.00,0.0275
2678.00,0.0275
2677.00,0.0274
2676.00,0.0274
2675.00,0.0275
2674.00,0.0275
2673.00,0.0275
2672.00,0.0275
2671.00,0.0275
2670.00,0.0275
2669.00,0.0275
2668.00,0.0275
2667.00,0.0275
2666.00,0.0275
2665.00,0.0275
2664.00,0.0276
2663.00,0.0276
2662.00,0.0276
2661.00,0.0277
2660.00,0.0277
2659.00,0.0277
2658.00,0.0277
2657.00,0.0277
2656.00,0.0277
2655.00,0.0277
2654.00,0.0277
2653.00,0.0278
2652.00,0.0278
2651.00,0.0279
2650.00,0.0279
2649.00,0.0279
2648.00,0.0278
2647.00,0.0278
2646.00,0.0277
2645.00,0.0277
2644.00,0.0278
2643.00,0.0278
2642.00,0.0278
2641.00,0.0279
2640.00,0.0279
2639.00,0.0279
2638.00,0.0279
2637.00,0.0279
2636.00,0.0278
2635.00,0.0278
2634.00,0.0279
2633.00,0.0279
2632.00,0.0279
2631.00,0.0278
2630.00,0.0278
2629.00,0.0277
2628.00,0.0276
2627.00,0.0276
2626.00,0.0277
2625.00,0.0278
2624.00,0.0279
2623.00,0.0279
2622.00,0.0280
2621.00,0.0280
2620.00,0.0280
2619.00,0.0280
2618.00,0.0280
2617.00,0.0280
2616.00,0.0279
2615.00,0.0279
2614.00,0.0278
2613.00,0.0278
2612.00,0.0279
2611.00,0.0279
2610.00,0.0279
2609.00,0.0278
2608.00,0.0278
2607.00,0.0278
2606.00,0.0278
2605.00,0.0279
2604.00,0.0280
2603.00,0.0281
2602.00,0.0281
2601.00,0.0281
2600.00,0.0280
2599.00,0.0279
2598.00,0.0279
2597.00,0.0278
2596.00,0.0278
2595.00,0.0278
2594.00,0.0278
2593.00,0.0279
2592.00,0.0279
2591.00,0.0280
2590.00,0.0280
2589.00,0.0279
2588.00,0.0279
2587.00,0.0279
2586.00,0.0278
2585.00,0.0278
2584.00,0.0277
2583.00,0.0278
2582.00,0.0278
2581.00,0.0279
2580.00,0.0279
2579.00,0.0280
2578.00,0.0280
2577.00,0.0279
2576.00,0.0278
2575.00,0.0277
2574.00,0.0277
2573.00,0.0277
2572.00,0.0278
2571.00,0.0278
2570.00,0.0277
2569.00,0.0277
2568.00,0.0278
2567.00,0.0279
2566.00,0.0280
2565.00,0.0280
2564.00,0.0279
2563.00,0.0279
2562.00,0.0279
2561.00,0.0280
2560.00,0.0280
2559.00,0.0279
2558.00,0.0279
2557.00,0.0279
2556.00,0.0279
2555.00,0.0280
2554.00,0.0279
2553.00,0.0278
2552.00,0.0277
2551.00,0.0276
2550.00,0.0275
2549.00,0.0274
2548.00,0.0274
2547.00,0.0274
2546.00,0.0274
2545.00,0.0275
2544.00,0.0276
2543.00,0.0277
2542.00,0.0276
2541.00,0.0275
2540.00,0.0274
2539.00,0.0273
2538.00,0.0272
2537.00,0.0273
2536.00,0.0273
2535.00,0.0274
2534.00,0.0275
2533.00,0.0275
2532.00,0.0275
2531.00,0.0274
2530.00,0.0274
2529.00,0.0273
2528.00,0.0273
2527.00,0.0273
2526.00,0.0273
2525.00,0.0273
2524.00,0.0273
2523.00,0.0274
2522.00,0.0274
2521.00,0.0274
2520.00,0.0275
2519.00,0.0275
2518.00,0.0276
2517.00,0.0277
2516.00,0.0277
2515.00,0.0277
2514.00,0.0276
2513.00,0.0275
2512.00,0.0274
2511.00,0.0275
2510.00,0.0275
2509.00,0.0276
2508.00,0.0276
2507.00,0.0276
2506.00,0.0276
2505.00,0.0275
2504.00,0.0275
2503.00,0.0275
2502.00,0.0276
2501.00,0.0276
2500.00,0.0277
2499.00,0.0277
2498.00,0.0276
2497.00,0.0276
2496.00,0.0275
2495.00,0.0276
2494.00,0.0276
2493.00,0.0277
2492.00,0.0277
2491.00,0.0277
2490.00,0.0277
2489.00,0.0278
2488.00,0.0278
2487.00,0.0278
2486.00,0.0277
2485.00,0.0276
2484.00,0.0274
2483.00,0.0274
2482.00,0.0274
2481.00,0.0275
2480.00,0.0276
2479.00,0.0276
2478.00,0.0276
2477.00,0.0275
2476.00,0.0275
2475.00,0.0274
2474.00,0.0274
2473.00,0.0274
2472.00,0.0274
2471.00,0.0274
2470.00,0.0274
2469.00,0.0274
2468.00,0.0274
2467.00,0.0274
2466.00,0.0273
2465.00,0.0273
2464.00,0.0273
2463.00,0.0272
2462.00,0.0273
2461.00,0.0273
2460.00,0.0274
2459.00,0.0275
2458.00,0.0276
2457.00,0.0276
2456.00,0.0276
2455.00,0.0276
2454.00,0.0276
2453.00,0.0277
2452.00,0.0277
2451.00,0.0277
2450.00,0.0276
2449.00,0.0275
2448.00,0.0275
2447.00,0.0274
2446.00,0.0274
2445.00,0.0273
2444.00,0.0272
2443.00,0.0272
2442.00,0.0272
2441.00,0.0272
2440.00,0.0272
2439.00,0.0273
2438.00,0.0274
2437.00,0.0274
2436.00,0.0274
2435.00,0.0274
2434.00,0.0273
2433.00,0.0273
2432.00,0.0272
2431.00,0.0273
2430.00,0.0274
2429.00,0.0274
2428.00,0.0274
2427.00,0.0273
2426.00,0.0273
2425.00,0.0273
2424.00,0.0273
2423.00,0.0273
2422.00,0.0273
2421.00,0.0273
2420.00,0.0272
2419.00,0.0272
2418.00,0.0271
2417.00,0.0271
2416.00,0.0271
2415.00,0.0271
2414.00,0.0271
2413.00,0.0271
2412.00,0.0271
2411.00,0.0271
2410.00,0.0271
2409.00,0.0271
2408.00,0.0271
2407.00,0.0271
2406.00,0.0271
2405.00,0.0270
2404.00,0.0270
2403.00,0.0269
2402.00,0.0269
2401.00,0.0268
2400.00,0.0269
2399.00,0.0269
2398.00,0.0269
2397.00,0.0268
2396.00,0.0268
2395.00,0.0268
2394.00,0.0268
2393.00,0.0268
2392.00,0.0268
2391.00,0.0268
2390.00,0.0267
2389.00,0.0267
2388.00,0.0267
2387.00,0.0267
2386.00,0.0266
2385.00,0.0266
2384.00,0.0265
2383.00,0.0264
2382.00,0.0264
2381.00,0.0264
2380.00,0.0264
2379.00,0.0265
2378.00,0.0265
2377.00,0.0264
2376.00,0.0264
2375.00,0.0263
2374.00,0.0263
2373.00,0.0263
2372.00,0.0262
2371.00,0.0260
2370.00,0.0258
2369.00,0.0256
2368.00,0.0255
2367.00,0.0256
2366.00,0.0259
2365.00,0.0262
2364.00,0.0264
2363.00,0.0263
2362.00,0.0261
2361.00,0.0261
2360.00,0.0262
2359.00,0.0263
2358.00,0.0263
2357.00,0.0263
2356.00,0.0262
2355.00,0.0261
2354.00,0.0260
2353.00,0.0260
2352.00,0.0260
2351.00,0.0261
2350.00,0.0261
2349.00,0.0262
2348.00,0.0261
2347.00,0.0259
2346.00,0.0257
2345.00,0.0258
2344.00,0.0261
2343.00,0.0264
2342.00,0.0266
2341.00,0.0268
2340.00,0.0267
2339.00,0.0264
2338.00,0.0261
2337.00,0.0260
2336.00,0.0260
2335.00,0.0261
2334.00,0.0263
2333.00,0.0264
2332.00,0.0263
2331.00,0.0262
2330.00,0.0261
2329.00,0.0262
2328.00,0.0263
2327.00,0.0265
2326.00,0.0267
2325.00,0.0267
2324.00,0.0267
2323.00,0.0266
2322.00,0.0265
2321.00,0.0265
2320.00,0.0264
2319.00,0.0263
2318.00,0.0262
2317.00,0.0262
2316.00,0.0263
2315.00,0.0263
2314.00,0.0263
2313.00,0.0263
2312.00,0.0264
2311.00,0.0264
2310.00,0.0266
2309.00,0.0267
2308.00,0.0268
2307.00,0.0267
2306.00,0.0267
2305.00,0.0267
2304.00,0.0267
2303.00,0.0266
2302.00,0.0266
2301.00,0.0265
2300.00,0.0266
2299.00,0.0266
2298.00,0.0266
2297.00,0.0267
2296.00,0.0267
2295.00,0.0268
2294.00,0.0269
2293.00,0.0271
2292.00,0.0272
2291.00,0.0272
2290.00,0.0272
2289.00,0.0271
2288.00,0.0272
2287.00,0.0273
2286.00,0.0274
2285.00,0.0275
2284.00,0.0276
2283.00,0.0277
2282.00,0.0276
2281.00,0.0275
2280.00,0.0274
2279.00,0.0274
2278.00,0.0274
2277.00,0.0273
2276.00,0.0273
2275.00,0.0272
2274.00,0.0271
2273.00,0.0270
2272.00,0.0269
2271.00,0.0269
2270.00,0.0269
2269.00,0.0270
2268.00,0.0270
2267.00,0.0270
2266.00,0.0269
2265.00,0.0270
2264.00,0.0270
2263.00,0.0271
2262.00,0.0272
2261.00,0.0273
2260.00,0.0273
2259.00,0.0272
2258.00,0.0270
2257.00,0.0267
2256.00,0.0265
2255.00,0.0265
2254.00,0.0266
2253.00,0.0266
2252.00,0.0267
2251.00,0.0268
2250.00,0.0268
2249.00,0.0268
2248.00,0.0267
2247.00,0.0267
2246.00,0.0268
2245.00,0.0270
2244.00,0.0270
2243.00,0.0270
2242.00,0.0269
2241.00,0.0268
2240.00,0.0268
2239.00,0.0268
2238.00,0.0268
2237.00,0.0268
2236.00,0.0267
2235.00,0.0267
2234.00,0.0268
2233.00,0.0269
2232.00,0.0269
2231.00,0.0268
2230.00,0.0267
2229.00,0.0266
2228.00,0.0266
2227.00,0.0267
2226.00,0.0267
2225.00,0.0268
2224.00,0.0267
2223.00,0.0266
2222.00,0.0265
2221.00,0.0264
2220.00,0.0265
2219.00,0.0266
2218.00,0.0267
2217.00,0.0269
2216.00,0.0270
2215.00,0.0271
2214.00,0.0272
2213.00,0.0272
2212.00,0.0270
2211.00,0.0268
2210.00,0.0267
2209.00,0.0268
2208.00,0.0269
2207.00,0.0269
2206.00,0.0269
2205.00,0.0269
2204.00,0.0268
2203.00,0.0268
2202.00,0.0268
2201.00,0.0268
2200.00,0.0268
2199.00,0.0267
2198.00,0.0266
2197.00,0.0266
2196.00,0.0266
2195.00,0.0265
2194.00,0.0265
2193.00,0.0265
2192.00,0.0265
2191.00,0.0264
2190.00,0.0262
2189.00,0.0260
2188.00,0.0260
2187.00,0.0263
2186.00,0.0266
2185.00,0.0269
2184.00,0.0268
2183.00,0.0265
2182.00,0.0263
2181.00,0.0263
2180.00,0.0264
2179.00,0.0266
2178.00,0.0269
2177.00,0.0269
2176.00,0.0268
2175.00,0.0265
2174.00,0.0263
2173.00,0.0264
2172.00,0.0266
2171.00,0.0268
2170.00,0.0271
2169.00,0.0274
2168.00,0.0274
2167.00,0.0273
2166.00,0.0272
2165.00,0.0273
2164.00,0.0276
2163.00,0.0278
2162.00,0.0278
2161.00,0.0275
2160.00,0.0267
2159.00,0.0258
2158.00,0.0251
2157.00,0.0247
2156.00,0.0247
2155.00,0.0249
2154.00,0.0253
2153.00,0.0257
2152.00,0.0259
2151.00,0.0257
2150.00,0.0253
2149.00,0.0251
2148.00,0.0251
2147.00,0.0254
2146.00,0.0258
2145.00,0.0260
2144.00,0.0261
2143.00,0.0262
2142.00,0.0263
2141.00,0.0264
2140.00,0.0264
2139.00,0.0262
2138.00,0.0260
2137.00,0.0257
2136.00,0.0255
2135.00,0.0253
2134.00,0.0254
2133.00,0.0255
2132.00,0.0256
2131.00,0.0256
2130.00,0.0257
2129.00,0.0259
2128.00,0.0260
2127.00,0.0261
2126.00,0.0260
2125.00,0.0259
2124.00,0.0259
2123.00,0.0258
2122.00,0.0259
2121.00,0.0259
2120.00,0.0259
2119.00,0.0259
2118.00,0.0259
2117.00,0.0259
2116.00,0.0259
2115.00,0.0258
2114.00,0.0257
2113.00,0.0257
2112.00,0.0259
2111.00,0.0261
2110.00,0.0262
2109.00,0.0263
2108.00,0.0264
2107.00,0.0264
2106.00,0.0265
2105.00,0.0265
2104.00,0.0264
2103.00,0.0264
2102.00,0.0263
2101.00,0.0263
2100.00,0.0261
2099.00,0.0259
2098.00,0.0257
2097.00,0.0257
2096.00,0.0257
2095.00,0.0259
2094.00,0.0260
2093.00,0.0260
2092.00,0.0259
2091.00,0.0258
2090.00,0.0257
2089.00,0.0258
2088.00,0.0259
2087.00,0.0260
2086.00,0.0262
2085.00,0.0263
2084.00,0.0264
2083.00,0.0264
2082.00,0.0263
2081.00,0.0262
2080.00,0.0262
2079.00,0.0263
2078.00,0.0263
2077.00,0.0264
2076.00,0.0264
2075.00,0.0264
2074.00,0.0263
2073.00,0.0263
2072.00,0.0263
2071.00,0.0265
2070.00,0.0266
2069.00,0.0265
2068.00,0.0262
2067.00,0.0260
2066.00,0.0259
2065.00,0.0259
2064.00,0.0261
2063.00,0.0263
2062.00,0.0265
2061.00,0.0265
2060.00,0.0262
2059.00,0.0260
2058.00,0.0259
2057.00,0.0260
2056.00,0.0261
2055.00,0.0262
2054.00,0.0264
2053.00,0.0267
2052.00,0.0269
2051.00,0.0268
2050.00,0.0265
2049.00,0.0262
2048.00,0.0260
2047.00,0.0261
2046.00,0.0263
2045.00,0.0265
2044.00,0.0267
2043.00,0.0268
2042.00,0.0268
2041.00,0.0266
2040.00,0.0265
2039.00,0.0264
2038.00,0.0265
2037.00,0.0267
2036.00,0.0269
2035.00,0.0268
2034.00,0.0265
2033.00,0.0264
2032.00,0.0267
2031.00,0.0269
2030.00,0.0270
2029.00,0.0267
2028.00,0.0264
2027.00,0.0262
2026.00,0.0261
2025.00,0.0260
2024.00,0.0259
2023.00,0.0257
2022.00,0.0256
2021.00,0.0255
2020.00,0.0254
2019.00,0.0254
2018.00,0.0252
2017.00,0.0252
2016.00,0.0253
2015.00,0.0254
2014.00,0.0256
2013.00,0.0257
2012.00,0.0256
2011.00,0.0257
2010.00,0.0257
2009.00,0.0259
2008.00,0.0259
2007.00,0.0258
2006.00,0.0257
2005.00,0.0255
2004.00,0.0255
2003.00,0.0257
2002.00,0.0260
2001.00,0.0264
2000.00,0.0265
1999.00,0.0263
1998.00,0.0261
1997.00,0.0260
1996.00,0.0261
1995.00,0.0264
1994.00,0.0267
1993.00,0.0268
1992.00,0.0268
1991.00,0.0266
1990.00,0.0263
1989.00,0.0261
1988.00,0.0259
1987.00,0.0259
1986.00,0.0260
1985.00,0.0261
1984.00,0.0263
1983.00,0.0264
1982.00,0.0265
1981.00,0.0264
1980.00,0.0262
1979.00,0.0258
1978.00,0.0253
1977.00,0.0248
1976.00,0.0247
1975.00,0.0249
1974.00,0.0253
1973.00,0.0254
1972.00,0.0253
1971.00,0.0251
1970.00,0.0251
1969.00,0.0253
1968.00,0.0256
1967.00,0.0256
1966.00,0.0254
1965.00,0.0253
1964.00,0.0253
1963.00,0.0255
1962.00,0.0256
1961.00,0.0256
1960.00,0.0255
1959.00,0.0254
1958.00,0.0254
1957.00,0.0253
1956.00,0.0252
1955.00,0.0252
1954.00,0.0253
1953.00,0.0254
1952.00,0.0254
1951.00,0.0253
1950.00,0.0251
1949.00,0.0250
1948.00,0.0251
1947.00,0.0253
1946.00,0.0254
1945.00,0.0253
1944.00,0.0250
1943.00,0.0248
1942.00,0.0247
1941.00,0.0247
1940.00,0.0247
1939.00,0.0246
1938.00,0.0245
1937.00,0.0245
1936.00,0.0246
1935.00,0.0245
1934.00,0.0244
1933.00,0.0244
1932.00,0.0244
1931.00,0.0245
1930.00,0.0248
1929.00,0.0250
1928.00,0.0252
1927.00,0.0253
1926.00,0.0253
1925.00,0.0252
1924.00,0.0251
1923.00,0.0251
1922.00,0.0250
1921.00,0.0250
1920.00,0.0249
1919.00,0.0248
1918.00,0.0247
1917.00,0.0246
1916.00,0.0246
1915.00,0.0247
1914.00,0.0247
1913.00,0.0247
1912.00,0.0247
1911.00,0.0247
1910.00,0.0246
1909.00,0.0245
1908.00,0.0244
1907.00,0.0245
1906.00,0.0246
1905.00,0.0247
1904.00,0.0247
1903.00,0.0247
1902.00,0.0247
1901.00,0.0246
1900.00,0.0246
1899.00,0.0247
1898.00,0.0247
1897.00,0.0247
1896.00,0.0245
1895.00,0.0244
1894.00,0.0243
1893.00,0.0244
1892.00,0.0244
1891.00,0.0244
1890.00,0.0244
1889.00,0.0244
1888.00,0.0243
1887.00,0.0243
1886.00,0.0243
1885.00,0.0243
1884.00,0.0243
1883.00,0.0243
1882.00,0.0243
1881.00,0.0243
1880.00,0.0243
1879.00,0.0242
1878.00,0.0242
1877.00,0.0241
1876.00,0.0241
1875.00,0.0242
1874.00,0.0242
1873.00,0.0243
1872.00,0.0244
1871.00,0.0244
1870.00,0.0243
1869.00,0.0243
1868.00,0.0242
1867.00,0.0241
1866.00,0.0241
1865.00,0.0242
1864.00,0.0241
1863.00,0.0240
1862.00,0.0240
1861.00,0.0239
1860.00,0.0238
1859.00,0.0238
1858.00,0.0238
1857.00,0.0240
1856.00,0.0240
1855.00,0.0240
1854.00,0.0239
1853.00,0.0238
1852.00,0.0238
1851.00,0.0239
1850.00,0.0240
1849.00,0.0240
1848.00,0.0240
1847.00,0.0240
1846.00,0.0240
1845.00,0.0240
1844.00,0.0239
1843.00,0.0238
1842.00,0.0238
1841.00,0.0238
1840.00,0.0239
1839.00,0.0239
1838.00,0.0238
1837.00,0.0239
1836.00,0.0239
1835.00,0.0239
1834.00,0.0239
1833.00,0.0239
1832.00,0.0240
1831.00,0.0240
1830.00,0.0239
1829.00,0.0238
1828.00,0.0238
1827.00,0.0238
1826.00,0.0238
1825.00,0.0237
1824.00,0.0237
1823.00,0.0236
1822.00,0.0236
1821.00,0.0236
1820.00,0.0236
1819.00,0.0235
1818.00,0.0234
1817.00,0.0234
1816.00,0.0233
1815.00,0.0233
1814.00,0.0233
1813.00,0.0233
1812.00,0.0234
1811.00,0.0234
1810.00,0.0234
1809.00,0.0235
1808.00,0.0236
1807.00,0.0236
1806.00,0.0236
1805.00,0.0236
1804.00,0.0236
1803.00,0.0236
1802.00,0.0236
1801.00,0.0236
1800.00,0.0236
1799.00,0.0236
1798.00,0.0236
1797.00,0.0236
1796.00,0.0236
1795.00,0.0237
1794.00,0.0237
1793.00,0.0238
1792.00,0.0238
1791.00,0.0237
1790.00,0.0237
1789.00,0.0237
1788.00,0.0237
1787.00,0.0238
1786.00,0.0238
1785.00,0.0238
1784.00,0.0238
1783.00,0.0238
1782.00,0.0238
1781.00,0.0238
1780.00,0.0238
1779.00,0.0238
1778.00,0.0238
1777.00,0.0239
1776.00,0.0239
1775.00,0.0240
1774.00,0.0240
1773.00,0.0240
1772.00,0.0239
1771.00,0.0239
1770.00,0.0240
1769.00,0.0241
1768.00,0.0241
1767.00,0.0241
1766.00,0.0241
1765.00,0.0242
1764.00,0.0243
1763.00,0.0243
1762.00,0.0241
1761.00,0.0240
1760.00,0.0240
1759.00,0.0241
1758.00,0.0241
1757.00,0.0241
1756.00,0.0241
1755.00,0.0242
1754.00,0.0243
1753.00,0.0242
1752.00,0.0241
1751.00,0.0240
1750.00,0.0239
1749.00,0.0239
1748.00,0.0239
1747.00,0.0240
1746.00,0.0241
1745.00,0.0241
1744.00,0.0242
1743.00,0.0242
1742.00,0.0242
1741.00,0.0243
1740.00,0.0244
1739.00,0.0244
1738.00,0.0244
1737.00,0.0246
1736.00,0.0247
1735.00,0.0247
1734.00,0.0247
1733.00,0.0246
1732.00,0.0246
1731.00,0.0247
1730.00,0.0248
1729.00,0.0248
1728.00,0.0249
1727.00,0.0249
1726.00,0.0250
1725.00,0.0250
1724.00,0.0251
1723.00,0.0252
1722.00,0.0253
1721.00,0.0254
1720.00,0.0254
1719.00,0.0253
1718.00,0.0253
1717.00,0.0254
1716.00,0.0256
1715.00,0.0257
1714.00,0.0258
1713.00,0.0259
1712.00,0.0260
1711.00,0.0260
1710.00,0.0260
1709.00,0.0260
1708.00,0.0260
1707.00,0.0261
1706.00,0.0261
1705.00,0.0261
1704.00,0.0263
1703.00,0.0265
1702.00,0.0266
1701.00,0.0266
1700.00,0.0265
1699.00,0.0264
1698.00,0.0265
1697.00,0.0267
1696.00,0.0267
1695.00,0.0265
1694.00,0.0264
1693.00,0.0265
1692.00,0.0265
1691.00,0.0264
1690.00,0.0264
1689.00,0.0264
1688.00,0.0264
1687.00,0.0264
1686.00,0.0263
1685.00,0.0261
1684.00,0.0261
1683.00,0.0260
1682.00,0.0260
1681.00,0.0261
1680.00,0.0261
1679.00,0.0261
1678.00,0.0263
1677.00,0.0264
1676.00,0.0265
1675.00,0.0265
1674.00,0.0264
1673.00,0.0263
1672.00,0.0262
1671.00,0.0261
1670.00,0.0261
1669.00,0.0261
1668.00,0.0261
1667.00,0.0261
1666.00,0.0261
1665.00,0.0260
1664.00,0.0260
1663.00,0.0259
1662.00,0.0260
1661.00,0.0261
1660.00,0.0262
1659.00,0.0264
1658.00,0.0264
1657.00,0.0264
1656.00,0.0263
1655.00,0.0261
1654.00,0.0260
1653.00,0.0261
1652.00,0.0260
1651.00,0.0260
1650.00,0.0262
1649.00,0.0263
1648.00,0.0263
1647.00,0.0264
1646.00,0.0265
1645.00,0.0266
1644.00,0.0267
1643.00,0.0268
1642.00,0.0268
1641.00,0.0267
1640.00,0.0267
1639.00,0.0267
1638.00,0.0266
1637.00,0.0267
1636.00,0.0270
1635.00,0.0272
1634.00,0.0272
1633.00,0.0272
1632.00,0.0271
1631.00,0.0271
1630.00,0.0271
1629.00,0.0271
1628.00,0.0272
1627.00,0.0273
1626.00,0.0274
1625.00,0.0276
1624.00,0.0278
1623.00,0.0278
1622.00,0.0278
1621.00,0.0279
1620.00,0.0279
1619.00,0.0279
1618.00,0.0279
1617.00,0.0280
1616.00,0.0280
1615.00,0.0281
1614.00,0.0283
1613.00,0.0283
1612.00,0.0284
1611.00,0.0284
1610.00,0.0284
1609.00,0.0284
1608.00,0.0284
1607.00,0.0285
1606.00,0.0287
1605.00,0.0288
1604.00,0.0288
1603.00,0.0289
1602.00,0.0288
1601.00,0.0288
1600.00,0.0287
1599.00,0.0287
1598.00,0.0288
1597.00,0.0288
1596.00,0.0289
1595.00,0.0290
1594.00,0.0291
1593.00,0.0291
1592.00,0.0291
1591.00,0.0290
1590.00,0.0290
1589.00,0.0291
1588.00,0.0292
1587.00,0.0292
1586.00,0.0293
1585.00,0.0293
1584.00,0.0293
1583.00,0.0293
1582.00,0.0294
1581.00,0.0293
1580.00,0.0293
1579.00,0.0294
1578.00,0.0295
1577.00,0.0296
1576.00,0.0296
1575.00,0.0294
1574.00,0.0293
1573.00,0.0293
1572.00,0.0293
1571.00,0.0293
1570.00,0.0293
1569.00,0.0293
1568.00,0.0293
1567.00,0.0294
1566.00,0.0293
1565.00,0.0292
1564.00,0.0291
1563.00,0.0291
1562.00,0.0291
1561.00,0.0288
1560.00,0.0288
1559.00,0.0291
1558.00,0.0291
1557.00,0.0290
1556.00,0.0290
1555.00,0.0291
1554.00,0.0291
1553.00,0.0291
1552.00,0.0291
1551.00,0.0290
1550.00,0.0289
1549.00,0.0288
1548.00,0.0287
1547.00,0.0286
1546.00,0.0285
1545.00,0.0284
1544.00,0.0284
1543.00,0.0283
1542.00,0.0281
1541.00,0.0281
1540.00,0.0281
1539.00,0.0280
1538.00,0.0280
1537.00,0.0280
1536.00,0.0281
1535.00,0.0281
1534.00,0.0281
1533.00,0.0282
1532.00,0.0282
1531.00,0.0283
1530.00,0.0283
1529.00,0.0282
1528.00,0.0282
1527.00,0.0281
1526.00,0.0280
1525.00,0.0280
1524.00,0.0279
1523.00,0.0279
1522.00,0.0279
1521.00,0.0279
1520.00,0.0280
1519.00,0.0281
1518.00,0.0281
1517.00,0.0281
1516.00,0.0280
1515.00,0.0280
1514.00,0.0280
1513.00,0.0280
1512.00,0.0280
1511.00,0.0279
1510.00,0.0277
1509.00,0.0276
1508.00,0.0277
1507.00,0.0279
1506.00,0.0280
1505.00,0.0280
1504.00,0.0280
1503.00,0.0279
1502.00,0.0279
1501.00,0.0278
1500.00,0.0278
1499.00,0.0279
1498.00,0.0279
1497.00,0.0280
1496.00,0.0281
1495.00,0.0280
1494.00,0.0279
1493.00,0.0278
1492.00,0.0276
1491.00,0.0276
1490.00,0.0276
1489.00,0.0277
1488.00,0.0278
1487.00,0.0278
1486.00,0.0278
1485.00,0.0277
1484.00,0.0277
1483.00,0.0276
1482.00,0.0276
1481.00,0.0275
1480.00,0.0275
1479.00,0.0275
1478.00,0.0274
1477.00,0.0274
1476.00,0.0274
1475.00,0.0274
1474.00,0.0274
1473.00,0.0274
1472.00,0.0275
1471.00,0.0275
1470.00,0.0276
1469.00,0.0277
1468.00,0.0277
1467.00,0.0277
1466.00,0.0276
1465.00,0.0275
1464.00,0.0274
1463.00,0.0273
1462.00,0.0272
1461.00,0.0271
1460.00,0.0270
1459.00,0.0270
1458.00,0.0271
1457.00,0.0273
1456.00,0.0274
1455.00,0.0274
1454.00,0.0274
1453.00,0.0274
1452.00,0.0274
1451.00,0.0275
1450.00,0.0276
1449.00,0.0277
1448.00,0.0279
1447.00,0.0279
1446.00,0.0280
1445.00,0.0280
1444.00,0.0279
1443.00,0.0279
1442.00,0.0278
1441.00,0.0278
1440.00,0.0279
1439.00,0.0280
1438.00,0.0281
1437.00,0.0282
1436.00,0.0283
1435.00,0.0282
1434.00,0.0281
1433.00,0.0281
1432.00,0.0280
1431.00,0.0280
1430.00,0.0279
1429.00,0.0279
1428.00,0.0279
1427.00,0.0279
1426.00,0.0279
1425.00,0.0279
1424.00,0.0279
1423.00,0.0279
1422.00,0.0279
1421.00,0.0279
1420.00,0.0279
1419.00,0.0280
1418.00,0.0281
1417.00,0.0281
1416.00,0.0282
1415.00,0.0281
1414.00,0.0280
1413.00,0.0279
1412.00,0.0278
1411.00,0.0277
1410.00,0.0277
1409.00,0.0276
1408.00,0.0276
1407.00,0.0275
1406.00,0.0274
1405.00,0.0273
1404.00,0.0272
1403.00,0.0272
1402.00,0.0271
1401.00,0.0270
1400.00,0.0269
1399.00,0.0268
1398.00,0.0268
1397.00,0.0268
1396.00,0.0268
1395.00,0.0267
1394.00,0.0267
1393.00,0.0267
1392.00,0.0266
1391.00,0.0266
1390.00,0.0266
1389.00,0.0267
1388.00,0.0267
1387.00,0.0267
1386.00,0.0267
1385.00,0.0266
1384.00,0.0266
1383.00,0.0265
1382.00,0.0266
1381.00,0.0266
1380.00,0.0267
1379.00,0.0267
1378.00,0.0268
1377.00,0.0269
1376.00,0.0270
1375.00,0.0271
1374.00,0.0272
1373.00,0.0273
1372.00,0.0274
1371.00,0.0274
1370.00,0.0274
1369.00,0.0275
1368.00,0.0275
1367.00,0.0276
1366.00,0.0276
1365.00,0.0275
1364.00,0.0275
1363.00,0.0276
1362.00,0.0278
1361.00,0.0279
1360.00,0.0280
1359.00,0.0280
1358.00,0.0280
1357.00,0.0280
1356.00,0.0281
1355.00,0.0282
1354.00,0.0283
1353.00,0.0283
1352.00,0.0283
1351.00,0.0282
1350.00,0.0282
1349.00,0.0282
1348.00,0.0282
1347.00,0.0282
1346.00,0.0282
1345.00,0.0282
1344.00,0.0282
1343.00,0.0282
1342.00,0.0282
1341.00,0.0283
1340.00,0.0284
1339.00,0.0285
1338.00,0.0285
1337.00,0.0286
1336.00,0.0286
1335.00,0.0286
1334.00,0.0286
1333.00,0.0286
1332.00,0.0286
1331.00,0.0286
1330.00,0.0286
1329.00,0.0286
1328.00,0.0287
1327.00,0.0287
1326.00,0.0287
1325.00,0.0288
1324.00,0.0288
1323.00,0.0289
1322.00,0.0290
1321.00,0.0291
1320.00,0.0292
1319.00,0.0291
1318.00,0.0291
1317.00,0.0290
1316.00,0.0289
1315.00,0.0289
1314.00,0.0289
1313.00,0.0291
1312.00,0.0292
1311.00,0.0293
1310.00,0.0293
1309.00,0.0293
1308.00,0.0293
1307.00,0.0293
1306.00,0.0293
1305.00,0.0293
1304.00,0.0294
1303.00,0.0295
1302.00,0.0296
1301.00,0.0296
1300.00,0.0296
1299.00,0.0295
1298.00,0.0294
1297.00,0.0293
1296.00,0.0293
1295.00,0.0294
1294.00,0.0294
1293.00,0.0295
1292.00,0.0296
1291.00,0.0297
1290.00,0.0298
1289.00,0.0298
1288.00,0.0298
1287.00,0.0298
1286.00,0.0297
1285.00,0.0297
1284.00,0.0298
1283.00,0.0299
1282.00,0.0299
1281.00,0.0299
1280.00,0.0299
1279.00,0.0299
1278.00,0.0298
1277.00,0.0298
1276.00,0.0298
1275.00,0.0298
1274.00,0.0298
1273.00,0.0298
1272.00,0.0297
1271.00,0.0297
1270.00,0.0297
1269.00,0.0297
1268.00,0.0298
1267.00,0.0298
1266.00,0.0299
1265.00,0.0299
1264.00,0.0299
1263.00,0.0298
1262.00,0.0297
1261.00,0.0297
1260.00,0.0297
1259.00,0.0299
1258.00,0.0300
1257.00,0.0300
1256.00,0.0299
1255.00,0.0299
1254.00,0.0299
1253.00,0.0300
1252.00,0.0300
1251.00,0.0300
1250.00,0.0299
1249.00,0.0300
1248.00,0.0300
1247.00,0.0301
1246.00,0.0302
1245.00,0.0303
1244.00,0.0304
1243.00,0.0304
1242.00,0.0304
1241.00,0.0304
1240.00,0.0303
1239.00,0.0304
1238.00,0.0304
1237.00,0.0305
1236.00,0.0306
1235.00,0.0306
1234.00,0.0306
1233.00,0.0306
1232.00,0.0307
1231.00,0.0307
1230.00,0.0307
1229.00,0.0307
1228.00,0.0307
1227.00,0.0308
1226.00,0.0308
1225.00,0.0307
1224.00,0.0307
1223.00,0.0306
1222.00,0.0307
1221.00,0.0308
1220.00,0.0309
1219.00,0.0310
1218.00,0.0310
1217.00,0.0311
1216.00,0.0311
1215.00,0.0311
1214.00,0.0311
1213.00,0.0311
1212.00,0.0312
1211.00,0.0313
1210.00,0.0314
1209.00,0.0314
1208.00,0.0315
1207.00,0.0314
1206.00,0.0314
1205.00,0.0313
1204.00,0.0313
1203.00,0.0313
1202.00,0.0313
1201.00,0.0313
1200.00,0.0313
1199.00,0.0314
1198.00,0.0314
1197.00,0.0314
1196.00,0.0313
1195.00,0.0312
1194.00,0.0312
1193.00,0.0311
1192.00,0.0312
1191.00,0.0312
1190.00,0.0312
1189.00,0.0311
1188.00,0.0310
1187.00,0.0310
1186.00,0.0310
1185.00,0.0310
1184.00,0.0309
1183.00,0.0309
1182.00,0.0308
1181.00,0.0306
1180.00,0.0305
1179.00,0.0303
1178.00,0.0303
1177.00,0.0303
1176.00,0.0303
1175.00,0.0304
1174.00,0.0304
1173.00,0.0304
1172.00,0.0304
1171.00,0.0303
1170.00,0.0302
1169.00,0.0300
1168.00,0.0299
1167.00,0.0299
1166.00,0.0298
1165.00,0.0298
1164.00,0.0298
1163.00,0.0298
1162.00,0.0298
1161.00,0.0298
1160.00,0.0298
1159.00,0.0298
1158.00,0.0297
1157.00,0.0297
1156.00,0.0297
1155.00,0.0297
1154.00,0.0298
1153.00,0.0298
1152.00,0.0297
1151.00,0.0295
1150.00,0.0294
1149.00,0.0294
1148.00,0.0294
1147.00,0.0294
1146.00,0.0294
1145.00,0.0295
1144.00,0.0295
1143.00,0.0296
1142.00,0.0297
1141.00,0.0298
1140.00,0.0298
1139.00,0.0298
1138.00,0.0298
1137.00,0.0298
1136.00,0.0299
1135.00,0.0300
1134.00,0.0301
1133.00,0.0302
1132.00,0.0302
1131.00,0.0302
1130.00,0.0302
1129.00,0.0303
1128.00,0.0304
1127.00,0.0304
1126.00,0.0302
1125.00,0.0300
1124.00,0.0300
1123.00,0.0302
1122.00,0.0306
1121.00,0.0309
1120.00,0.0312
1119.00,0.0313
1118.00,0.0313
1117.00,0.0313
1116.00,0.0313
1115.00,0.0314
1114.00,0.0314
1113.00,0.0314
1112.00,0.0313
1111.00,0.0312
1110.00,0.0311
1109.00,0.0311
1108.00,0.0311
1107.00,0.0311
1106.00,0.0311
1105.00,0.0311
1104.00,0.0311
1103.00,0.0312
1102.00,0.0313
1101.00,0.0313
1100.00,0.0313
1099.00,0.0312
1098.00,0.0312
1097.00,0.0311
1096.00,0.0310
1095.00,0.0309
1094.00,0.0309
1093.00,0.0310
1092.00,0.0311
1091.00,0.0312
1090.00,0.0311
1089.00,0.0309
1088.00,0.0307
1087.00,0.0307
1086.00,0.0308
1085.00,0.0309
1084.00,0.0309
1083.00,0.0310
1082.00,0.0310
1081.00,0.0310
1080.00,0.0311
1079.00,0.0312
1078.00,0.0314
1077.00,0.0315
1076.00,0.0315
1075.00,0.0312
1074.00,0.0310
1073.00,0.0309
1072.00,0.0308
1071.00,0.0308
1070.00,0.0307
1069.00,0.0306
1068.00,0.0306
1067.00,0.0307
1066.00,0.0309
1065.00,0.0311
1064.00,0.0313
1063.00,0.0314
1062.00,0.0314
1061.00,0.0313
1060.00,0.0312
1059.00,0.0311
1058.00,0.0312
1057.00,0.0314
1056.00,0.0316
1055.00,0.0318
1054.00,0.0320
1053.00,0.0321
1052.00,0.0321
1051.00,0.0321
1050.00,0.0321
1049.00,0.0322
1048.00,0.0324
1047.00,0.0325
1046.00,0.0325
1045.00,0.0326
1044.00,0.0328
1043.00,0.0328
1042.00,0.0327
1041.00,0.0325
1040.00,0.0324
1039.00,0.0325
1038.00,0.0326
1037.00,0.0327
1036.00,0.0328
1035.00,0.0328
1034.00,0.0327
1033.00,0.0327
1032.00,0.0327
1031.00,0.0327
1030.00,0.0326
1029.00,0.0325
1028.00,0.0324
1027.00,0.0323
1026.00,0.0322
1025.00,0.0322
1024.00,0.0322
1023.00,0.0321
1022.00,0.0321
1021.00,0.0320
1020.00,0.0319
1019.00,0.0319
1018.00,0.0318
1017.00,0.0319
1016.00,0.0320
1015.00,0.0321
1014.00,0.0322
1013.00,0.0323
1012.00,0.0323
1011.00,0.0323
1010.00,0.0323
1009.00,0.0324
1008.00,0.0324
1007.00,0.0323
1006.00,0.0321
1005.00,0.0321
1004.00,0.0321
1003.00,0.0321
1002.00,0.0322
1001.00,0.0321
1000.00,0.0319
999.00,0.0316
998.00,0.0313
997.00,0.0312
996.00,0.0313
995.00,0.0313
994.00,0.0313
993.00,0.0311
992.00,0.0309
991.00,0.0307
990.00,0.0306
989.00,0.0306
988.00,0.0307
987.00,0.0307
986.00,0.0308
985.00,0.0308
984.00,0.0306
983.00,0.0304
982.00,0.0302
981.00,0.0302
980.00,0.0302
979.00,0.0302
978.00,0.0300
977.00,0.0298
976.00,0.0296
975.00,0.0294
974.00,0.0294
973.00,0.0294
972.00,0.0294
971.00,0.0293
970.00,0.0291
969.00,0.0289
968.00,0.0287
967.00,0.0287
966.00,0.0286
965.00,0.0284
964.00,0.0283
963.00,0.0283
962.00,0.0284
961.00,0.0284
960.00,0.0283
959.00,0.0282
958.00,0.0280
957.00,0.0279
956.00,0.0279
955.00,0.0279
954.00,0.0278
953.00,0.0278
952.00,0.0278
951.00,0.0279
950.00,0.0281
949.00,0.0282
948.00,0.0282
947.00,0.0280
946.00,0.0279
945.00,0.0278
944.00,0.0278
943.00,0.0277
942.00,0.0277
941.00,0.0278
940.00,0.0280
939.00,0.0282
938.00,0.0283
937.00,0.0282
936.00,0.0280
935.00,0.0277
934.00,0.0276
933.00,0.0278
932.00,0.0282
931.00,0.0285
930.00,0.0288
929.00,0.0289
928.00,0.0290
927.00,0.0290
926.00,0.0290
925.00,0.0290
924.00,0.0291
923.00,0.0292
922.00,0.0292
921.00,0.0293
920.00,0.0293
919.00,0.0293
918.00,0.0292
917.00,0.0294
916.00,0.0296
915.00,0.0298
914.00,0.0298
913.00,0.0298
912.00,0.0297
911.00,0.0296
910.00,0.0295
909.00,0.0292
908.00,0.0289
907.00,0.0288
906.00,0.0288
905.00,0.0290
904.00,0.0294
903.00,0.0298
902.00,0.0302
901.00,0.0302
900.00,0.0301
899.00,0.0298
898.00,0.0297
897.00,0.0298
896.00,0.0299
895.00,0.0300
894.00,0.0300
893.00,0.0299
892.00,0.0297
891.00,0.0296
890.00,0.0296
889.00,0.0297
888.00,0.0298
887.00,0.0297
886.00,0.0296
885.00,0.0296
884.00,0.0297
883.00,0.0299
882.00,0.0302
881.00,0.0303
880.00,0.0303
879.00,0.0301
878.00,0.0299
877.00,0.0296
876.00,0.0294
875.00,0.0292
874.00,0.0292
873.00,0.0292
872.00,0.0292
871.00,0.0293
870.00,0.0294
869.00,0.0293
868.00,0.0291
867.00,0.0290
866.00,0.0289
865.00,0.0290
864.00,0.0291
863.00,0.0292
862.00,0.0292
861.00,0.0293
860.00,0.0292
859.00,0.0291
858.00,0.0289
857.00,0.0288
856.00,0.0288
855.00,0.0290
854.00,0.0291
853.00,0.0292
852.00,0.0291
851.00,0.0289
850.00,0.0289
849.00,0.0290
848.00,0.0292
847.00,0.0293
846.00,0.0294
845.00,0.0296
844.00,0.0296
843.00,0.0295
842.00,0.0293
841.00,0.0291
840.00,0.0290
839.00,0.0288
838.00,0.0288
837.00,0.0289
836.00,0.0290
835.00,0.0291
834.00,0.0290
833.00,0.0290
832.00,0.0291
831.00,0.0291
830.00,0.0291
829.00,0.0290
828.00,0.0290
827.00,0.0290
826.00,0.0292
825.00,0.0294
824.00,0.0297
823.00,0.0299
822.00,0.0299
821.00,0.0298
820.00,0.0298
819.00,0.0297
818.00,0.0296
817.00,0.0293
816.00,0.0291
815.00,0.0290
814.00,0.0291
813.00,0.0294
812.00,0.0296
811.00,0.0296
810.00,0.0295
809.00,0.0294
808.00,0.0294
807.00,0.0294
806.00,0.0292
805.00,0.0291
804.00,0.0290
803.00,0.0291
802.00,0.0292
801.00,0.0295
800.00,0.0298
799.00,0.0300
798.00,0.0300
797.00,0.0299
796.00,0.0296
795.00,0.0295
794.00,0.0294
793.00,0.0293
792.00,0.0293
791.00,0.0294
790.00,0.0296
789.00,0.0296
788.00,0.0295
787.00,0.0294
786.00,0.0294
785.00,0.0296
784.00,0.0299
783.00,0.0301
782.00,0.0301
781.00,0.0300
780.00,0.0299
779.00,0.0297
778.00,0.0297
777.00,0.0298
776.00,0.0300
775.00,0.0300
774.00,0.0299
773.00,0.0297
772.00,0.0295
771.00,0.0294
770.00,0.0294
769.00,0.0295
768.00,0.0296
767.00,0.0295
766.00,0.0294
765.00,0.0292
764.00,0.0292
763.00,0.0293
762.00,0.0292
761.00,0.0291
760.00,0.0291
759.00,0.0294
758.00,0.0297
757.00,0.0300
756.00,0.0301
755.00,0.0298
754.00,0.0296
753.00,0.0294
752.00,0.0295
751.00,0.0296
750.00,0.0298
749.00,0.0299
748.00,0.0300
747.00,0.0300
746.00,0.0298
745.00,0.0296
744.00,0.0294
743.00,0.0294
742.00,0.0294
741.00,0.0292
740.00,0.0288
739.00,0.0283
738.00,0.0279
737.00,0.0279
736.00,0.0280
735.00,0.0280
734.00,0.0279
733.00,0.0278
732.00,0.0278
731.00,0.0279
730.00,0.0279
729.00,0.0281
728.00,0.0284
727.00,0.0287
726.00,0.0289
725.00,0.0288
724.00,0.0285
723.00,0.0282
722.00,0.0280
721.00,0.0281
720.00,0.0282
719.00,0.0283
718.00,0.0282
717.00,0.0281
716.00,0.0278
715.00,0.0276
714.00,0.0275
713.00,0.0277
712.00,0.0280
711.00,0.0282
710.00,0.0282
709.00,0.0279
708.00,0.0277
707.00,0.0277
706.00,0.0278
705.00,0.0280
704.00,0.0283
703.00,0.0286
702.00,0.0286
701.00,0.0284
700.00,0.0281
699.00,0.0280
698.00,0.0281
697.00,0.0281
696.00,0.0280
695.00,0.0280
694.00,0.0282
693.00,0.0283
692.00,0.0284
691.00,0.0283
690.00,0.0284
689.00,0.0285
688.00,0.0285
687.00,0.0284
686.00,0.0283
685.00,0.0280
684.00,0.0276
683.00,0.0271
682.00,0.0267
681.00,0.0265
680.00,0.0268
679.00,0.0272
678.00,0.0276
677.00,0.0278
676.00,0.0279
675.00,0.0278
674.00,0.0278
673.00,0.0278
672.00,0.0278
671.00,0.0278
670.00,0.0277
669.00,0.0277
668.00,0.0281
667.00,0.0286
666.00,0.0289
665.00,0.0288
664.00,0.0284
663.00,0.0277
662.00,0.0270
661.00,0.0265
660.00,0.0262
659.00,0.0262
658.00,0.0265
657.00,0.0273
656.00,0.0270
655.00,0.0266
654.00,0.0263
653.00,0.0256
652.00,0.0251
651.00,0.0251
650.00,0.0257
