Created as New Dataset,Monday, April 03 2023
cm-1,A
4000.00,0.0150
3999.00,0.0150
3998.00,0.0150
3997.00,0.0149
3996.00,0.0149
3995.00,0.0148
3994.00,0.0148
3993.00,0.0148
3992.00,0.0148
3991.00,0.0148
3990.00,0.0148
3989.00,0.0148
3988.00,0.0148
3987.00,0.0148
3986.00,0.0147
3985.00,0.0148
3984.00,0.0148
3983.00,0.0148
3982.00,0.0148
3981.00,0.0148
3980.00,0.0148
3979.00,0.0147
3978.00,0.0147
3977.00,0.0146
3976.00,0.0146
3975.00,0.0145
3974.00,0.0145
3973.00,0.0145
3972.00,0.0146
3971.00,0.0146
3970.00,0.0147
3969.00,0.0147
3968.00,0.0147
3967.00,0.0146
3966.00,0.0146
3965.00,0.0145
3964.00,0.0146
3963.00,0.0146
3962.00,0.0147
3961.00,0.0146
3960.00,0.0145
3959.00,0.0144
3958.00,0.0144
3957.00,0.0144
3956.00,0.0144
3955.00,0.0144
3954.00,0.0144
3953.00,0.0143
3952.00,0.0143
3951.00,0.0143
3950.00,0.0144
3949.00,0.0144
3948.00,0.0144
3947.00,0.0144
3946.00,0.0143
3945.00,0.0143
3944.00,0.0142
3943.00,0.0142
3942.00,0.0141
3941.00,0.0141
3940.00,0.0141
3939.00,0.0142
3938.00,0.0143
3937.00,0.0143
3936.00,0.0143
3935.00,0.0142
3934.00,0.0142
3933.00,0.0141
3932.00,0.0140
3931.00,0.0140
3930.00,0.0139
3929.00,0.0139
3928.00,0.0140
3927.00,0.0141
3926.00,0.0141
3925.00,0.0141
3924.00,0.0141
3923.00,0.0140
3922.00,0.0139
3921.00,0.0139
3920.00,0.0139
3919.00,0.0138
3918.00,0.0139
3917.00,0.0139
3916.00,0.0139
3915.00,0.0139
3914.00,0.0139
3913.00,0.0139
3912.00,0.0140
3911.00,0.0140
3910.00,0.0140
3909.00,0.0139
3908.00,0.0138
3907.00,0.0137
3906.00,0.0135
3905.00,0.0134
3904.00,0.0132
3903.00,0.0130
3902.00,0.0129
3901.00,0.0129
3900.00,0.0130
3899.00,0.0132
3898.00,0.0132
3897.00,0.0133
3896.00,0.0134
3895.00,0.0135
3894.00,0.0136
3893.00,0.0136
3892.00,0.0136
3891.00,0.0134
3890.00,0.0132
3889.00,0.0130
3888.00,0.0130
3887.00,0.0131
3886.00,0.0132
3885.00,0.0131
3884.00,0.0130
3883.00,0.0129
3882.00,0.0130
3881.00,0.0131
3880.00,0.0131
3879.00,0.0131
3878.00,0.0131
3877.00,0.0132
3876.00,0.0134
3875.00,0.0135
3874.00,0.0133
3873.00,0.0131
3872.00,0.0129
3871.00,0.0129
3870.00,0.0130
3869.00,0.0129
3868.00,0.0128
3867.00,0.0127
3866.00,0.0129
3865.00,0.0130
3864.00,0.0132
3863.00,0.0132
3862.00,0.0133
3861.00,0.0133
3860.00,0.0133
3859.00,0.0132
3858.00,0.0129
3857.00,0.0125
3856.00,0.0120
3855.00,0.0118
3854.00,0.0119
3853.00,0.0121
3852.00,0.0121
3851.00,0.0122
3850.00,0.0126
3849.00,0.0130
3848.00,0.0132
3847.00,0.0132
3846.00,0.0132
3845.00,0.0131
3844.00,0.0130
3843.00,0.0129
3842.00,0.0127
3841.00,0.0126
3840.00,0.0126
3839.00,0.0127
3838.00,0.0127
3837.00,0.0127
3836.00,0.0127
3835.00,0.0127
3834.00,0.0128
3833.00,0.0129
3832.00,0.0129
3831.00,0.0129
3830.00,0.0129
3829.00,0.0130
3828.00,0.0130
3827.00,0.0130
3826.00,0.0130
3825.00,0.0128
3824.00,0.0127
3823.00,0.0127
3822.00,0.0127
3821.00,0.0127
3820.00,0.0124
3819.00,0.0122
3818.00,0.0122
3817.00,0.0125
3816.00,0.0128
3815.00,0.0130
3814.00,0.0130
3813.00,0.0130
3812.00,0.0131
3811.00,0.0130
3810.00,0.0128
3809.00,0.0126
3808.00,0.0126
3807.00,0.0126
3806.00,0.0126
3805.00,0.0125
3804.00,0.0126
3803.00,0.0128
3802.00,0.0129
3801.00,0.0129
3800.00,0.0127
3799.00,0.0126
3798.00,0.0127
3797.00,0.0128
3796.00,0.0128
3795.00,0.0128
3794.00,0.0128
3793.00,0.0129
3792.00,0.0130
3791.00,0.0130
3790.00,0.0130
3789.00,0.0130
3788.00,0.0130
3787.00,0.0130
3786.00,0.0130
3785.00,0.0130
3784.00,0.0130
3783.00,0.0129
3782.00,0.0128
3781.00,0.0128
3780.00,0.0128
3779.00,0.0128
3778.00,0.0127
3777.00,0.0127
3776.00,0.0127
3775.00,0.0127
3774.00,0.0127
3773.00,0.0127
3772.00,0.0126
3771.00,0.0125
3770.00,0.0124
3769.00,0.0122
3768.00,0.0121
3767.00,0.0122
3766.00,0.0123
3765.00,0.0124
3764.00,0.0124
3763.00,0.0124
3762.00,0.0124
3761.00,0.0125
3760.00,0.0125
3759.00,0.0124
3758.00,0.0122
3757.00,0.0120
3756.00,0.0119
3755.00,0.0117
3754.00,0.0115
3753.00,0.0114
3752.00,0.0114
3751.00,0.0115
3750.00,0.0115
3749.00,0.0114
3748.00,0.0113
3747.00,0.0113
3746.00,0.0114
3745.00,0.0114
3744.00,0.0113
3743.00,0.0110
3742.00,0.0110
3741.00,0.0114
3740.00,0.0118
3739.00,0.0119
3738.00,0.0118
3737.00,0.0116
3736.00,0.0114
3735.00,0.0112
3734.00,0.0110
3733.00,0.0110
3732.00,0.0111
3731.00,0.0113
3730.00,0.0114
3729.00,0.0116
3728.00,0.0118
3727.00,0.0119
3726.00,0.0118
3725.00,0.0117
3724.00,0.0116
3723.00,0.0115
3722.00,0.0116
3721.00,0.0117
3720.00,0.0119
3719.00,0.0120
3718.00,0.0120
3717.00,0.0120
3716.00,0.0118
3715.00,0.0117
3714.00,0.0116
3713.00,0.0116
3712.00,0.0117
3711.00,0.0117
3710.00,0.0116
3709.00,0.0117
3708.00,0.0118
3707.00,0.0120
3706.00,0.0123
3705.00,0.0124
3704.00,0.0125
3703.00,0.0124
3702.00,0.0123
3701.00,0.0122
3700.00,0.0122
3699.00,0.0123
3698.00,0.0124
3697.00,0.0125
3696.00,0.0125
3695.00,0.0124
3694.00,0.0122
3693.00,0.0120
3692.00,0.0119
3691.00,0.0119
3690.00,0.0121
3689.00,0.0123
3688.00,0.0123
3687.00,0.0122
3686.00,0.0123
3685.00,0.0124
3684.00,0.0125
3683.00,0.0125
3682.00,0.0124
3681.00,0.0122
3680.00,0.0119
3679.00,0.0115
3678.00,0.0112
3677.00,0.0110
3676.00,0.0111
3675.00,0.0111
3674.00,0.0109
3673.00,0.0109
3672.00,0.0113
3671.00,0.0118
3670.00,0.0123
3669.00,0.0124
3668.00,0.0124
3667.00,0.0124
3666.00,0.0126
3665.00,0.0129
3664.00,0.0131
3663.00,0.0133
3662.00,0.0134
3661.00,0.0135
3660.00,0.0136
3659.00,0.0137
3658.00,0.0138
3657.00,0.0139
3656.00,0.0140
3655.00,0.0139
3654.00,0.0138
3653.00,0.0137
3652.00,0.0136
3651.00,0.0135
3650.00,0.0137
3649.00,0.0140
3648.00,0.0142
3647.00,0.0145
3646.00,0.0148
3645.00,0.0151
3644.00,0.0155
3643.00,0.0159
3642.00,0.0162
3641.00,0.0165
3640.00,0.0166
3639.00,0.0168
3638.00,0.0169
3637.00,0.0170
3636.00,0.0171
3635.00,0.0171
3634.00,0.0172
3633.00,0.0171
3632.00,0.0169
3631.00,0.0169
3630.00,0.0172
3629.00,0.0176
3628.00,0.0178
3627.00,0.0178
3626.00,0.0179
3625.00,0.0182
3624.00,0.0185
3623.00,0.0187
3622.00,0.0188
3621.00,0.0190
3620.00,0.0192
3619.00,0.0195
3618.00,0.0195
3617.00,0.0195
3616.00,0.0196
3615.00,0.0198
3614.00,0.0200
3613.00,0.0200
3612.00,0.0200
3611.00,0.0201
3610.00,0.0203
3609.00,0.0206
3608.00,0.0210
3607.00,0.0211
3606.00,0.0212
3605.00,0.0213
3604.00,0.0214
3603.00,0.0216
3602.00,0.0219
3601.00,0.0222
3600.00,0.0223
3599.00,0.0224
3598.00,0.0223
3597.00,0.0224
3596.00,0.0224
3595.00,0.0226
3594.00,0.0227
3593.00,0.0227
3592.00,0.0226
3591.00,0.0224
3590.00,0.0224
3589.00,0.0225
3588.00,0.0228
3587.00,0.0231
3586.00,0.0233
3585.00,0.0234
3584.00,0.0236
3583.00,0.0238
3582.00,0.0240
3581.00,0.0242
3580.00,0.0243
3579.00,0.0244
3578.00,0.0245
3577.00,0.0247
3576.00,0.0248
3575.00,0.0250
3574.00,0.0251
3573.00,0.0251
3572.00,0.0251
3571.00,0.0249
3570.00,0.0247
3569.00,0.0247
3568.00,0.0249
3567.00,0.0253
3566.00,0.0255
3565.00,0.0256
3564.00,0.0256
3563.00,0.0258
3562.00,0.0260
3561.00,0.0263
3560.00,0.0265
3559.00,0.0267
3558.00,0.0268
3557.00,0.0269
3556.00,0.0270
3555.00,0.0272
3554.00,0.0273
3553.00,0.0274
3552.00,0.0275
3551.00,0.0276
3550.00,0.0277
3549.00,0.0277
3548.00,0.0278
3547.00,0.0280
3546.00,0.0281
3545.00,0.0283
3544.00,0.0284
3543.00,0.0284
3542.00,0.0285
3541.00,0.0286
3540.00,0.0286
3539.00,0.0286
3538.00,0.0287
3537.00,0.0287
3536.00,0.0289
3535.00,0.0290
3534.00,0.0291
3533.00,0.0292
3532.00,0.0293
3531.00,0.0294
3530.00,0.0294
3529.00,0.0294
3528.00,0.0294
3527.00,0.0295
3526.00,0.0296
3525.00,0.0299
3524.00,0.0301
3523.00,0.0304
3522.00,0.0305
3521.00,0.0305
3520.00,0.0304
3519.00,0.0304
3518.00,0.0304
3517.00,0.0305
3516.00,0.0305
3515.00,0.0307
3514.00,0.0308
3513.00,0.0310
3512.00,0.0312
3511.00,0.0313
3510.00,0.0314
3509.00,0.0314
3508.00,0.0314
3507.00,0.0314
3506.00,0.0314
3505.00,0.0315
3504.00,0.0316
3503.00,0.0318
3502.00,0.0320
3501.00,0.0321
3500.00,0.0322
3499.00,0.0323
3498.00,0.0324
3497.00,0.0325
3496.00,0.0326
3495.00,0.0326
3494.00,0.0326
3493.00,0.0326
3492.00,0.0326
3491.00,0.0326
3490.00,0.0327
3489.00,0.0328
3488.00,0.0330
3487.00,0.0331
3486.00,0.0332
3485.00,0.0332
3484.00,0.0333
3483.00,0.0333
3482.00,0.0334
3481.00,0.0335
3480.00,0.0336
3479.00,0.0337
3478.00,0.0337
3477.00,0.0338
3476.00,0.0339
3475.00,0.0341
3474.00,0.0342
3473.00,0.0343
3472.00,0.0343
3471.00,0.0344
3470.00,0.0345
3469.00,0.0346
3468.00,0.0347
3467.00,0.0348
3466.00,0.0348
3465.00,0.0349
3464.00,0.0350
3463.00,0.0350
3462.00,0.0350
3461.00,0.0350
3460.00,0.0351
3459.00,0.0352
3458.00,0.0353
3457.00,0.0354
3456.00,0.0353
3455.00,0.0353
3454.00,0.0353
3453.00,0.0354
3452.00,0.0355
3451.00,0.0356
3450.00,0.0357
3449.00,0.0357
3448.00,0.0359
3447.00,0.0360
3446.00,0.0361
3445.00,0.0361
3444.00,0.0362
3443.00,0.0363
3442.00,0.0363
3441.00,0.0363
3440.00,0.0363
3439.00,0.0363
3438.00,0.0364
3437.00,0.0365
3436.00,0.0365
3435.00,0.0366
3434.00,0.0366
3433.00,0.0366
3432.00,0.0367
3431.00,0.0368
3430.00,0.0369
3429.00,0.0370
3428.00,0.0370
3427.00,0.0370
3426.00,0.0371
3425.00,0.0372
3424.00,0.0373
3423.00,0.0375
3422.00,0.0376
3421.00,0.0377
3420.00,0.0377
3419.00,0.0378
3418.00,0.0378
3417.00,0.0378
3416.00,0.0378
3415.00,0.0377
3414.00,0.0378
3413.00,0.0378
3412.00,0.0379
3411.00,0.0380
3410.00,0.0381
3409.00,0.0382
3408.00,0.0383
3407.00,0.0383
3406.00,0.0384
3405.00,0.0384
3404.00,0.0384
3403.00,0.0384
3402.00,0.0385
3401.00,0.0385
3400.00,0.0386
3399.00,0.0387
3398.00,0.0387
3397.00,0.0387
3396.00,0.0387
3395.00,0.0387
3394.00,0.0387
3393.00,0.0388
3392.00,0.0389
3391.00,0.0390
3390.00,0.0391
3389.00,0.0392
3388.00,0.0392
3387.00,0.0391
3386.00,0.0391
3385.00,0.0391
3384.00,0.0392
3383.00,0.0392
3382.00,0.0393
3381.00,0.0393
3380.00,0.0393
3379.00,0.0394
3378.00,0.0395
3377.00,0.0396
3376.00,0.0396
3375.00,0.0396
3374.00,0.0396
3373.00,0.0396
3372.00,0.0396
3371.00,0.0395
3370.00,0.0396
3369.00,0.0396
3368.00,0.0397
3367.00,0.0398
3366.00,0.0397
3365.00,0.0397
3364.00,0.0396
3363.00,0.0397
3362.00,0.0398
3361.00,0.0400
3360.00,0.0402
3359.00,0.0402
3358.00,0.0402
3357.00,0.0402
3356.00,0.0402
3355.00,0.0402
3354.00,0.0403
3353.00,0.0403
3352.00,0.0403
3351.00,0.0403
3350.00,0.0403
3349.00,0.0403
3348.00,0.0403
3347.00,0.0403
3346.00,0.0403
3345.00,0.0402
3344.00,0.0402
3343.00,0.0402
3342.00,0.0403
3341.00,0.0403
3340.00,0.0404
3339.00,0.0405
3338.00,0.0405
3337.00,0.0406
3336.00,0.0406
3335.00,0.0406
3334.00,0.0405
3333.00,0.0405
3332.00,0.0405
3331.00,0.0404
3330.00,0.0404
3329.00,0.0403
3328.00,0.0404
3327.00,0.0404
3326.00,0.0405
3325.00,0.0406
3324.00,0.0406
3323.00,0.0407
3322.00,0.0407
3321.00,0.0407
3320.00,0.0406
3319.00,0.0405
3318.00,0.0405
3317.00,0.0404
3316.00,0.0404
3315.00,0.0404
3314.00,0.0404
3313.00,0.0404
3312.00,0.0405
3311.00,0.0405
3310.00,0.0406
3309.00,0.0407
3308.00,0.0407
3307.00,0.0408
3306.00,0.0408
3305.00,0.0408
3304.00,0.0407
3303.00,0.0407
3302.00,0.0407
3301.00,0.0407
3300.00,0.0407
3299.00,0.0408
3298.00,0.0408
3297.00,0.0409
3296.00,0.0410
3295.00,0.0410
3294.00,0.0410
3293.00,0.0409
3292.00,0.0408
3291.00,0.0408
3290.00,0.0408
3289.00,0.0408
3288.00,0.0408
3287.00,0.0408
3286.00,0.0408
3285.00,0.0409
3284.00,0.0409
3283.00,0.0409
3282.00,0.0409
3281.00,0.0409
3280.00,0.0409
3279.00,0.0409
3278.00,0.0409
3277.00,0.0409
3276.00,0.0409
3275.00,0.0410
3274.00,0.0410
3273.00,0.0411
3272.00,0.0411
3271.00,0.0411
3270.00,0.0412
3269.00,0.0412
3268.00,0.0412
3267.00,0.0412
3266.00,0.0412
3265.00,0.0411
3264.00,0.0410
3263.00,0.0410
3262.00,0.0410
3261.00,0.0410
3260.00,0.0411
3259.00,0.0411
3258.00,0.0411
3257.00,0.0410
3256.00,0.0410
3255.00,0.0410
3254.00,0.0410
3253.00,0.0411
3252.00,0.0411
3251.00,0.0411
3250.00,0.0411
3249.00,0.0411
3248.00,0.0410
3247.00,0.0410
3246.00,0.0411
3245.00,0.0411
3244.00,0.0412
3243.00,0.0412
3242.00,0.0411
3241.00,0.0411
3240.00,0.0411
3239.00,0.0411
3238.00,0.0411
3237.00,0.0412
3236.00,0.0413
3235.00,0.0414
3234.00,0.0414
3233.00,0.0414
3232.00,0.0413
3231.00,0.0413
3230.00,0.0413
3229.00,0.0412
3228.00,0.0412
3227.00,0.0412
3226.00,0.0412
3225.00,0.0412
3224.00,0.0412
3223.00,0.0412
3222.00,0.0412
3221.00,0.0412
3220.00,0.0412
3219.00,0.0411
3218.00,0.0411
3217.00,0.0412
3216.00,0.0412
3215.00,0.0413
3214.00,0.0413
3213.00,0.0413
3212.00,0.0412
3211.00,0.0411
3210.00,0.0411
3209.00,0.0411
3208.00,0.0411
3207.00,0.0411
3206.00,0.0412
3205.00,0.0412
3204.00,0.0413
3203.00,0.0413
3202.00,0.0413
3201.00,0.0412
3200.00,0.0412
3199.00,0.0412
3198.00,0.0412
3197.00,0.0412
3196.00,0.0412
3195.00,0.0411
3194.00,0.0411
3193.00,0.0410
3192.00,0.0410
3191.00,0.0409
3190.00,0.0408
3189.00,0.0407
3188.00,0.0407
3187.00,0.0406
3186.00,0.0406
3185.00,0.0407
3184.00,0.0408
3183.00,0.0408
3182.00,0.0409
3181.00,0.0409
3180.00,0.0409
3179.00,0.0408
3178.00,0.0407
3177.00,0.0406
3176.00,0.0405
3175.00,0.0405
3174.00,0.0405
3173.00,0.0405
3172.00,0.0405
3171.00,0.0405
3170.00,0.0404
3169.00,0.0404
3168.00,0.0403
3167.00,0.0403
3166.00,0.0403
3165.00,0.0404
3164.00,0.0405
3163.00,0.0405
3162.00,0.0404
3161.00,0.0403
3160.00,0.0402
3159.00,0.0400
3158.00,0.0400
3157.00,0.0399
3156.00,0.0400
3155.00,0.0400
3154.00,0.0401
3153.00,0.0401
3152.00,0.0400
3151.00,0.0400
3150.00,0.0399
3149.00,0.0399
3148.00,0.0398
3147.00,0.0398
3146.00,0.0398
3145.00,0.0398
3144.00,0.0398
3143.00,0.0398
3142.00,0.0397
3141.00,0.0397
3140.00,0.0396
3139.00,0.0395
3138.00,0.0395
3137.00,0.0395
3136.00,0.0395
3135.00,0.0395
3134.00,0.0395
3133.00,0.0394
3132.00,0.0394
3131.00,0.0395
3130.00,0.0395
3129.00,0.0394
3128.00,0.0394
3127.00,0.0393
3126.00,0.0393
3125.00,0.0393
3124.00,0.0393
3123.00,0.0392
3122.00,0.0392
3121.00,0.0391
3120.00,0.0390
3119.00,0.0390
3118.00,0.0390
3117.00,0.0390
3116.00,0.0390
3115.00,0.0389
3114.00,0.0389
3113.00,0.0389
3112.00,0.0389
3111.00,0.0389
3110.00,0.0388
3109.00,0.0388
3108.00,0.0387
3107.00,0.0387
3106.00,0.0388
3105.00,0.0388
3104.00,0.0387
3103.00,0.0387
3102.00,0.0386
3101.00,0.0386
3100.00,0.0385
3099.00,0.0384
3098.00,0.0384
3097.00,0.0384
3096.00,0.0385
3095.00,0.0386
3094.00,0.0386
3093.00,0.0386
3092.00,0.0385
3091.00,0.0384
3090.00,0.0382
3089.00,0.0381
3088.00,0.0380
3087.00,0.0380
3086.00,0.0380
3085.00,0.0381
3084.00,0.0381
3083.00,0.0381
3082.00,0.0381
3081.00,0.0381
3080.00,0.0381
3079.00,0.0381
3078.00,0.0380
3077.00,0.0380
3076.00,0.0379
3075.00,0.0379
3074.00,0.0379
3073.00,0.0379
3072.00,0.0379
3071.00,0.0379
3070.00,0.0379
3069.00,0.0378
3068.00,0.0378
3067.00,0.0377
3066.00,0.0377
3065.00,0.0376
3064.00,0.0375
3063.00,0.0374
3062.00,0.0374
3061.00,0.0374
3060.00,0.0374
3059.00,0.0373
3058.00,0.0373
3057.00,0.0373
3056.00,0.0373
3055.00,0.0372
3054.00,0.0371
3053.00,0.0370
3052.00,0.0370
3051.00,0.0370
3050.00,0.0370
3049.00,0.0371
3048.00,0.0371
3047.00,0.0370
3046.00,0.0370
3045.00,0.0369
3044.00,0.0368
3043.00,0.0367
3042.00,0.0366
3041.00,0.0365
3040.00,0.0364
3039.00,0.0364
3038.00,0.0363
3037.00,0.0363
3036.00,0.0363
3035.00,0.0363
3034.00,0.0363
3033.00,0.0362
3032.00,0.0362
3031.00,0.0361
3030.00,0.0360
3029.00,0.0359
3028.00,0.0358
3027.00,0.0358
3026.00,0.0358
3025.00,0.0358
3024.00,0.0357
3023.00,0.0356
3022.00,0.0356
3021.00,0.0355
3020.00,0.0355
3019.00,0.0353
3018.00,0.0352
3017.00,0.0351
3016.00,0.0351
3015.00,0.0350
3014.00,0.0349
3013.00,0.0348
3012.00,0.0347
3011.00,0.0346
3010.00,0.0345
3009.00,0.0344
3008.00,0.0342
3007.00,0.0340
3006.00,0.0338
3005.00,0.0337
3004.00,0.0336
3003.00,0.0334
3002.00,0.0332
3001.00,0.0331
3000.00,0.0329
2999.00,0.0328
2998.00,0.0327
2997.00,0.0325
2996.00,0.0324
2995.00,0.0323
2994.00,0.0322
2993.00,0.0321
2992.00,0.0320
2991.00,0.0319
2990.00,0.0318
2989.00,0.0317
2988.00,0.0315
2987.00,0.0313
2986.00,0.0310
2985.00,0.0306
2984.00,0.0302
2983.00,0.0298
2982.00,0.0297
2981.00,0.0297
2980.00,0.0298
2979.00,0.0300
2978.00,0.0302
2977.00,0.0304
2976.00,0.0305
2975.00,0.0305
2974.00,0.0305
2973.00,0.0303
2972.00,0.0302
2971.00,0.0302
2970.00,0.0304
2969.00,0.0306
2968.00,0.0307
2967.00,0.0308
2966.00,0.0309
2965.00,0.0309
2964.00,0.0310
2963.00,0.0311
2962.00,0.0313
2961.00,0.0314
2960.00,0.0314
2959.00,0.0314
2958.00,0.0314
2957.00,0.0314
2956.00,0.0315
2955.00,0.0316
2954.00,0.0317
2953.00,0.0318
2952.00,0.0319
2951.00,0.0319
2950.00,0.0319
2949.00,0.0320
2948.00,0.0320
2947.00,0.0320
2946.00,0.0320
2945.00,0.0320
2944.00,0.0321
2943.00,0.0321
2942.00,0.0322
2941.00,0.0322
2940.00,0.0322
2939.00,0.0322
2938.00,0.0322
2937.00,0.0322
2936.00,0.0322
2935.00,0.0321
2934.00,0.0320
2933.00,0.0320
2932.00,0.0319
2931.00,0.0319
2930.00,0.0319
2929.00,0.0319
2928.00,0.0319
2927.00,0.0319
2926.00,0.0319
2925.00,0.0318
2924.00,0.0318
2923.00,0.0318
2922.00,0.0317
2921.00,0.0316
2920.00,0.0315
2919.00,0.0314
2918.00,0.0313
2917.00,0.0312
2916.00,0.0312
2915.00,0.0311
2914.00,0.0311
2913.00,0.0311
2912.00,0.0311
2911.00,0.0311
2910.00,0.0311
2909.00,0.0310
2908.00,0.0309
2907.00,0.0308
2906.00,0.0308
2905.00,0.0307
2904.00,0.0306
2903.00,0.0305
2902.00,0.0305
2901.00,0.0305
2900.00,0.0304
2899.00,0.0303
2898.00,0.0303
2897.00,0.0302
2896.00,0.0301
2895.00,0.0301
2894.00,0.0300
2893.00,0.0300
2892.00,0.0300
2891.00,0.0299
2890.00,0.0299
2889.00,0.0299
2888.00,0.0299
2887.00,0.0299
2886.00,0.0298
2885.00,0.0298
2884.00,0.0297
2883.00,0.0297
2882.00,0.0297
2881.00,0.0297
2880.00,0.0297
2879.00,0.0298
2878.00,0.0299
2877.00,0.0299
2876.00,0.0299
2875.00,0.0299
2874.00,0.0298
2873.00,0.0297
2872.00,0.0296
2871.00,0.0296
2870.00,0.0296
2869.00,0.0296
2868.00,0.0296
2867.00,0.0296
2866.00,0.0297
2865.00,0.0297
2864.00,0.0297
2863.00,0.0296
2862.00,0.0296
2861.00,0.0296
2860.00,0.0296
2859.00,0.0297
2858.00,0.0297
2857.00,0.0297
2856.00,0.0297
2855.00,0.0296
2854.00,0.0295
2853.00,0.0295
2852.00,0.0295
2851.00,0.0295
2850.00,0.0295
2849.00,0.0295
2848.00,0.0295
2847.00,0.0294
2846.00,0.0294
2845.00,0.0294
2844.00,0.0293
2843.00,0.0293
2842.00,0.0292
2841.00,0.0291
2840.00,0.0290
2839.00,0.0289
2838.00,0.0289
2837.00,0.0289
2836.00,0.0289
2835.00,0.0290
2834.00,0.0290
2833.00,0.0290
2832.00,0.0289
2831.00,0.0287
2830.00,0.0287
2829.00,0.0287
2828.00,0.0287
2827.00,0.0287
2826.00,0.0287
2825.00,0.0286
2824.00,0.0286
2823.00,0.0285
2822.00,0.0285
2821.00,0.0284
2820.00,0.0283
2819.00,0.0283
2818.00,0.0282
2817.00,0.0282
2816.00,0.0281
2815.00,0.0281
2814.00,0.0280
2813.00,0.0280
2812.00,0.0280
2811.00,0.0280
2810.00,0.0280
2809.00,0.0279
2808.00,0.0279
2807.00,0.0279
2806.00,0.0279
2805.00,0.0279
2804.00,0.0278
2803.00,0.0278
2802.00,0.0278
2801.00,0.0277
2800.00,0.0277
2799.00,0.0277
2798.00,0.0277
2797.00,0.0276
2796.00,0.0276
2795.00,0.0276
2794.00,0.0275
2793.00,0.0275
2792.00,0.0275
2791.00,0.0274
2790.00,0.0274
2789.00,0.0274
2788.00,0.0274
2787.00,0.0273
2786.00,0.0273
2785.00,0.0272
2784.00,0.0272
2783.00,0.0272
2782.00,0.0271
2781.00,0.0269
2780.00,0.0269
2779.00,0.0268
2778.00,0.0269
2777.00,0.0269
2776.00,0.0270
2775.00,0.0270
2774.00,0.0270
2773.00,0.0269
2772.00,0.0268
2771.00,0.0268
2770.00,0.0266
2769.00,0.0266
2768.00,0.0265
2767.00,0.0265
2766.00,0.0265
2765.00,0.0265
2764.00,0.0265
2763.00,0.0265
2762.00,0.0265
2761.00,0.0265
2760.00,0.0264
2759.00,0.0264
2758.00,0.0264
2757.00,0.0263
2756.00,0.0263
2755.00,0.0262
2754.00,0.0262
2753.00,0.0262
2752.00,0.0262
2751.00,0.0262
2750.00,0.0262
2749.00,0.0262
2748.00,0.0262
2747.00,0.0262
2746.00,0.0261
2745.00,0.0261
2744.00,0.0260
2743.00,0.0260
2742.00,0.0260
2741.00,0.0260
2740.00,0.0260
2739.00,0.0259
2738.00,0.0258
2737.00,0.0258
2736.00,0.0257
2735.00,0.0257
2734.00,0.0258
2733.00,0.0258
2732.00,0.0258
2731.00,0.0257
2730.00,0.0256
2729.00,0.0256
2728.00,0.0256
2727.00,0.0256
2726.00,0.0255
2725.00,0.0255
2724.00,0.0255
2723.00,0.0255
2722.00,0.0255
2721.00,0.0254
2720.00,0.0254
2719.00,0.0254
2718.00,0.0254
2717.00,0.0253
2716.00,0.0253
2715.00,0.0253
2714.00,0.0253
2713.00,0.0253
2712.00,0.0252
2711.00,0.0252
2710.00,0.0252
2709.00,0.0251
2708.00,0.0251
2707.00,0.0250
2706.00,0.0249
2705.00,0.0249
2704.00,0.0249
2703.00,0.0249
2702.00,0.0248
2701.00,0.0248
2700.00,0.0248
2699.00,0.0248
2698.00,0.0248
2697.00,0.0247
2696.00,0.0247
2695.00,0.0247
2694.00,0.0247
2693.00,0.0248
2692.00,0.0248
2691.00,0.0248
2690.00,0.0247
2689.00,0.0247
2688.00,0.0247
2687.00,0.0246
2686.00,0.0246
2685.00,0.0246
2684.00,0.0245
2683.00,0.0245
2682.00,0.0244
2681.00,0.0244
2680.00,0.0243
2679.00,0.0243
2678.00,0.0242
2677.00,0.0242
2676.00,0.0241
2675.00,0.0241
2674.00,0.0241
2673.00,0.0241
2672.00,0.0241
2671.00,0.0241
2670.00,0.0240
2669.00,0.0240
2668.00,0.0240
2667.00,0.0240
2666.00,0.0241
2665.00,0.0241
2664.00,0.0241
2663.00,0.0241
2662.00,0.0242
2661.00,0.0242
2660.00,0.0242
2659.00,0.0242
2658.00,0.0242
2657.00,0.0242
2656.00,0.0242
2655.00,0.0242
2654.00,0.0242
2653.00,0.0242
2652.00,0.0242
2651.00,0.0242
2650.00,0.0242
2649.00,0.0242
2648.00,0.0242
2647.00,0.0241
2646.00,0.0240
2645.00,0.0240
2644.00,0.0240
2643.00,0.0240
2642.00,0.0241
2641.00,0.0241
2640.00,0.0241
2639.00,0.0241
2638.00,0.0241
2637.00,0.0240
2636.00,0.0240
2635.00,0.0239
2634.00,0.0239
2633.00,0.0240
2632.00,0.0240
2631.00,0.0240
2630.00,0.0239
2629.00,0.0238
2628.00,0.0237
2627.00,0.0237
2626.00,0.0237
2625.00,0.0237
2624.00,0.0238
2623.00,0.0238
2622.00,0.0239
2621.00,0.0239
2620.00,0.0239
2619.00,0.0239
2618.00,0.0239
2617.00,0.0238
2616.00,0.0238
2615.00,0.0238
2614.00,0.0237
2613.00,0.0237
2612.00,0.0238
2611.00,0.0238
2610.00,0.0238
2609.00,0.0237
2608.00,0.0236
2607.00,0.0235
2606.00,0.0235
2605.00,0.0236
2604.00,0.0236
2603.00,0.0237
2602.00,0.0236
2601.00,0.0236
2600.00,0.0236
2599.00,0.0236
2598.00,0.0235
2597.00,0.0235
2596.00,0.0234
2595.00,0.0233
2594.00,0.0233
2593.00,0.0233
2592.00,0.0233
2591.00,0.0234
2590.00,0.0234
2589.00,0.0234
2588.00,0.0234
2587.00,0.0234
2586.00,0.0233
2585.00,0.0232
2584.00,0.0231
2583.00,0.0231
2582.00,0.0231
2581.00,0.0232
2580.00,0.0232
2579.00,0.0233
2578.00,0.0233
2577.00,0.0232
2576.00,0.0232
2575.00,0.0231
2574.00,0.0231
2573.00,0.0231
2572.00,0.0231
2571.00,0.0230
2570.00,0.0229
2569.00,0.0229
2568.00,0.0229
2567.00,0.0230
2566.00,0.0231
2565.00,0.0231
2564.00,0.0230
2563.00,0.0230
2562.00,0.0231
2561.00,0.0232
2560.00,0.0232
2559.00,0.0231
2558.00,0.0231
2557.00,0.0231
2556.00,0.0231
2555.00,0.0230
2554.00,0.0230
2553.00,0.0229
2552.00,0.0228
2551.00,0.0227
2550.00,0.0226
2549.00,0.0225
2548.00,0.0224
2547.00,0.0224
2546.00,0.0224
2545.00,0.0225
2544.00,0.0226
2543.00,0.0226
2542.00,0.0225
2541.00,0.0224
2540.00,0.0223
2539.00,0.0222
2538.00,0.0221
2537.00,0.0221
2536.00,0.0221
2535.00,0.0221
2534.00,0.0222
2533.00,0.0223
2532.00,0.0223
2531.00,0.0223
2530.00,0.0222
2529.00,0.0222
2528.00,0.0222
2527.00,0.0221
2526.00,0.0221
2525.00,0.0220
2524.00,0.0220
2523.00,0.0220
2522.00,0.0220
2521.00,0.0220
2520.00,0.0220
2519.00,0.0221
2518.00,0.0222
2517.00,0.0222
2516.00,0.0223
2515.00,0.0222
2514.00,0.0220
2513.00,0.0219
2512.00,0.0219
2511.00,0.0219
2510.00,0.0220
2509.00,0.0220
2508.00,0.0220
2507.00,0.0220
2506.00,0.0220
2505.00,0.0219
2504.00,0.0219
2503.00,0.0219
2502.00,0.0219
2501.00,0.0219
2500.00,0.0220
2499.00,0.0220
2498.00,0.0219
2497.00,0.0219
2496.00,0.0219
2495.00,0.0219
2494.00,0.0219
2493.00,0.0220
2492.00,0.0220
2491.00,0.0220
2490.00,0.0219
2489.00,0.0219
2488.00,0.0219
2487.00,0.0218
2486.00,0.0217
2485.00,0.0217
2484.00,0.0216
2483.00,0.0216
2482.00,0.0217
2481.00,0.0218
2480.00,0.0218
2479.00,0.0218
2478.00,0.0217
2477.00,0.0216
2476.00,0.0216
2475.00,0.0215
2474.00,0.0215
2473.00,0.0215
2472.00,0.0215
2471.00,0.0215
2470.00,0.0215
2469.00,0.0215
2468.00,0.0214
2467.00,0.0214
2466.00,0.0213
2465.00,0.0213
2464.00,0.0213
2463.00,0.0212
2462.00,0.0212
2461.00,0.0213
2460.00,0.0213
2459.00,0.0213
2458.00,0.0214
2457.00,0.0214
2456.00,0.0214
2455.00,0.0215
2454.00,0.0215
2453.00,0.0216
2452.00,0.0216
2451.00,0.0216
2450.00,0.0215
2449.00,0.0214
2448.00,0.0213
2447.00,0.0212
2446.00,0.0212
2445.00,0.0211
2444.00,0.0211
2443.00,0.0210
2442.00,0.0210
2441.00,0.0211
2440.00,0.0211
2439.00,0.0211
2438.00,0.0211
2437.00,0.0210
2436.00,0.0210
2435.00,0.0209
2434.00,0.0208
2433.00,0.0208
2432.00,0.0208
2431.00,0.0208
2430.00,0.0208
2429.00,0.0209
2428.00,0.0209
2427.00,0.0208
2426.00,0.0208
2425.00,0.0207
2424.00,0.0207
2423.00,0.0207
2422.00,0.0207
2421.00,0.0207
2420.00,0.0206
2419.00,0.0206
2418.00,0.0206
2417.00,0.0205
2416.00,0.0205
2415.00,0.0204
2414.00,0.0204
2413.00,0.0205
2412.00,0.0205
2411.00,0.0205
2410.00,0.0206
2409.00,0.0206
2408.00,0.0205
2407.00,0.0205
2406.00,0.0204
2405.00,0.0204
2404.00,0.0203
2403.00,0.0203
2402.00,0.0202
2401.00,0.0201
2400.00,0.0201
2399.00,0.0201
2398.00,0.0201
2397.00,0.0200
2396.00,0.0200
2395.00,0.0200
2394.00,0.0199
2393.00,0.0199
2392.00,0.0199
2391.00,0.0199
2390.00,0.0198
2389.00,0.0198
2388.00,0.0197
2387.00,0.0197
2386.00,0.0196
2385.00,0.0195
2384.00,0.0194
2383.00,0.0193
2382.00,0.0193
2381.00,0.0193
2380.00,0.0193
2379.00,0.0194
2378.00,0.0193
2377.00,0.0192
2376.00,0.0192
2375.00,0.0192
2374.00,0.0192
2373.00,0.0192
2372.00,0.0192
2371.00,0.0191
2370.00,0.0189
2369.00,0.0187
2368.00,0.0185
2367.00,0.0185
2366.00,0.0188
2365.00,0.0190
2364.00,0.0191
2363.00,0.0190
2362.00,0.0189
2361.00,0.0190
2360.00,0.0192
2359.00,0.0191
2358.00,0.0190
2357.00,0.0189
2356.00,0.0188
2355.00,0.0187
2354.00,0.0187
2353.00,0.0187
2352.00,0.0187
2351.00,0.0188
2350.00,0.0188
2349.00,0.0189
2348.00,0.0188
2347.00,0.0187
2346.00,0.0186
2345.00,0.0186
2344.00,0.0188
2343.00,0.0190
2342.00,0.0193
2341.00,0.0195
2340.00,0.0195
2339.00,0.0193
2338.00,0.0190
2337.00,0.0188
2336.00,0.0188
2335.00,0.0188
2334.00,0.0189
2333.00,0.0189
2332.00,0.0188
2331.00,0.0187
2330.00,0.0186
2329.00,0.0187
2328.00,0.0188
2327.00,0.0190
2326.00,0.0192
2325.00,0.0192
2324.00,0.0191
2323.00,0.0189
2322.00,0.0189
2321.00,0.0189
2320.00,0.0190
2319.00,0.0189
2318.00,0.0189
2317.00,0.0188
2316.00,0.0188
2315.00,0.0189
2314.00,0.0189
2313.00,0.0189
2312.00,0.0189
2311.00,0.0189
2310.00,0.0190
2309.00,0.0190
2308.00,0.0190
2307.00,0.0190
2306.00,0.0189
2305.00,0.0189
2304.00,0.0188
2303.00,0.0188
2302.00,0.0188
2301.00,0.0188
2300.00,0.0189
2299.00,0.0190
2298.00,0.0190
2297.00,0.0190
2296.00,0.0190
2295.00,0.0190
2294.00,0.0191
2293.00,0.0193
2292.00,0.0195
2291.00,0.0196
2290.00,0.0196
2289.00,0.0196
2288.00,0.0196
2287.00,0.0197
2286.00,0.0198
2285.00,0.0199
2284.00,0.0200
2283.00,0.0200
2282.00,0.0200
2281.00,0.0199
2280.00,0.0198
2279.00,0.0198
2278.00,0.0198
2277.00,0.0197
2276.00,0.0196
2275.00,0.0194
2274.00,0.0192
2273.00,0.0191
2272.00,0.0190
2271.00,0.0191
2270.00,0.0192
2269.00,0.0192
2268.00,0.0193
2267.00,0.0193
2266.00,0.0192
2265.00,0.0193
2264.00,0.0193
2263.00,0.0193
2262.00,0.0193
2261.00,0.0194
2260.00,0.0194
2259.00,0.0193
2258.00,0.0191
2257.00,0.0189
2256.00,0.0188
2255.00,0.0189
2254.00,0.0189
2253.00,0.0190
2252.00,0.0191
2251.00,0.0191
2250.00,0.0191
2249.00,0.0190
2248.00,0.0189
2247.00,0.0189
2246.00,0.0190
2245.00,0.0191
2244.00,0.0192
2243.00,0.0192
2242.00,0.0192
2241.00,0.0192
2240.00,0.0190
2239.00,0.0189
2238.00,0.0188
2237.00,0.0188
2236.00,0.0187
2235.00,0.0188
2234.00,0.0188
2233.00,0.0189
2232.00,0.0189
2231.00,0.0188
2230.00,0.0186
2229.00,0.0186
2228.00,0.0187
2227.00,0.0188
2226.00,0.0188
2225.00,0.0187
2224.00,0.0185
2223.00,0.0183
2222.00,0.0181
2221.00,0.0181
2220.00,0.0182
2219.00,0.0184
2218.00,0.0185
2217.00,0.0186
2216.00,0.0186
2215.00,0.0186
2214.00,0.0187
2213.00,0.0186
2212.00,0.0186
2211.00,0.0185
2210.00,0.0186
2209.00,0.0187
2208.00,0.0188
2207.00,0.0188
2206.00,0.0187
2205.00,0.0186
2204.00,0.0186
2203.00,0.0185
2202.00,0.0184
2201.00,0.0183
2200.00,0.0182
2199.00,0.0183
2198.00,0.0184
2197.00,0.0186
2196.00,0.0186
2195.00,0.0185
2194.00,0.0183
2193.00,0.0182
2192.00,0.0181
2191.00,0.0179
2190.00,0.0177
2189.00,0.0175
2188.00,0.0177
2187.00,0.0182
2186.00,0.0187
2185.00,0.0190
2184.00,0.0187
2183.00,0.0181
2182.00,0.0177
2181.00,0.0175
2180.00,0.0176
2179.00,0.0178
2178.00,0.0180
2177.00,0.0181
2176.00,0.0182
2175.00,0.0181
2174.00,0.0181
2173.00,0.0181
2172.00,0.0182
2171.00,0.0184
2170.00,0.0186
2169.00,0.0188
2168.00,0.0189
2167.00,0.0190
2166.00,0.0191
2165.00,0.0194
2164.00,0.0197
2163.00,0.0199
2162.00,0.0198
2161.00,0.0193
2160.00,0.0183
2159.00,0.0171
2158.00,0.0163
2157.00,0.0160
2156.00,0.0161
2155.00,0.0163
2154.00,0.0167
2153.00,0.0169
2152.00,0.0169
2151.00,0.0167
2150.00,0.0164
2149.00,0.0163
2148.00,0.0163
2147.00,0.0165
2146.00,0.0168
2145.00,0.0170
2144.00,0.0172
2143.00,0.0172
2142.00,0.0172
2141.00,0.0172
2140.00,0.0171
2139.00,0.0170
2138.00,0.0169
2137.00,0.0167
2136.00,0.0165
2135.00,0.0163
2134.00,0.0161
2133.00,0.0161
2132.00,0.0162
2131.00,0.0163
2130.00,0.0164
2129.00,0.0166
2128.00,0.0168
2127.00,0.0169
2126.00,0.0168
2125.00,0.0168
2124.00,0.0167
2123.00,0.0166
2122.00,0.0166
2121.00,0.0166
2120.00,0.0166
2119.00,0.0166
2118.00,0.0166
2117.00,0.0167
2116.00,0.0167
2115.00,0.0165
2114.00,0.0163
2113.00,0.0160
2112.00,0.0160
2111.00,0.0161
2110.00,0.0164
2109.00,0.0167
2108.00,0.0169
2107.00,0.0170
2106.00,0.0170
2105.00,0.0169
2104.00,0.0168
2103.00,0.0167
2102.00,0.0167
2101.00,0.0167
2100.00,0.0166
2099.00,0.0163
2098.00,0.0161
2097.00,0.0159
2096.00,0.0159
2095.00,0.0159
2094.00,0.0160
2093.00,0.0161
2092.00,0.0161
2091.00,0.0161
2090.00,0.0160
2089.00,0.0160
2088.00,0.0160
2087.00,0.0161
2086.00,0.0163
2085.00,0.0165
2084.00,0.0166
2083.00,0.0167
2082.00,0.0166
2081.00,0.0166
2080.00,0.0166
2079.00,0.0165
2078.00,0.0164
2077.00,0.0163
2076.00,0.0163
2075.00,0.0163
2074.00,0.0164
2073.00,0.0164
2072.00,0.0164
2071.00,0.0165
2070.00,0.0165
2069.00,0.0163
2068.00,0.0161
2067.00,0.0159
2066.00,0.0158
2065.00,0.0158
2064.00,0.0159
2063.00,0.0160
2062.00,0.0161
2061.00,0.0161
2060.00,0.0159
2059.00,0.0157
2058.00,0.0157
2057.00,0.0158
2056.00,0.0159
2055.00,0.0160
2054.00,0.0161
2053.00,0.0164
2052.00,0.0166
2051.00,0.0166
2050.00,0.0164
2049.00,0.0161
2048.00,0.0159
2047.00,0.0159
2046.00,0.0160
2045.00,0.0162
2044.00,0.0164
2043.00,0.0164
2042.00,0.0163
2041.00,0.0161
2040.00,0.0158
2039.00,0.0157
2038.00,0.0158
2037.00,0.0161
2036.00,0.0163
2035.00,0.0163
2034.00,0.0161
2033.00,0.0161
2032.00,0.0163
2031.00,0.0166
2030.00,0.0166
2029.00,0.0164
2028.00,0.0159
2027.00,0.0155
2026.00,0.0152
2025.00,0.0150
2024.00,0.0148
2023.00,0.0146
2022.00,0.0145
2021.00,0.0144
2020.00,0.0143
2019.00,0.0141
2018.00,0.0140
2017.00,0.0139
2016.00,0.0140
2015.00,0.0143
2014.00,0.0145
2013.00,0.0147
2012.00,0.0147
2011.00,0.0146
2010.00,0.0145
2009.00,0.0146
2008.00,0.0146
2007.00,0.0145
2006.00,0.0143
2005.00,0.0141
2004.00,0.0141
2003.00,0.0144
2002.00,0.0149
2001.00,0.0153
2000.00,0.0154
1999.00,0.0151
1998.00,0.0149
1997.00,0.0148
1996.00,0.0149
1995.00,0.0151
1994.00,0.0154
1993.00,0.0154
1992.00,0.0153
1991.00,0.0150
1990.00,0.0147
1989.00,0.0145
1988.00,0.0144
1987.00,0.0145
1986.00,0.0147
1985.00,0.0149
1984.00,0.0151
1983.00,0.0152
1982.00,0.0152
1981.00,0.0151
1980.00,0.0147
1979.00,0.0142
1978.00,0.0135
1977.00,0.0130
1976.00,0.0130
1975.00,0.0133
1974.00,0.0137
1973.00,0.0139
1972.00,0.0137
1971.00,0.0134
1970.00,0.0133
1969.00,0.0134
1968.00,0.0136
1967.00,0.0136
1966.00,0.0134
1965.00,0.0132
1964.00,0.0132
1963.00,0.0131
1962.00,0.0130
1961.00,0.0130
1960.00,0.0132
1959.00,0.0134
1958.00,0.0136
1957.00,0.0136
1956.00,0.0135
1955.00,0.0133
1954.00,0.0132
1953.00,0.0131
1952.00,0.0131
1951.00,0.0130
1950.00,0.0128
1949.00,0.0127
1948.00,0.0127
1947.00,0.0128
1946.00,0.0128
1945.00,0.0128
1944.00,0.0125
1943.00,0.0123
1942.00,0.0120
1941.00,0.0120
1940.00,0.0119
1939.00,0.0119
1938.00,0.0119
1937.00,0.0120
1936.00,0.0120
1935.00,0.0120
1934.00,0.0119
1933.00,0.0118
1932.00,0.0118
1931.00,0.0119
1930.00,0.0121
1929.00,0.0123
1928.00,0.0124
1927.00,0.0124
1926.00,0.0123
1925.00,0.0122
1924.00,0.0121
1923.00,0.0120
1922.00,0.0120
1921.00,0.0120
1920.00,0.0121
1919.00,0.0119
1918.00,0.0116
1917.00,0.0114
1916.00,0.0114
1915.00,0.0115
1914.00,0.0117
1913.00,0.0118
1912.00,0.0118
1911.00,0.0117
1910.00,0.0116
1909.00,0.0114
1908.00,0.0113
1907.00,0.0113
1906.00,0.0113
1905.00,0.0114
1904.00,0.0114
1903.00,0.0114
1902.00,0.0113
1901.00,0.0111
1900.00,0.0111
1899.00,0.0112
1898.00,0.0112
1897.00,0.0112
1896.00,0.0111
1895.00,0.0109
1894.00,0.0107
1893.00,0.0107
1892.00,0.0108
1891.00,0.0108
1890.00,0.0108
1889.00,0.0107
1888.00,0.0106
1887.00,0.0106
1886.00,0.0107
1885.00,0.0107
1884.00,0.0107
1883.00,0.0107
1882.00,0.0106
1881.00,0.0106
1880.00,0.0106
1879.00,0.0105
1878.00,0.0104
1877.00,0.0103
1876.00,0.0103
1875.00,0.0104
1874.00,0.0105
1873.00,0.0106
1872.00,0.0107
1871.00,0.0106
1870.00,0.0105
1869.00,0.0101
1868.00,0.0098
1867.00,0.0097
1866.00,0.0098
1865.00,0.0100
1864.00,0.0100
1863.00,0.0099
1862.00,0.0098
1861.00,0.0097
1860.00,0.0097
1859.00,0.0096
1858.00,0.0096
1857.00,0.0097
1856.00,0.0097
1855.00,0.0097
1854.00,0.0096
1853.00,0.0096
1852.00,0.0096
1851.00,0.0096
1850.00,0.0096
1849.00,0.0095
1848.00,0.0095
1847.00,0.0095
1846.00,0.0096
1845.00,0.0095
1844.00,0.0092
1843.00,0.0090
1842.00,0.0090
1841.00,0.0092
1840.00,0.0093
1839.00,0.0092
1838.00,0.0091
1837.00,0.0091
1836.00,0.0090
1835.00,0.0090
1834.00,0.0090
1833.00,0.0090
1832.00,0.0091
1831.00,0.0090
1830.00,0.0088
1829.00,0.0085
1828.00,0.0085
1827.00,0.0087
1826.00,0.0088
1825.00,0.0087
1824.00,0.0086
1823.00,0.0086
1822.00,0.0086
1821.00,0.0087
1820.00,0.0086
1819.00,0.0085
1818.00,0.0084
1817.00,0.0083
1816.00,0.0082
1815.00,0.0082
1814.00,0.0082
1813.00,0.0083
1812.00,0.0082
1811.00,0.0082
1810.00,0.0081
1809.00,0.0082
1808.00,0.0083
1807.00,0.0084
1806.00,0.0085
1805.00,0.0086
1804.00,0.0087
1803.00,0.0087
1802.00,0.0087
1801.00,0.0086
1800.00,0.0085
1799.00,0.0085
1798.00,0.0086
1797.00,0.0088
1796.00,0.0089
1795.00,0.0090
1794.00,0.0090
1793.00,0.0091
1792.00,0.0091
1791.00,0.0091
1790.00,0.0093
1789.00,0.0095
1788.00,0.0098
1787.00,0.0100
1786.00,0.0102
1785.00,0.0103
1784.00,0.0104
1783.00,0.0105
1782.00,0.0107
1781.00,0.0107
1780.00,0.0108
1779.00,0.0109
1778.00,0.0111
1777.00,0.0114
1776.00,0.0116
1775.00,0.0119
1774.00,0.0120
1773.00,0.0120
1772.00,0.0119
1771.00,0.0120
1770.00,0.0123
1769.00,0.0128
1768.00,0.0131
1767.00,0.0133
1766.00,0.0135
1765.00,0.0137
1764.00,0.0140
1763.00,0.0141
1762.00,0.0142
1761.00,0.0142
1760.00,0.0144
1759.00,0.0147
1758.00,0.0149
1757.00,0.0151
1756.00,0.0152
1755.00,0.0155
1754.00,0.0158
1753.00,0.0160
1752.00,0.0161
1751.00,0.0160
1750.00,0.0160
1749.00,0.0161
1748.00,0.0163
1747.00,0.0165
1746.00,0.0168
1745.00,0.0172
1744.00,0.0175
1743.00,0.0177
1742.00,0.0179
1741.00,0.0182
1740.00,0.0184
1739.00,0.0185
1738.00,0.0187
1737.00,0.0192
1736.00,0.0196
1735.00,0.0200
1734.00,0.0201
1733.00,0.0201
1732.00,0.0204
1731.00,0.0208
1730.00,0.0211
1729.00,0.0215
1728.00,0.0218
1727.00,0.0221
1726.00,0.0225
1725.00,0.0228
1724.00,0.0231
1723.00,0.0234
1722.00,0.0236
1721.00,0.0238
1720.00,0.0240
1719.00,0.0242
1718.00,0.0244
1717.00,0.0247
1716.00,0.0250
1715.00,0.0254
1714.00,0.0258
1713.00,0.0262
1712.00,0.0265
1711.00,0.0267
1710.00,0.0269
1709.00,0.0270
1708.00,0.0271
1707.00,0.0272
1706.00,0.0273
1705.00,0.0274
1704.00,0.0276
1703.00,0.0279
1702.00,0.0283
1701.00,0.0285
1700.00,0.0285
1699.00,0.0283
1698.00,0.0285
1697.00,0.0289
1696.00,0.0291
1695.00,0.0291
1694.00,0.0292
1693.00,0.0294
1692.00,0.0295
1691.00,0.0296
1690.00,0.0297
1689.00,0.0299
1688.00,0.0300
1687.00,0.0300
1686.00,0.0300
1685.00,0.0302
1684.00,0.0304
1683.00,0.0305
1682.00,0.0308
1681.00,0.0312
1680.00,0.0313
1679.00,0.0315
1678.00,0.0318
1677.00,0.0322
1676.00,0.0326
1675.00,0.0330
1674.00,0.0331
1673.00,0.0331
1672.00,0.0332
1671.00,0.0333
1670.00,0.0336
1669.00,0.0339
1668.00,0.0342
1667.00,0.0344
1666.00,0.0346
1665.00,0.0348
1664.00,0.0350
1663.00,0.0352
1662.00,0.0355
1661.00,0.0358
1660.00,0.0362
1659.00,0.0366
1658.00,0.0368
1657.00,0.0368
1656.00,0.0367
1655.00,0.0366
1654.00,0.0370
1653.00,0.0378
1652.00,0.0378
1651.00,0.0380
1650.00,0.0382
1649.00,0.0382
1648.00,0.0385
1647.00,0.0392
1646.00,0.0397
1645.00,0.0402
1644.00,0.0406
1643.00,0.0408
1642.00,0.0410
1641.00,0.0410
1640.00,0.0411
1639.00,0.0411
1638.00,0.0412
1637.00,0.0417
1636.00,0.0425
1635.00,0.0431
1634.00,0.0434
1633.00,0.0435
1632.00,0.0436
1631.00,0.0437
1630.00,0.0439
1629.00,0.0441
1628.00,0.0444
1627.00,0.0447
1626.00,0.0449
1625.00,0.0452
1624.00,0.0456
1623.00,0.0460
1622.00,0.0463
1621.00,0.0465
1620.00,0.0467
1619.00,0.0468
1618.00,0.0471
1617.00,0.0476
1616.00,0.0480
1615.00,0.0484
1614.00,0.0486
1613.00,0.0488
1612.00,0.0490
1611.00,0.0493
1610.00,0.0496
1609.00,0.0499
1608.00,0.0502
1607.00,0.0505
1606.00,0.0508
1605.00,0.0512
1604.00,0.0515
1603.00,0.0518
1602.00,0.0520
1601.00,0.0522
1600.00,0.0524
1599.00,0.0527
1598.00,0.0530
1597.00,0.0532
1596.00,0.0536
1595.00,0.0539
1594.00,0.0542
1593.00,0.0545
1592.00,0.0548
1591.00,0.0550
1590.00,0.0553
1589.00,0.0556
1588.00,0.0559
1587.00,0.0562
1586.00,0.0564
1585.00,0.0566
1584.00,0.0568
1583.00,0.0570
1582.00,0.0572
1581.00,0.0573
1580.00,0.0573
1579.00,0.0574
1578.00,0.0577
1577.00,0.0583
1576.00,0.0587
1575.00,0.0588
1574.00,0.0586
1573.00,0.0584
1572.00,0.0583
1571.00,0.0584
1570.00,0.0588
1569.00,0.0591
1568.00,0.0592
1567.00,0.0593
1566.00,0.0592
1565.00,0.0590
1564.00,0.0587
1563.00,0.0585
1562.00,0.0581
1561.00,0.0576
1560.00,0.0581
1559.00,0.0594
1558.00,0.0596
1557.00,0.0592
1556.00,0.0589
1555.00,0.0588
1554.00,0.0588
1553.00,0.0586
1552.00,0.0584
1551.00,0.0582
1550.00,0.0578
1549.00,0.0574
1548.00,0.0570
1547.00,0.0566
1546.00,0.0562
1545.00,0.0558
1544.00,0.0554
1543.00,0.0550
1542.00,0.0546
1541.00,0.0545
1540.00,0.0545
1539.00,0.0542
1538.00,0.0537
1537.00,0.0533
1536.00,0.0528
1535.00,0.0524
1534.00,0.0520
1533.00,0.0517
1532.00,0.0513
1531.00,0.0509
1530.00,0.0504
1529.00,0.0500
1528.00,0.0496
1527.00,0.0491
1526.00,0.0487
1525.00,0.0482
1524.00,0.0477
1523.00,0.0473
1522.00,0.0471
1521.00,0.0470
1520.00,0.0469
1519.00,0.0466
1518.00,0.0462
1517.00,0.0458
1516.00,0.0454
1515.00,0.0451
1514.00,0.0449
1513.00,0.0445
1512.00,0.0441
1511.00,0.0437
1510.00,0.0432
1509.00,0.0428
1508.00,0.0427
1507.00,0.0428
1506.00,0.0426
1505.00,0.0423
1504.00,0.0422
1503.00,0.0419
1502.00,0.0416
1501.00,0.0413
1500.00,0.0411
1499.00,0.0410
1498.00,0.0409
1497.00,0.0409
1496.00,0.0409
1495.00,0.0407
1494.00,0.0405
1493.00,0.0402
1492.00,0.0399
1491.00,0.0397
1490.00,0.0397
1489.00,0.0398
1488.00,0.0398
1487.00,0.0397
1486.00,0.0396
1485.00,0.0395
1484.00,0.0394
1483.00,0.0394
1482.00,0.0393
1481.00,0.0393
1480.00,0.0393
1479.00,0.0393
1478.00,0.0392
1477.00,0.0392
1476.00,0.0392
1475.00,0.0392
1474.00,0.0394
1473.00,0.0396
1472.00,0.0400
1471.00,0.0402
1470.00,0.0404
1469.00,0.0405
1468.00,0.0405
1467.00,0.0405
1466.00,0.0406
1465.00,0.0408
1464.00,0.0409
1463.00,0.0409
1462.00,0.0408
1461.00,0.0406
1460.00,0.0405
1459.00,0.0406
1458.00,0.0411
1457.00,0.0418
1456.00,0.0422
1455.00,0.0423
1454.00,0.0424
1453.00,0.0425
1452.00,0.0426
1451.00,0.0428
1450.00,0.0430
1449.00,0.0433
1448.00,0.0437
1447.00,0.0440
1446.00,0.0442
1445.00,0.0443
1444.00,0.0444
1443.00,0.0445
1442.00,0.0446
1441.00,0.0446
1440.00,0.0447
1439.00,0.0449
1438.00,0.0453
1437.00,0.0458
1436.00,0.0462
1435.00,0.0462
1434.00,0.0461
1433.00,0.0461
1432.00,0.0461
1431.00,0.0462
1430.00,0.0463
1429.00,0.0465
1428.00,0.0466
1427.00,0.0468
1426.00,0.0469
1425.00,0.0471
1424.00,0.0473
1423.00,0.0475
1422.00,0.0476
1421.00,0.0478
1420.00,0.0482
1419.00,0.0487
1418.00,0.0490
1417.00,0.0492
1416.00,0.0493
1415.00,0.0494
1414.00,0.0494
1413.00,0.0494
1412.00,0.0495
1411.00,0.0497
1410.00,0.0498
1409.00,0.0499
1408.00,0.0500
1407.00,0.0501
1406.00,0.0502
1405.00,0.0504
1404.00,0.0506
1403.00,0.0507
1402.00,0.0507
1401.00,0.0507
1400.00,0.0508
1399.00,0.0510
1398.00,0.0512
1397.00,0.0514
1396.00,0.0516
1395.00,0.0519
1394.00,0.0521
1393.00,0.0521
1392.00,0.0521
1391.00,0.0521
1390.00,0.0522
1389.00,0.0523
1388.00,0.0525
1387.00,0.0528
1386.00,0.0529
1385.00,0.0529
1384.00,0.0529
1383.00,0.0529
1382.00,0.0530
1381.00,0.0532
1380.00,0.0533
1379.00,0.0535
1378.00,0.0536
1377.00,0.0536
1376.00,0.0537
1375.00,0.0538
1374.00,0.0539
1373.00,0.0540
1372.00,0.0540
1371.00,0.0540
1370.00,0.0539
1369.00,0.0539
1368.00,0.0539
1367.00,0.0538
1366.00,0.0537
1365.00,0.0536
1364.00,0.0535
1363.00,0.0536
1362.00,0.0538
1361.00,0.0538
1360.00,0.0538
1359.00,0.0537
1358.00,0.0535
1357.00,0.0535
1356.00,0.0534
1355.00,0.0534
1354.00,0.0533
1353.00,0.0531
1352.00,0.0529
1351.00,0.0527
1350.00,0.0524
1349.00,0.0522
1348.00,0.0521
1347.00,0.0520
1346.00,0.0519
1345.00,0.0517
1344.00,0.0515
1343.00,0.0513
1342.00,0.0511
1341.00,0.0511
1340.00,0.0511
1339.00,0.0512
1338.00,0.0511
1337.00,0.0510
1336.00,0.0508
1335.00,0.0507
1334.00,0.0505
1333.00,0.0504
1332.00,0.0503
1331.00,0.0502
1330.00,0.0501
1329.00,0.0500
1328.00,0.0499
1327.00,0.0498
1326.00,0.0497
1325.00,0.0496
1324.00,0.0496
1323.00,0.0496
1322.00,0.0496
1321.00,0.0496
1320.00,0.0496
1319.00,0.0495
1318.00,0.0494
1317.00,0.0492
1316.00,0.0491
1315.00,0.0489
1314.00,0.0489
1313.00,0.0490
1312.00,0.0491
1311.00,0.0492
1310.00,0.0492
1309.00,0.0492
1308.00,0.0491
1307.00,0.0490
1306.00,0.0489
1305.00,0.0489
1304.00,0.0489
1303.00,0.0490
1302.00,0.0491
1301.00,0.0490
1300.00,0.0490
1299.00,0.0489
1298.00,0.0488
1297.00,0.0487
1296.00,0.0487
1295.00,0.0488
1294.00,0.0489
1293.00,0.0489
1292.00,0.0490
1291.00,0.0490
1290.00,0.0491
1289.00,0.0491
1288.00,0.0491
1287.00,0.0490
1286.00,0.0490
1285.00,0.0490
1284.00,0.0491
1283.00,0.0492
1282.00,0.0492
1281.00,0.0492
1280.00,0.0491
1279.00,0.0490
1278.00,0.0490
1277.00,0.0490
1276.00,0.0490
1275.00,0.0490
1274.00,0.0489
1273.00,0.0489
1272.00,0.0489
1271.00,0.0489
1270.00,0.0489
1269.00,0.0490
1268.00,0.0490
1267.00,0.0490
1266.00,0.0490
1265.00,0.0491
1264.00,0.0491
1263.00,0.0490
1262.00,0.0489
1261.00,0.0489
1260.00,0.0489
1259.00,0.0489
1258.00,0.0490
1257.00,0.0489
1256.00,0.0488
1255.00,0.0487
1254.00,0.0487
1253.00,0.0488
1252.00,0.0488
1251.00,0.0487
1250.00,0.0486
1249.00,0.0486
1248.00,0.0486
1247.00,0.0487
1246.00,0.0487
1245.00,0.0488
1244.00,0.0488
1243.00,0.0488
1242.00,0.0487
1241.00,0.0486
1240.00,0.0485
1239.00,0.0485
1238.00,0.0485
1237.00,0.0485
1236.00,0.0486
1235.00,0.0485
1234.00,0.0485
1233.00,0.0484
1232.00,0.0484
1231.00,0.0483
1230.00,0.0482
1229.00,0.0481
1228.00,0.0481
1227.00,0.0481
1226.00,0.0480
1225.00,0.0478
1224.00,0.0477
1223.00,0.0476
1222.00,0.0476
1221.00,0.0476
1220.00,0.0477
1219.00,0.0477
1218.00,0.0476
1217.00,0.0475
1216.00,0.0474
1215.00,0.0472
1214.00,0.0470
1213.00,0.0469
1212.00,0.0469
1211.00,0.0470
1210.00,0.0470
1209.00,0.0470
1208.00,0.0469
1207.00,0.0468
1206.00,0.0466
1205.00,0.0464
1204.00,0.0463
1203.00,0.0463
1202.00,0.0462
1201.00,0.0462
1200.00,0.0461
1199.00,0.0460
1198.00,0.0459
1197.00,0.0458
1196.00,0.0458
1195.00,0.0458
1194.00,0.0457
1193.00,0.0456
1192.00,0.0455
1191.00,0.0453
1190.00,0.0452
1189.00,0.0450
1188.00,0.0449
1187.00,0.0448
1186.00,0.0448
1185.00,0.0447
1184.00,0.0446
1183.00,0.0445
1182.00,0.0442
1181.00,0.0440
1180.00,0.0438
1179.00,0.0436
1178.00,0.0436
1177.00,0.0436
1176.00,0.0436
1175.00,0.0436
1174.00,0.0436
1173.00,0.0435
1172.00,0.0434
1171.00,0.0432
1170.00,0.0430
1169.00,0.0429
1168.00,0.0428
1167.00,0.0428
1166.00,0.0428
1165.00,0.0427
1164.00,0.0426
1163.00,0.0425
1162.00,0.0424
1161.00,0.0423
1160.00,0.0423
1159.00,0.0422
1158.00,0.0421
1157.00,0.0420
1156.00,0.0419
1155.00,0.0420
1154.00,0.0420
1153.00,0.0419
1152.00,0.0418
1151.00,0.0417
1150.00,0.0415
1149.00,0.0413
1148.00,0.0412
1147.00,0.0412
1146.00,0.0411
1145.00,0.0411
1144.00,0.0412
1143.00,0.0413
1142.00,0.0414
1141.00,0.0414
1140.00,0.0413
1139.00,0.0413
1138.00,0.0412
1137.00,0.0412
1136.00,0.0412
1135.00,0.0412
1134.00,0.0414
1133.00,0.0414
1132.00,0.0414
1131.00,0.0414
1130.00,0.0414
1129.00,0.0415
1128.00,0.0416
1127.00,0.0416
1126.00,0.0415
1125.00,0.0413
1124.00,0.0413
1123.00,0.0415
1122.00,0.0418
1121.00,0.0421
1120.00,0.0423
1119.00,0.0424
1118.00,0.0424
1117.00,0.0424
1116.00,0.0425
1115.00,0.0427
1114.00,0.0427
1113.00,0.0426
1112.00,0.0424
1111.00,0.0423
1110.00,0.0422
1109.00,0.0423
1108.00,0.0423
1107.00,0.0423
1106.00,0.0422
1105.00,0.0420
1104.00,0.0420
1103.00,0.0422
1102.00,0.0424
1101.00,0.0425
1100.00,0.0426
1099.00,0.0427
1098.00,0.0428
1097.00,0.0427
1096.00,0.0426
1095.00,0.0426
1094.00,0.0426
1093.00,0.0427
1092.00,0.0428
1091.00,0.0429
1090.00,0.0428
1089.00,0.0426
1088.00,0.0423
1087.00,0.0423
1086.00,0.0424
1085.00,0.0426
1084.00,0.0427
1083.00,0.0429
1082.00,0.0430
1081.00,0.0432
1080.00,0.0433
1079.00,0.0434
1078.00,0.0435
1077.00,0.0436
1076.00,0.0436
1075.00,0.0434
1074.00,0.0432
1073.00,0.0431
1072.00,0.0431
1071.00,0.0430
1070.00,0.0429
1069.00,0.0428
1068.00,0.0428
1067.00,0.0429
1066.00,0.0431
1065.00,0.0432
1064.00,0.0434
1063.00,0.0434
1062.00,0.0433
1061.00,0.0431
1060.00,0.0429
1059.00,0.0428
1058.00,0.0430
1057.00,0.0432
1056.00,0.0434
1055.00,0.0436
1054.00,0.0438
1053.00,0.0440
1052.00,0.0443
1051.00,0.0444
1050.00,0.0445
1049.00,0.0447
1048.00,0.0448
1047.00,0.0448
1046.00,0.0447
1045.00,0.0447
1044.00,0.0449
1043.00,0.0449
1042.00,0.0449
1041.00,0.0447
1040.00,0.0446
1039.00,0.0446
1038.00,0.0447
1037.00,0.0448
1036.00,0.0449
1035.00,0.0449
1034.00,0.0450
1033.00,0.0450
1032.00,0.0449
1031.00,0.0447
1030.00,0.0445
1029.00,0.0442
1028.00,0.0440
1027.00,0.0439
1026.00,0.0439
1025.00,0.0439
1024.00,0.0440
1023.00,0.0439
1022.00,0.0436
1021.00,0.0433
1020.00,0.0431
1019.00,0.0429
1018.00,0.0427
1017.00,0.0427
1016.00,0.0428
1015.00,0.0429
1014.00,0.0429
1013.00,0.0429
1012.00,0.0427
1011.00,0.0427
1010.00,0.0427
1009.00,0.0427
1008.00,0.0426
1007.00,0.0425
1006.00,0.0423
1005.00,0.0422
1004.00,0.0421
1003.00,0.0421
1002.00,0.0421
1001.00,0.0420
1000.00,0.0418
999.00,0.0414
998.00,0.0411
997.00,0.0409
996.00,0.0409
995.00,0.0408
994.00,0.0407
993.00,0.0404
992.00,0.0402
991.00,0.0400
990.00,0.0398
989.00,0.0397
988.00,0.0396
987.00,0.0396
986.00,0.0396
985.00,0.0396
984.00,0.0395
983.00,0.0394
982.00,0.0392
981.00,0.0391
980.00,0.0389
979.00,0.0388
978.00,0.0386
977.00,0.0383
976.00,0.0381
975.00,0.0379
974.00,0.0378
973.00,0.0378
972.00,0.0376
971.00,0.0374
970.00,0.0370
969.00,0.0366
968.00,0.0364
967.00,0.0363
966.00,0.0362
965.00,0.0362
964.00,0.0361
963.00,0.0361
962.00,0.0361
961.00,0.0361
960.00,0.0360
959.00,0.0359
958.00,0.0358
957.00,0.0358
956.00,0.0358
955.00,0.0357
954.00,0.0356
953.00,0.0355
952.00,0.0355
951.00,0.0356
950.00,0.0358
949.00,0.0359
948.00,0.0359
947.00,0.0357
946.00,0.0355
945.00,0.0353
944.00,0.0352
943.00,0.0351
942.00,0.0351
941.00,0.0353
940.00,0.0356
939.00,0.0359
938.00,0.0361
937.00,0.0361
936.00,0.0359
935.00,0.0358
934.00,0.0358
933.00,0.0361
932.00,0.0366
931.00,0.0370
930.00,0.0372
929.00,0.0373
928.00,0.0373
927.00,0.0374
926.00,0.0375
925.00,0.0375
924.00,0.0376
923.00,0.0376
922.00,0.0376
921.00,0.0376
920.00,0.0376
919.00,0.0378
918.00,0.0380
917.00,0.0383
916.00,0.0385
915.00,0.0387
914.00,0.0387
913.00,0.0386
912.00,0.0385
911.00,0.0384
910.00,0.0382
909.00,0.0380
908.00,0.0378
907.00,0.0378
906.00,0.0380
905.00,0.0384
904.00,0.0387
903.00,0.0390
902.00,0.0391
901.00,0.0390
900.00,0.0388
899.00,0.0388
898.00,0.0389
897.00,0.0391
896.00,0.0391
895.00,0.0389
894.00,0.0387
893.00,0.0384
892.00,0.0383
891.00,0.0384
890.00,0.0386
889.00,0.0388
888.00,0.0389
887.00,0.0386
886.00,0.0381
885.00,0.0378
884.00,0.0379
883.00,0.0383
882.00,0.0387
881.00,0.0388
880.00,0.0387
879.00,0.0383
878.00,0.0380
877.00,0.0377
876.00,0.0376
875.00,0.0377
874.00,0.0378
873.00,0.0380
872.00,0.0381
871.00,0.0382
870.00,0.0382
869.00,0.0381
868.00,0.0380
867.00,0.0380
866.00,0.0381
865.00,0.0384
864.00,0.0387
863.00,0.0387
862.00,0.0387
861.00,0.0385
860.00,0.0384
859.00,0.0383
858.00,0.0384
857.00,0.0386
856.00,0.0389
855.00,0.0392
854.00,0.0393
853.00,0.0392
852.00,0.0391
851.00,0.0392
850.00,0.0396
849.00,0.0401
848.00,0.0406
847.00,0.0408
846.00,0.0409
845.00,0.0409
844.00,0.0409
843.00,0.0410
842.00,0.0411
841.00,0.0412
840.00,0.0413
839.00,0.0413
838.00,0.0412
837.00,0.0412
836.00,0.0414
835.00,0.0416
834.00,0.0418
833.00,0.0420
832.00,0.0422
831.00,0.0424
830.00,0.0424
829.00,0.0423
828.00,0.0423
827.00,0.0425
826.00,0.0429
825.00,0.0434
824.00,0.0439
823.00,0.0441
822.00,0.0441
821.00,0.0440
820.00,0.0441
819.00,0.0443
818.00,0.0445
817.00,0.0445
816.00,0.0446
815.00,0.0446
814.00,0.0448
813.00,0.0451
812.00,0.0452
811.00,0.0453
810.00,0.0454
809.00,0.0456
808.00,0.0459
807.00,0.0461
806.00,0.0461
805.00,0.0460
804.00,0.0459
803.00,0.0458
802.00,0.0460
801.00,0.0465
800.00,0.0472
799.00,0.0477
798.00,0.0478
797.00,0.0476
796.00,0.0474
795.00,0.0472
794.00,0.0472
793.00,0.0473
792.00,0.0477
791.00,0.0482
790.00,0.0486
789.00,0.0488
788.00,0.0487
787.00,0.0487
786.00,0.0488
785.00,0.0490
784.00,0.0494
783.00,0.0496
782.00,0.0497
781.00,0.0497
780.00,0.0496
779.00,0.0496
778.00,0.0496
777.00,0.0497
776.00,0.0499
775.00,0.0500
774.00,0.0500
773.00,0.0498
772.00,0.0498
771.00,0.0499
770.00,0.0501
769.00,0.0504
768.00,0.0506
767.00,0.0508
766.00,0.0509
765.00,0.0510
764.00,0.0510
763.00,0.0510
762.00,0.0509
761.00,0.0508
760.00,0.0508
759.00,0.0512
758.00,0.0516
757.00,0.0518
756.00,0.0518
755.00,0.0516
754.00,0.0515
753.00,0.0514
752.00,0.0515
751.00,0.0518
750.00,0.0520
749.00,0.0523
748.00,0.0526
747.00,0.0528
746.00,0.0528
745.00,0.0527
744.00,0.0524
743.00,0.0524
742.00,0.0525
741.00,0.0526
740.00,0.0527
739.00,0.0527
738.00,0.0526
737.00,0.0525
736.00,0.0524
735.00,0.0522
734.00,0.0521
733.00,0.0520
732.00,0.0522
731.00,0.0525
730.00,0.0529
729.00,0.0533
728.00,0.0536
727.00,0.0538
726.00,0.0539
725.00,0.0540
724.00,0.0540
723.00,0.0541
722.00,0.0543
721.00,0.0545
720.00,0.0547
719.00,0.0549
718.00,0.0550
717.00,0.0551
716.00,0.0551
715.00,0.0550
714.00,0.0550
713.00,0.0551
712.00,0.0554
711.00,0.0557
710.00,0.0557
709.00,0.0557
708.00,0.0558
707.00,0.0559
706.00,0.0561
705.00,0.0564
704.00,0.0568
703.00,0.0571
702.00,0.0571
701.00,0.0569
700.00,0.0567
699.00,0.0569
698.00,0.0573
697.00,0.0578
696.00,0.0581
695.00,0.0583
694.00,0.0586
693.00,0.0590
692.00,0.0593
691.00,0.0594
690.00,0.0596
689.00,0.0599
688.00,0.0600
687.00,0.0598
686.00,0.0595
685.00,0.0592
684.00,0.0591
683.00,0.0591
682.00,0.0590
681.00,0.0589
680.00,0.0588
679.00,0.0588
678.00,0.0590
677.00,0.0593
676.00,0.0597
675.00,0.0598
674.00,0.0598
673.00,0.0598
672.00,0.0601
671.00,0.0608
670.00,0.0618
669.00,0.0631
668.00,0.0640
667.00,0.0638
666.00,0.0632
665.00,0.0627
664.00,0.0623
663.00,0.0619
662.00,0.0612
661.00,0.0603
660.00,0.0595
659.00,0.0590
658.00,0.0593
657.00,0.0601
656.00,0.0613
655.00,0.0609
654.00,0.0603
653.00,0.0599
652.00,0.0592
651.00,0.0592
650.00,0.0599
