Created as New Dataset,Monday, April 03 2023
cm-1,A
4000.00,-0.0019
3999.00,-0.0019
3998.00,-0.0019
3997.00,-0.0019
3996.00,-0.0020
3995.00,-0.0020
3994.00,-0.0020
3993.00,-0.0020
3992.00,-0.0020
3991.00,-0.0019
3990.00,-0.0019
3989.00,-0.0020
3988.00,-0.0020
3987.00,-0.0020
3986.00,-0.0020
3985.00,-0.0020
3984.00,-0.0020
3983.00,-0.0020
3982.00,-0.0020
3981.00,-0.0020
3980.00,-0.0020
3979.00,-0.0020
3978.00,-0.0020
3977.00,-0.0021
3976.00,-0.0021
3975.00,-0.0021
3974.00,-0.0021
3973.00,-0.0020
3972.00,-0.0020
3971.00,-0.0019
3970.00,-0.0019
3969.00,-0.0019
3968.00,-0.0020
3967.00,-0.0020
3966.00,-0.0021
3965.00,-0.0021
3964.00,-0.0020
3963.00,-0.0019
3962.00,-0.0019
3961.00,-0.0019
3960.00,-0.0019
3959.00,-0.0020
3958.00,-0.0020
3957.00,-0.0020
3956.00,-0.0020
3955.00,-0.0020
3954.00,-0.0020
3953.00,-0.0020
3952.00,-0.0020
3951.00,-0.0019
3950.00,-0.0019
3949.00,-0.0018
3948.00,-0.0018
3947.00,-0.0018
3946.00,-0.0018
3945.00,-0.0019
3944.00,-0.0020
3943.00,-0.0021
3942.00,-0.0021
3941.00,-0.0021
3940.00,-0.0021
3939.00,-0.0021
3938.00,-0.0020
3937.00,-0.0020
3936.00,-0.0020
3935.00,-0.0021
3934.00,-0.0021
3933.00,-0.0021
3932.00,-0.0021
3931.00,-0.0021
3930.00,-0.0021
3929.00,-0.0020
3928.00,-0.0020
3927.00,-0.0019
3926.00,-0.0019
3925.00,-0.0019
3924.00,-0.0019
3923.00,-0.0019
3922.00,-0.0019
3921.00,-0.0019
3920.00,-0.0020
3919.00,-0.0020
3918.00,-0.0019
3917.00,-0.0019
3916.00,-0.0019
3915.00,-0.0019
3914.00,-0.0019
3913.00,-0.0020
3912.00,-0.0020
3911.00,-0.0020
3910.00,-0.0020
3909.00,-0.0020
3908.00,-0.0019
3907.00,-0.0020
3906.00,-0.0020
3905.00,-0.0020
3904.00,-0.0020
3903.00,-0.0019
3902.00,-0.0017
3901.00,-0.0016
3900.00,-0.0016
3899.00,-0.0017
3898.00,-0.0018
3897.00,-0.0019
3896.00,-0.0019
3895.00,-0.0019
3894.00,-0.0019
3893.00,-0.0019
3892.00,-0.0019
3891.00,-0.0020
3890.00,-0.0020
3889.00,-0.0020
3888.00,-0.0020
3887.00,-0.0021
3886.00,-0.0022
3885.00,-0.0022
3884.00,-0.0021
3883.00,-0.0020
3882.00,-0.0020
3881.00,-0.0021
3880.00,-0.0021
3879.00,-0.0021
3878.00,-0.0019
3877.00,-0.0018
3876.00,-0.0017
3875.00,-0.0018
3874.00,-0.0019
3873.00,-0.0020
3872.00,-0.0019
3871.00,-0.0019
3870.00,-0.0019
3869.00,-0.0019
3868.00,-0.0019
3867.00,-0.0019
3866.00,-0.0019
3865.00,-0.0019
3864.00,-0.0018
3863.00,-0.0018
3862.00,-0.0017
3861.00,-0.0018
3860.00,-0.0019
3859.00,-0.0020
3858.00,-0.0021
3857.00,-0.0022
3856.00,-0.0023
3855.00,-0.0023
3854.00,-0.0022
3853.00,-0.0020
3852.00,-0.0019
3851.00,-0.0018
3850.00,-0.0019
3849.00,-0.0020
3848.00,-0.0021
3847.00,-0.0021
3846.00,-0.0020
3845.00,-0.0020
3844.00,-0.0020
3843.00,-0.0020
3842.00,-0.0020
3841.00,-0.0019
3840.00,-0.0018
3839.00,-0.0018
3838.00,-0.0018
3837.00,-0.0018
3836.00,-0.0018
3835.00,-0.0018
3834.00,-0.0018
3833.00,-0.0018
3832.00,-0.0018
3831.00,-0.0018
3830.00,-0.0018
3829.00,-0.0018
3828.00,-0.0019
3827.00,-0.0020
3826.00,-0.0020
3825.00,-0.0020
3824.00,-0.0018
3823.00,-0.0017
3822.00,-0.0018
3821.00,-0.0019
3820.00,-0.0020
3819.00,-0.0019
3818.00,-0.0019
3817.00,-0.0019
3816.00,-0.0020
3815.00,-0.0019
3814.00,-0.0018
3813.00,-0.0018
3812.00,-0.0019
3811.00,-0.0020
3810.00,-0.0021
3809.00,-0.0021
3808.00,-0.0021
3807.00,-0.0021
3806.00,-0.0020
3805.00,-0.0018
3804.00,-0.0016
3803.00,-0.0016
3802.00,-0.0017
3801.00,-0.0018
3800.00,-0.0018
3799.00,-0.0017
3798.00,-0.0018
3797.00,-0.0018
3796.00,-0.0019
3795.00,-0.0019
3794.00,-0.0019
3793.00,-0.0019
3792.00,-0.0019
3791.00,-0.0019
3790.00,-0.0019
3789.00,-0.0018
3788.00,-0.0018
3787.00,-0.0017
3786.00,-0.0017
3785.00,-0.0017
3784.00,-0.0017
3783.00,-0.0017
3782.00,-0.0017
3781.00,-0.0017
3780.00,-0.0018
3779.00,-0.0018
3778.00,-0.0018
3777.00,-0.0018
3776.00,-0.0018
3775.00,-0.0018
3774.00,-0.0019
3773.00,-0.0019
3772.00,-0.0019
3771.00,-0.0019
3770.00,-0.0020
3769.00,-0.0021
3768.00,-0.0020
3767.00,-0.0020
3766.00,-0.0020
3765.00,-0.0020
3764.00,-0.0019
3763.00,-0.0019
3762.00,-0.0018
3761.00,-0.0018
3760.00,-0.0018
3759.00,-0.0019
3758.00,-0.0019
3757.00,-0.0020
3756.00,-0.0021
3755.00,-0.0021
3754.00,-0.0021
3753.00,-0.0023
3752.00,-0.0024
3751.00,-0.0024
3750.00,-0.0023
3749.00,-0.0022
3748.00,-0.0020
3747.00,-0.0018
3746.00,-0.0016
3745.00,-0.0016
3744.00,-0.0017
3743.00,-0.0018
3742.00,-0.0018
3741.00,-0.0018
3740.00,-0.0017
3739.00,-0.0017
3738.00,-0.0016
3737.00,-0.0017
3736.00,-0.0017
3735.00,-0.0017
3734.00,-0.0017
3733.00,-0.0018
3732.00,-0.0018
3731.00,-0.0019
3730.00,-0.0019
3729.00,-0.0019
3728.00,-0.0019
3727.00,-0.0019
3726.00,-0.0019
3725.00,-0.0019
3724.00,-0.0019
3723.00,-0.0019
3722.00,-0.0019
3721.00,-0.0019
3720.00,-0.0018
3719.00,-0.0018
3718.00,-0.0019
3717.00,-0.0020
3716.00,-0.0020
3715.00,-0.0019
3714.00,-0.0018
3713.00,-0.0017
3712.00,-0.0017
3711.00,-0.0017
3710.00,-0.0017
3709.00,-0.0018
3708.00,-0.0019
3707.00,-0.0019
3706.00,-0.0018
3705.00,-0.0017
3704.00,-0.0017
3703.00,-0.0018
3702.00,-0.0019
3701.00,-0.0019
3700.00,-0.0019
3699.00,-0.0019
3698.00,-0.0019
3697.00,-0.0019
3696.00,-0.0019
3695.00,-0.0019
3694.00,-0.0019
3693.00,-0.0019
3692.00,-0.0019
3691.00,-0.0018
3690.00,-0.0016
3689.00,-0.0016
3688.00,-0.0016
3687.00,-0.0016
3686.00,-0.0017
3685.00,-0.0018
3684.00,-0.0018
3683.00,-0.0018
3682.00,-0.0018
3681.00,-0.0019
3680.00,-0.0020
3679.00,-0.0021
3678.00,-0.0021
3677.00,-0.0022
3676.00,-0.0023
3675.00,-0.0023
3674.00,-0.0023
3673.00,-0.0022
3672.00,-0.0021
3671.00,-0.0020
3670.00,-0.0020
3669.00,-0.0019
3668.00,-0.0019
3667.00,-0.0020
3666.00,-0.0020
3665.00,-0.0021
3664.00,-0.0021
3663.00,-0.0022
3662.00,-0.0021
3661.00,-0.0021
3660.00,-0.0020
3659.00,-0.0019
3658.00,-0.0019
3657.00,-0.0019
3656.00,-0.0020
3655.00,-0.0020
3654.00,-0.0019
3653.00,-0.0018
3652.00,-0.0018
3651.00,-0.0020
3650.00,-0.0021
3649.00,-0.0021
3648.00,-0.0020
3647.00,-0.0020
3646.00,-0.0020
3645.00,-0.0021
3644.00,-0.0021
3643.00,-0.0021
3642.00,-0.0021
3641.00,-0.0021
3640.00,-0.0021
3639.00,-0.0021
3638.00,-0.0021
3637.00,-0.0021
3636.00,-0.0021
3635.00,-0.0021
3634.00,-0.0021
3633.00,-0.0021
3632.00,-0.0021
3631.00,-0.0020
3630.00,-0.0019
3629.00,-0.0019
3628.00,-0.0018
3627.00,-0.0019
3626.00,-0.0019
3625.00,-0.0020
3624.00,-0.0021
3623.00,-0.0021
3622.00,-0.0021
3621.00,-0.0020
3620.00,-0.0019
3619.00,-0.0018
3618.00,-0.0017
3617.00,-0.0017
3616.00,-0.0017
3615.00,-0.0017
3614.00,-0.0018
3613.00,-0.0019
3612.00,-0.0019
3611.00,-0.0018
3610.00,-0.0018
3609.00,-0.0017
3608.00,-0.0017
3607.00,-0.0018
3606.00,-0.0019
3605.00,-0.0020
3604.00,-0.0021
3603.00,-0.0020
3602.00,-0.0020
3601.00,-0.0019
3600.00,-0.0019
3599.00,-0.0019
3598.00,-0.0020
3597.00,-0.0021
3596.00,-0.0021
3595.00,-0.0021
3594.00,-0.0022
3593.00,-0.0022
3592.00,-0.0022
3591.00,-0.0022
3590.00,-0.0022
3589.00,-0.0022
3588.00,-0.0022
3587.00,-0.0022
3586.00,-0.0021
3585.00,-0.0021
3584.00,-0.0021
3583.00,-0.0021
3582.00,-0.0021
3581.00,-0.0022
3580.00,-0.0022
3579.00,-0.0022
3578.00,-0.0022
3577.00,-0.0021
3576.00,-0.0022
3575.00,-0.0021
3574.00,-0.0021
3573.00,-0.0021
3572.00,-0.0021
3571.00,-0.0021
3570.00,-0.0021
3569.00,-0.0021
3568.00,-0.0020
3567.00,-0.0019
3566.00,-0.0018
3565.00,-0.0019
3564.00,-0.0020
3563.00,-0.0021
3562.00,-0.0021
3561.00,-0.0021
3560.00,-0.0021
3559.00,-0.0021
3558.00,-0.0020
3557.00,-0.0019
3556.00,-0.0018
3555.00,-0.0018
3554.00,-0.0018
3553.00,-0.0018
3552.00,-0.0018
3551.00,-0.0017
3550.00,-0.0016
3549.00,-0.0016
3548.00,-0.0017
3547.00,-0.0017
3546.00,-0.0018
3545.00,-0.0018
3544.00,-0.0018
3543.00,-0.0019
3542.00,-0.0019
3541.00,-0.0019
3540.00,-0.0020
3539.00,-0.0021
3538.00,-0.0023
3537.00,-0.0023
3536.00,-0.0023
3535.00,-0.0022
3534.00,-0.0021
3533.00,-0.0020
3532.00,-0.0020
3531.00,-0.0020
3530.00,-0.0021
3529.00,-0.0023
3528.00,-0.0024
3527.00,-0.0024
3526.00,-0.0024
3525.00,-0.0022
3524.00,-0.0021
3523.00,-0.0020
3522.00,-0.0020
3521.00,-0.0021
3520.00,-0.0022
3519.00,-0.0023
3518.00,-0.0024
3517.00,-0.0025
3516.00,-0.0025
3515.00,-0.0025
3514.00,-0.0024
3513.00,-0.0022
3512.00,-0.0022
3511.00,-0.0022
3510.00,-0.0022
3509.00,-0.0023
3508.00,-0.0024
3507.00,-0.0024
3506.00,-0.0023
3505.00,-0.0023
3504.00,-0.0022
3503.00,-0.0022
3502.00,-0.0021
3501.00,-0.0021
3500.00,-0.0021
3499.00,-0.0021
3498.00,-0.0021
3497.00,-0.0021
3496.00,-0.0021
3495.00,-0.0022
3494.00,-0.0023
3493.00,-0.0023
3492.00,-0.0023
3491.00,-0.0023
3490.00,-0.0023
3489.00,-0.0024
3488.00,-0.0024
3487.00,-0.0024
3486.00,-0.0024
3485.00,-0.0024
3484.00,-0.0023
3483.00,-0.0023
3482.00,-0.0023
3481.00,-0.0023
3480.00,-0.0023
3479.00,-0.0024
3478.00,-0.0024
3477.00,-0.0024
3476.00,-0.0024
3475.00,-0.0024
3474.00,-0.0024
3473.00,-0.0024
3472.00,-0.0024
3471.00,-0.0023
3470.00,-0.0023
3469.00,-0.0023
3468.00,-0.0023
3467.00,-0.0023
3466.00,-0.0023
3465.00,-0.0022
3464.00,-0.0023
3463.00,-0.0024
3462.00,-0.0026
3461.00,-0.0027
3460.00,-0.0026
3459.00,-0.0026
3458.00,-0.0025
3457.00,-0.0025
3456.00,-0.0025
3455.00,-0.0026
3454.00,-0.0026
3453.00,-0.0025
3452.00,-0.0024
3451.00,-0.0024
3450.00,-0.0023
3449.00,-0.0024
3448.00,-0.0024
3447.00,-0.0024
3446.00,-0.0024
3445.00,-0.0024
3444.00,-0.0024
3443.00,-0.0024
3442.00,-0.0025
3441.00,-0.0026
3440.00,-0.0027
3439.00,-0.0027
3438.00,-0.0027
3437.00,-0.0027
3436.00,-0.0027
3435.00,-0.0028
3434.00,-0.0028
3433.00,-0.0027
3432.00,-0.0027
3431.00,-0.0026
3430.00,-0.0026
3429.00,-0.0027
3428.00,-0.0028
3427.00,-0.0028
3426.00,-0.0027
3425.00,-0.0026
3424.00,-0.0025
3423.00,-0.0024
3422.00,-0.0024
3421.00,-0.0024
3420.00,-0.0024
3419.00,-0.0025
3418.00,-0.0025
3417.00,-0.0025
3416.00,-0.0026
3415.00,-0.0027
3414.00,-0.0027
3413.00,-0.0028
3412.00,-0.0027
3411.00,-0.0027
3410.00,-0.0027
3409.00,-0.0027
3408.00,-0.0026
3407.00,-0.0026
3406.00,-0.0026
3405.00,-0.0027
3404.00,-0.0027
3403.00,-0.0027
3402.00,-0.0027
3401.00,-0.0027
3400.00,-0.0027
3399.00,-0.0027
3398.00,-0.0027
3397.00,-0.0028
3396.00,-0.0028
3395.00,-0.0029
3394.00,-0.0029
3393.00,-0.0029
3392.00,-0.0028
3391.00,-0.0028
3390.00,-0.0027
3389.00,-0.0027
3388.00,-0.0028
3387.00,-0.0028
3386.00,-0.0029
3385.00,-0.0029
3384.00,-0.0028
3383.00,-0.0027
3382.00,-0.0027
3381.00,-0.0027
3380.00,-0.0027
3379.00,-0.0027
3378.00,-0.0027
3377.00,-0.0028
3376.00,-0.0028
3375.00,-0.0028
3374.00,-0.0028
3373.00,-0.0028
3372.00,-0.0028
3371.00,-0.0028
3370.00,-0.0028
3369.00,-0.0028
3368.00,-0.0028
3367.00,-0.0028
3366.00,-0.0028
3365.00,-0.0029
3364.00,-0.0030
3363.00,-0.0030
3362.00,-0.0029
3361.00,-0.0028
3360.00,-0.0027
3359.00,-0.0027
3358.00,-0.0027
3357.00,-0.0028
3356.00,-0.0028
3355.00,-0.0028
3354.00,-0.0027
3353.00,-0.0027
3352.00,-0.0027
3351.00,-0.0027
3350.00,-0.0028
3349.00,-0.0028
3348.00,-0.0028
3347.00,-0.0029
3346.00,-0.0029
3345.00,-0.0030
3344.00,-0.0030
3343.00,-0.0030
3342.00,-0.0029
3341.00,-0.0029
3340.00,-0.0028
3339.00,-0.0027
3338.00,-0.0027
3337.00,-0.0027
3336.00,-0.0027
3335.00,-0.0028
3334.00,-0.0028
3333.00,-0.0028
3332.00,-0.0029
3331.00,-0.0030
3330.00,-0.0030
3329.00,-0.0031
3328.00,-0.0031
3327.00,-0.0031
3326.00,-0.0030
3325.00,-0.0029
3324.00,-0.0028
3323.00,-0.0027
3322.00,-0.0027
3321.00,-0.0028
3320.00,-0.0029
3319.00,-0.0029
3318.00,-0.0029
3317.00,-0.0029
3316.00,-0.0029
3315.00,-0.0029
3314.00,-0.0030
3313.00,-0.0030
3312.00,-0.0031
3311.00,-0.0031
3310.00,-0.0030
3309.00,-0.0029
3308.00,-0.0029
3307.00,-0.0028
3306.00,-0.0028
3305.00,-0.0029
3304.00,-0.0029
3303.00,-0.0030
3302.00,-0.0029
3301.00,-0.0029
3300.00,-0.0029
3299.00,-0.0029
3298.00,-0.0029
3297.00,-0.0028
3296.00,-0.0028
3295.00,-0.0028
3294.00,-0.0028
3293.00,-0.0028
3292.00,-0.0029
3291.00,-0.0030
3290.00,-0.0030
3289.00,-0.0029
3288.00,-0.0029
3287.00,-0.0028
3286.00,-0.0028
3285.00,-0.0028
3284.00,-0.0028
3283.00,-0.0028
3282.00,-0.0028
3281.00,-0.0029
3280.00,-0.0029
3279.00,-0.0029
3278.00,-0.0029
3277.00,-0.0028
3276.00,-0.0028
3275.00,-0.0028
3274.00,-0.0028
3273.00,-0.0028
3272.00,-0.0027
3271.00,-0.0027
3270.00,-0.0027
3269.00,-0.0027
3268.00,-0.0026
3267.00,-0.0026
3266.00,-0.0027
3265.00,-0.0029
3264.00,-0.0030
3263.00,-0.0030
3262.00,-0.0030
3261.00,-0.0029
3260.00,-0.0028
3259.00,-0.0028
3258.00,-0.0027
3257.00,-0.0028
3256.00,-0.0028
3255.00,-0.0029
3254.00,-0.0029
3253.00,-0.0029
3252.00,-0.0029
3251.00,-0.0029
3250.00,-0.0029
3249.00,-0.0029
3248.00,-0.0029
3247.00,-0.0029
3246.00,-0.0029
3245.00,-0.0029
3244.00,-0.0029
3243.00,-0.0029
3242.00,-0.0029
3241.00,-0.0029
3240.00,-0.0029
3239.00,-0.0029
3238.00,-0.0029
3237.00,-0.0029
3236.00,-0.0028
3235.00,-0.0027
3234.00,-0.0027
3233.00,-0.0027
3232.00,-0.0027
3231.00,-0.0027
3230.00,-0.0028
3229.00,-0.0029
3228.00,-0.0029
3227.00,-0.0029
3226.00,-0.0029
3225.00,-0.0029
3224.00,-0.0028
3223.00,-0.0028
3222.00,-0.0028
3221.00,-0.0029
3220.00,-0.0029
3219.00,-0.0029
3218.00,-0.0030
3217.00,-0.0029
3216.00,-0.0028
3215.00,-0.0028
3214.00,-0.0028
3213.00,-0.0028
3212.00,-0.0029
3211.00,-0.0029
3210.00,-0.0030
3209.00,-0.0030
3208.00,-0.0030
3207.00,-0.0029
3206.00,-0.0029
3205.00,-0.0029
3204.00,-0.0028
3203.00,-0.0028
3202.00,-0.0028
3201.00,-0.0028
3200.00,-0.0029
3199.00,-0.0029
3198.00,-0.0029
3197.00,-0.0029
3196.00,-0.0029
3195.00,-0.0029
3194.00,-0.0029
3193.00,-0.0029
3192.00,-0.0029
3191.00,-0.0029
3190.00,-0.0030
3189.00,-0.0031
3188.00,-0.0031
3187.00,-0.0032
3186.00,-0.0031
3185.00,-0.0031
3184.00,-0.0030
3183.00,-0.0029
3182.00,-0.0029
3181.00,-0.0029
3180.00,-0.0030
3179.00,-0.0031
3178.00,-0.0031
3177.00,-0.0032
3176.00,-0.0032
3175.00,-0.0031
3174.00,-0.0031
3173.00,-0.0030
3172.00,-0.0030
3171.00,-0.0030
3170.00,-0.0030
3169.00,-0.0031
3168.00,-0.0031
3167.00,-0.0030
3166.00,-0.0030
3165.00,-0.0029
3164.00,-0.0028
3163.00,-0.0028
3162.00,-0.0028
3161.00,-0.0028
3160.00,-0.0029
3159.00,-0.0031
3158.00,-0.0031
3157.00,-0.0032
3156.00,-0.0031
3155.00,-0.0031
3154.00,-0.0030
3153.00,-0.0029
3152.00,-0.0029
3151.00,-0.0029
3150.00,-0.0030
3149.00,-0.0030
3148.00,-0.0031
3147.00,-0.0031
3146.00,-0.0031
3145.00,-0.0031
3144.00,-0.0030
3143.00,-0.0030
3142.00,-0.0030
3141.00,-0.0030
3140.00,-0.0030
3139.00,-0.0030
3138.00,-0.0030
3137.00,-0.0030
3136.00,-0.0030
3135.00,-0.0029
3134.00,-0.0030
3133.00,-0.0030
3132.00,-0.0031
3131.00,-0.0030
3130.00,-0.0030
3129.00,-0.0030
3128.00,-0.0030
3127.00,-0.0030
3126.00,-0.0030
3125.00,-0.0030
3124.00,-0.0030
3123.00,-0.0030
3122.00,-0.0030
3121.00,-0.0030
3120.00,-0.0030
3119.00,-0.0030
3118.00,-0.0030
3117.00,-0.0030
3116.00,-0.0030
3115.00,-0.0030
3114.00,-0.0030
3113.00,-0.0030
3112.00,-0.0030
3111.00,-0.0030
3110.00,-0.0031
3109.00,-0.0031
3108.00,-0.0030
3107.00,-0.0030
3106.00,-0.0029
3105.00,-0.0028
3104.00,-0.0028
3103.00,-0.0029
3102.00,-0.0029
3101.00,-0.0030
3100.00,-0.0031
3099.00,-0.0031
3098.00,-0.0031
3097.00,-0.0031
3096.00,-0.0030
3095.00,-0.0029
3094.00,-0.0028
3093.00,-0.0027
3092.00,-0.0027
3091.00,-0.0028
3090.00,-0.0029
3089.00,-0.0031
3088.00,-0.0031
3087.00,-0.0032
3086.00,-0.0031
3085.00,-0.0030
3084.00,-0.0029
3083.00,-0.0029
3082.00,-0.0029
3081.00,-0.0029
3080.00,-0.0029
3079.00,-0.0029
3078.00,-0.0029
3077.00,-0.0029
3076.00,-0.0029
3075.00,-0.0029
3074.00,-0.0029
3073.00,-0.0029
3072.00,-0.0029
3071.00,-0.0029
3070.00,-0.0029
3069.00,-0.0029
3068.00,-0.0029
3067.00,-0.0029
3066.00,-0.0029
3065.00,-0.0030
3064.00,-0.0031
3063.00,-0.0031
3062.00,-0.0030
3061.00,-0.0030
3060.00,-0.0029
3059.00,-0.0029
3058.00,-0.0029
3057.00,-0.0029
3056.00,-0.0028
3055.00,-0.0029
3054.00,-0.0029
3053.00,-0.0030
3052.00,-0.0029
3051.00,-0.0029
3050.00,-0.0028
3049.00,-0.0028
3048.00,-0.0027
3047.00,-0.0027
3046.00,-0.0027
3045.00,-0.0027
3044.00,-0.0028
3043.00,-0.0028
3042.00,-0.0029
3041.00,-0.0030
3040.00,-0.0030
3039.00,-0.0030
3038.00,-0.0030
3037.00,-0.0029
3036.00,-0.0028
3035.00,-0.0028
3034.00,-0.0028
3033.00,-0.0028
3032.00,-0.0028
3031.00,-0.0028
3030.00,-0.0029
3029.00,-0.0030
3028.00,-0.0030
3027.00,-0.0029
3026.00,-0.0029
3025.00,-0.0029
3024.00,-0.0029
3023.00,-0.0029
3022.00,-0.0030
3021.00,-0.0030
3020.00,-0.0031
3019.00,-0.0031
3018.00,-0.0032
3017.00,-0.0032
3016.00,-0.0033
3015.00,-0.0033
3014.00,-0.0033
3013.00,-0.0034
3012.00,-0.0035
3011.00,-0.0035
3010.00,-0.0036
3009.00,-0.0037
3008.00,-0.0039
3007.00,-0.0040
3006.00,-0.0041
3005.00,-0.0042
3004.00,-0.0042
3003.00,-0.0044
3002.00,-0.0045
3001.00,-0.0047
3000.00,-0.0048
2999.00,-0.0049
2998.00,-0.0050
2997.00,-0.0050
2996.00,-0.0051
2995.00,-0.0051
2994.00,-0.0051
2993.00,-0.0051
2992.00,-0.0052
2991.00,-0.0053
2990.00,-0.0054
2989.00,-0.0054
2988.00,-0.0055
2987.00,-0.0057
2986.00,-0.0060
2985.00,-0.0063
2984.00,-0.0067
2983.00,-0.0070
2982.00,-0.0071
2981.00,-0.0071
2980.00,-0.0069
2979.00,-0.0067
2978.00,-0.0065
2977.00,-0.0063
2976.00,-0.0061
2975.00,-0.0061
2974.00,-0.0061
2973.00,-0.0062
2972.00,-0.0063
2971.00,-0.0063
2970.00,-0.0062
2969.00,-0.0060
2968.00,-0.0059
2967.00,-0.0058
2966.00,-0.0057
2965.00,-0.0056
2964.00,-0.0056
2963.00,-0.0055
2962.00,-0.0054
2961.00,-0.0053
2960.00,-0.0053
2959.00,-0.0053
2958.00,-0.0053
2957.00,-0.0052
2956.00,-0.0052
2955.00,-0.0051
2954.00,-0.0050
2953.00,-0.0049
2952.00,-0.0049
2951.00,-0.0048
2950.00,-0.0047
2949.00,-0.0046
2948.00,-0.0046
2947.00,-0.0046
2946.00,-0.0045
2945.00,-0.0045
2944.00,-0.0044
2943.00,-0.0044
2942.00,-0.0043
2941.00,-0.0043
2940.00,-0.0043
2939.00,-0.0044
2938.00,-0.0044
2937.00,-0.0045
2936.00,-0.0045
2935.00,-0.0045
2934.00,-0.0045
2933.00,-0.0045
2932.00,-0.0045
2931.00,-0.0045
2930.00,-0.0045
2929.00,-0.0045
2928.00,-0.0045
2927.00,-0.0045
2926.00,-0.0046
2925.00,-0.0046
2924.00,-0.0047
2923.00,-0.0047
2922.00,-0.0046
2921.00,-0.0047
2920.00,-0.0047
2919.00,-0.0048
2918.00,-0.0047
2917.00,-0.0047
2916.00,-0.0046
2915.00,-0.0046
2914.00,-0.0045
2913.00,-0.0045
2912.00,-0.0044
2911.00,-0.0044
2910.00,-0.0043
2909.00,-0.0043
2908.00,-0.0043
2907.00,-0.0043
2906.00,-0.0043
2905.00,-0.0044
2904.00,-0.0044
2903.00,-0.0044
2902.00,-0.0044
2901.00,-0.0043
2900.00,-0.0043
2899.00,-0.0043
2898.00,-0.0043
2897.00,-0.0043
2896.00,-0.0043
2895.00,-0.0044
2894.00,-0.0044
2893.00,-0.0044
2892.00,-0.0043
2891.00,-0.0044
2890.00,-0.0044
2889.00,-0.0044
2888.00,-0.0043
2887.00,-0.0043
2886.00,-0.0043
2885.00,-0.0043
2884.00,-0.0043
2883.00,-0.0043
2882.00,-0.0043
2881.00,-0.0043
2880.00,-0.0042
2879.00,-0.0041
2878.00,-0.0040
2877.00,-0.0039
2876.00,-0.0039
2875.00,-0.0039
2874.00,-0.0039
2873.00,-0.0039
2872.00,-0.0039
2871.00,-0.0039
2870.00,-0.0039
2869.00,-0.0038
2868.00,-0.0038
2867.00,-0.0038
2866.00,-0.0038
2865.00,-0.0038
2864.00,-0.0037
2863.00,-0.0037
2862.00,-0.0037
2861.00,-0.0037
2860.00,-0.0037
2859.00,-0.0036
2858.00,-0.0035
2857.00,-0.0035
2856.00,-0.0036
2855.00,-0.0037
2854.00,-0.0038
2853.00,-0.0038
2852.00,-0.0038
2851.00,-0.0037
2850.00,-0.0036
2849.00,-0.0035
2848.00,-0.0034
2847.00,-0.0034
2846.00,-0.0033
2845.00,-0.0033
2844.00,-0.0032
2843.00,-0.0032
2842.00,-0.0032
2841.00,-0.0032
2840.00,-0.0033
2839.00,-0.0033
2838.00,-0.0033
2837.00,-0.0032
2836.00,-0.0032
2835.00,-0.0030
2834.00,-0.0030
2833.00,-0.0030
2832.00,-0.0030
2831.00,-0.0031
2830.00,-0.0031
2829.00,-0.0031
2828.00,-0.0031
2827.00,-0.0030
2826.00,-0.0030
2825.00,-0.0030
2824.00,-0.0030
2823.00,-0.0030
2822.00,-0.0030
2821.00,-0.0030
2820.00,-0.0030
2819.00,-0.0030
2818.00,-0.0030
2817.00,-0.0030
2816.00,-0.0029
2815.00,-0.0029
2814.00,-0.0030
2813.00,-0.0030
2812.00,-0.0030
2811.00,-0.0030
2810.00,-0.0030
2809.00,-0.0030
2808.00,-0.0030
2807.00,-0.0030
2806.00,-0.0029
2805.00,-0.0029
2804.00,-0.0029
2803.00,-0.0028
2802.00,-0.0028
2801.00,-0.0028
2800.00,-0.0028
2799.00,-0.0028
2798.00,-0.0028
2797.00,-0.0028
2796.00,-0.0029
2795.00,-0.0029
2794.00,-0.0029
2793.00,-0.0029
2792.00,-0.0029
2791.00,-0.0029
2790.00,-0.0029
2789.00,-0.0028
2788.00,-0.0028
2787.00,-0.0028
2786.00,-0.0028
2785.00,-0.0028
2784.00,-0.0029
2783.00,-0.0029
2782.00,-0.0030
2781.00,-0.0031
2780.00,-0.0031
2779.00,-0.0031
2778.00,-0.0031
2777.00,-0.0030
2776.00,-0.0030
2775.00,-0.0030
2774.00,-0.0030
2773.00,-0.0029
2772.00,-0.0029
2771.00,-0.0030
2770.00,-0.0030
2769.00,-0.0031
2768.00,-0.0031
2767.00,-0.0031
2766.00,-0.0031
2765.00,-0.0030
2764.00,-0.0030
2763.00,-0.0030
2762.00,-0.0030
2761.00,-0.0030
2760.00,-0.0029
2759.00,-0.0029
2758.00,-0.0029
2757.00,-0.0029
2756.00,-0.0029
2755.00,-0.0029
2754.00,-0.0029
2753.00,-0.0029
2752.00,-0.0029
2751.00,-0.0029
2750.00,-0.0028
2749.00,-0.0028
2748.00,-0.0028
2747.00,-0.0028
2746.00,-0.0028
2745.00,-0.0028
2744.00,-0.0028
2743.00,-0.0028
2742.00,-0.0028
2741.00,-0.0028
2740.00,-0.0028
2739.00,-0.0029
2738.00,-0.0029
2737.00,-0.0029
2736.00,-0.0029
2735.00,-0.0028
2734.00,-0.0028
2733.00,-0.0028
2732.00,-0.0028
2731.00,-0.0028
2730.00,-0.0029
2729.00,-0.0029
2728.00,-0.0029
2727.00,-0.0029
2726.00,-0.0029
2725.00,-0.0029
2724.00,-0.0029
2723.00,-0.0030
2722.00,-0.0030
2721.00,-0.0030
2720.00,-0.0030
2719.00,-0.0029
2718.00,-0.0029
2717.00,-0.0029
2716.00,-0.0029
2715.00,-0.0029
2714.00,-0.0029
2713.00,-0.0028
2712.00,-0.0029
2711.00,-0.0029
2710.00,-0.0029
2709.00,-0.0029
2708.00,-0.0029
2707.00,-0.0029
2706.00,-0.0029
2705.00,-0.0029
2704.00,-0.0029
2703.00,-0.0029
2702.00,-0.0029
2701.00,-0.0029
2700.00,-0.0029
2699.00,-0.0029
2698.00,-0.0029
2697.00,-0.0029
2696.00,-0.0029
2695.00,-0.0029
2694.00,-0.0028
2693.00,-0.0028
2692.00,-0.0027
2691.00,-0.0027
2690.00,-0.0027
2689.00,-0.0028
2688.00,-0.0027
2687.00,-0.0027
2686.00,-0.0027
2685.00,-0.0027
2684.00,-0.0027
2683.00,-0.0028
2682.00,-0.0028
2681.00,-0.0028
2680.00,-0.0029
2679.00,-0.0029
2678.00,-0.0030
2677.00,-0.0030
2676.00,-0.0030
2675.00,-0.0030
2674.00,-0.0029
2673.00,-0.0029
2672.00,-0.0029
2671.00,-0.0029
2670.00,-0.0029
2669.00,-0.0029
2668.00,-0.0029
2667.00,-0.0029
2666.00,-0.0029
2665.00,-0.0029
2664.00,-0.0029
2663.00,-0.0029
2662.00,-0.0029
2661.00,-0.0029
2660.00,-0.0029
2659.00,-0.0029
2658.00,-0.0029
2657.00,-0.0029
2656.00,-0.0029
2655.00,-0.0029
2654.00,-0.0029
2653.00,-0.0029
2652.00,-0.0028
2651.00,-0.0028
2650.00,-0.0028
2649.00,-0.0028
2648.00,-0.0029
2647.00,-0.0030
2646.00,-0.0030
2645.00,-0.0029
2644.00,-0.0029
2643.00,-0.0029
2642.00,-0.0028
2641.00,-0.0028
2640.00,-0.0028
2639.00,-0.0028
2638.00,-0.0028
2637.00,-0.0028
2636.00,-0.0029
2635.00,-0.0029
2634.00,-0.0029
2633.00,-0.0028
2632.00,-0.0028
2631.00,-0.0028
2630.00,-0.0028
2629.00,-0.0029
2628.00,-0.0030
2627.00,-0.0030
2626.00,-0.0029
2625.00,-0.0028
2624.00,-0.0028
2623.00,-0.0027
2622.00,-0.0027
2621.00,-0.0027
2620.00,-0.0027
2619.00,-0.0028
2618.00,-0.0028
2617.00,-0.0028
2616.00,-0.0028
2615.00,-0.0029
2614.00,-0.0029
2613.00,-0.0029
2612.00,-0.0028
2611.00,-0.0028
2610.00,-0.0028
2609.00,-0.0028
2608.00,-0.0029
2607.00,-0.0028
2606.00,-0.0028
2605.00,-0.0027
2604.00,-0.0027
2603.00,-0.0026
2602.00,-0.0026
2601.00,-0.0027
2600.00,-0.0027
2599.00,-0.0028
2598.00,-0.0028
2597.00,-0.0029
2596.00,-0.0029
2595.00,-0.0030
2594.00,-0.0029
2593.00,-0.0029
2592.00,-0.0028
2591.00,-0.0028
2590.00,-0.0028
2589.00,-0.0028
2588.00,-0.0028
2587.00,-0.0028
2586.00,-0.0029
2585.00,-0.0030
2584.00,-0.0030
2583.00,-0.0030
2582.00,-0.0029
2581.00,-0.0029
2580.00,-0.0028
2579.00,-0.0028
2578.00,-0.0028
2577.00,-0.0028
2576.00,-0.0028
2575.00,-0.0029
2574.00,-0.0028
2573.00,-0.0028
2572.00,-0.0027
2571.00,-0.0027
2570.00,-0.0028
2569.00,-0.0028
2568.00,-0.0028
2567.00,-0.0027
2566.00,-0.0026
2565.00,-0.0026
2564.00,-0.0026
2563.00,-0.0026
2562.00,-0.0026
2561.00,-0.0026
2560.00,-0.0026
2559.00,-0.0026
2558.00,-0.0026
2557.00,-0.0025
2556.00,-0.0025
2555.00,-0.0025
2554.00,-0.0026
2553.00,-0.0027
2552.00,-0.0028
2551.00,-0.0029
2550.00,-0.0030
2549.00,-0.0031
2548.00,-0.0032
2547.00,-0.0032
2546.00,-0.0032
2545.00,-0.0031
2544.00,-0.0031
2543.00,-0.0030
2542.00,-0.0030
2541.00,-0.0031
2540.00,-0.0031
2539.00,-0.0032
2538.00,-0.0032
2537.00,-0.0032
2536.00,-0.0031
2535.00,-0.0031
2534.00,-0.0030
2533.00,-0.0029
2532.00,-0.0029
2531.00,-0.0029
2530.00,-0.0030
2529.00,-0.0030
2528.00,-0.0030
2527.00,-0.0030
2526.00,-0.0030
2525.00,-0.0031
2524.00,-0.0031
2523.00,-0.0031
2522.00,-0.0031
2521.00,-0.0031
2520.00,-0.0030
2519.00,-0.0030
2518.00,-0.0029
2517.00,-0.0028
2516.00,-0.0027
2515.00,-0.0028
2514.00,-0.0028
2513.00,-0.0029
2512.00,-0.0029
2511.00,-0.0028
2510.00,-0.0028
2509.00,-0.0027
2508.00,-0.0027
2507.00,-0.0028
2506.00,-0.0029
2505.00,-0.0030
2504.00,-0.0030
2503.00,-0.0030
2502.00,-0.0030
2501.00,-0.0029
2500.00,-0.0028
2499.00,-0.0028
2498.00,-0.0028
2497.00,-0.0028
2496.00,-0.0028
2495.00,-0.0027
2494.00,-0.0027
2493.00,-0.0026
2492.00,-0.0027
2491.00,-0.0027
2490.00,-0.0027
2489.00,-0.0027
2488.00,-0.0027
2487.00,-0.0027
2486.00,-0.0028
2485.00,-0.0028
2484.00,-0.0029
2483.00,-0.0029
2482.00,-0.0029
2481.00,-0.0027
2480.00,-0.0027
2479.00,-0.0026
2478.00,-0.0027
2477.00,-0.0027
2476.00,-0.0028
2475.00,-0.0028
2474.00,-0.0028
2473.00,-0.0027
2472.00,-0.0027
2471.00,-0.0027
2470.00,-0.0027
2469.00,-0.0028
2468.00,-0.0028
2467.00,-0.0029
2466.00,-0.0029
2465.00,-0.0029
2464.00,-0.0029
2463.00,-0.0029
2462.00,-0.0029
2461.00,-0.0029
2460.00,-0.0028
2459.00,-0.0027
2458.00,-0.0027
2457.00,-0.0027
2456.00,-0.0028
2455.00,-0.0028
2454.00,-0.0027
2453.00,-0.0026
2452.00,-0.0026
2451.00,-0.0026
2450.00,-0.0027
2449.00,-0.0028
2448.00,-0.0028
2447.00,-0.0028
2446.00,-0.0028
2445.00,-0.0028
2444.00,-0.0029
2443.00,-0.0029
2442.00,-0.0029
2441.00,-0.0029
2440.00,-0.0029
2439.00,-0.0029
2438.00,-0.0029
2437.00,-0.0029
2436.00,-0.0029
2435.00,-0.0029
2434.00,-0.0030
2433.00,-0.0030
2432.00,-0.0029
2431.00,-0.0029
2430.00,-0.0028
2429.00,-0.0027
2428.00,-0.0027
2427.00,-0.0027
2426.00,-0.0028
2425.00,-0.0028
2424.00,-0.0028
2423.00,-0.0028
2422.00,-0.0028
2421.00,-0.0027
2420.00,-0.0027
2419.00,-0.0028
2418.00,-0.0028
2417.00,-0.0028
2416.00,-0.0029
2415.00,-0.0029
2414.00,-0.0028
2413.00,-0.0028
2412.00,-0.0027
2411.00,-0.0027
2410.00,-0.0027
2409.00,-0.0027
2408.00,-0.0026
2407.00,-0.0027
2406.00,-0.0027
2405.00,-0.0027
2404.00,-0.0027
2403.00,-0.0028
2402.00,-0.0029
2401.00,-0.0029
2400.00,-0.0028
2399.00,-0.0028
2398.00,-0.0028
2397.00,-0.0028
2396.00,-0.0029
2395.00,-0.0029
2394.00,-0.0030
2393.00,-0.0030
2392.00,-0.0030
2391.00,-0.0030
2390.00,-0.0029
2389.00,-0.0029
2388.00,-0.0029
2387.00,-0.0029
2386.00,-0.0029
2385.00,-0.0029
2384.00,-0.0030
2383.00,-0.0030
2382.00,-0.0030
2381.00,-0.0030
2380.00,-0.0028
2379.00,-0.0027
2378.00,-0.0027
2377.00,-0.0027
2376.00,-0.0028
2375.00,-0.0028
2374.00,-0.0029
2373.00,-0.0029
2372.00,-0.0030
2371.00,-0.0031
2370.00,-0.0033
2369.00,-0.0035
2368.00,-0.0037
2367.00,-0.0037
2366.00,-0.0034
2365.00,-0.0030
2364.00,-0.0028
2363.00,-0.0029
2362.00,-0.0031
2361.00,-0.0031
2360.00,-0.0030
2359.00,-0.0029
2358.00,-0.0029
2357.00,-0.0030
2356.00,-0.0031
2355.00,-0.0033
2354.00,-0.0034
2353.00,-0.0035
2352.00,-0.0034
2351.00,-0.0033
2350.00,-0.0032
2349.00,-0.0032
2348.00,-0.0032
2347.00,-0.0033
2346.00,-0.0033
2345.00,-0.0032
2344.00,-0.0030
2343.00,-0.0028
2342.00,-0.0028
2341.00,-0.0028
2340.00,-0.0029
2339.00,-0.0031
2338.00,-0.0034
2337.00,-0.0035
2336.00,-0.0035
2335.00,-0.0033
2334.00,-0.0032
2333.00,-0.0031
2332.00,-0.0031
2331.00,-0.0032
2330.00,-0.0033
2329.00,-0.0033
2328.00,-0.0032
2327.00,-0.0031
2326.00,-0.0030
2325.00,-0.0031
2324.00,-0.0032
2323.00,-0.0033
2322.00,-0.0033
2321.00,-0.0033
2320.00,-0.0033
2319.00,-0.0033
2318.00,-0.0033
2317.00,-0.0032
2316.00,-0.0031
2315.00,-0.0031
2314.00,-0.0031
2313.00,-0.0032
2312.00,-0.0033
2311.00,-0.0032
2310.00,-0.0030
2309.00,-0.0029
2308.00,-0.0028
2307.00,-0.0029
2306.00,-0.0029
2305.00,-0.0030
2304.00,-0.0030
2303.00,-0.0031
2302.00,-0.0032
2301.00,-0.0032
2300.00,-0.0031
2299.00,-0.0030
2298.00,-0.0030
2297.00,-0.0030
2296.00,-0.0031
2295.00,-0.0031
2294.00,-0.0030
2293.00,-0.0029
2292.00,-0.0028
2291.00,-0.0028
2290.00,-0.0028
2289.00,-0.0029
2288.00,-0.0029
2287.00,-0.0029
2286.00,-0.0027
2285.00,-0.0026
2284.00,-0.0024
2283.00,-0.0023
2282.00,-0.0023
2281.00,-0.0024
2280.00,-0.0024
2279.00,-0.0024
2278.00,-0.0024
2277.00,-0.0025
2276.00,-0.0026
2275.00,-0.0028
2274.00,-0.0030
2273.00,-0.0030
2272.00,-0.0030
2271.00,-0.0029
2270.00,-0.0029
2269.00,-0.0029
2268.00,-0.0029
2267.00,-0.0029
2266.00,-0.0029
2265.00,-0.0029
2264.00,-0.0028
2263.00,-0.0026
2262.00,-0.0025
2261.00,-0.0025
2260.00,-0.0025
2259.00,-0.0026
2258.00,-0.0029
2257.00,-0.0031
2256.00,-0.0032
2255.00,-0.0032
2254.00,-0.0030
2253.00,-0.0029
2252.00,-0.0028
2251.00,-0.0027
2250.00,-0.0027
2249.00,-0.0027
2248.00,-0.0028
2247.00,-0.0028
2246.00,-0.0027
2245.00,-0.0025
2244.00,-0.0024
2243.00,-0.0024
2242.00,-0.0025
2241.00,-0.0025
2240.00,-0.0026
2239.00,-0.0026
2238.00,-0.0027
2237.00,-0.0028
2236.00,-0.0028
2235.00,-0.0028
2234.00,-0.0027
2233.00,-0.0027
2232.00,-0.0027
2231.00,-0.0029
2230.00,-0.0031
2229.00,-0.0031
2228.00,-0.0030
2227.00,-0.0029
2226.00,-0.0029
2225.00,-0.0029
2224.00,-0.0030
2223.00,-0.0031
2222.00,-0.0032
2221.00,-0.0033
2220.00,-0.0033
2219.00,-0.0033
2218.00,-0.0033
2217.00,-0.0032
2216.00,-0.0030
2215.00,-0.0028
2214.00,-0.0026
2213.00,-0.0026
2212.00,-0.0029
2211.00,-0.0031
2210.00,-0.0032
2209.00,-0.0031
2208.00,-0.0030
2207.00,-0.0030
2206.00,-0.0031
2205.00,-0.0032
2204.00,-0.0034
2203.00,-0.0034
2202.00,-0.0033
2201.00,-0.0033
2200.00,-0.0033
2199.00,-0.0033
2198.00,-0.0033
2197.00,-0.0032
2196.00,-0.0032
2195.00,-0.0032
2194.00,-0.0032
2193.00,-0.0033
2192.00,-0.0034
2191.00,-0.0036
2190.00,-0.0038
2189.00,-0.0039
2188.00,-0.0037
2187.00,-0.0033
2186.00,-0.0027
2185.00,-0.0025
2184.00,-0.0026
2183.00,-0.0029
2182.00,-0.0031
2181.00,-0.0030
2180.00,-0.0028
2179.00,-0.0026
2178.00,-0.0023
2177.00,-0.0020
2176.00,-0.0020
2175.00,-0.0021
2174.00,-0.0023
2173.00,-0.0025
2172.00,-0.0026
2171.00,-0.0025
2170.00,-0.0023
2169.00,-0.0021
2168.00,-0.0020
2167.00,-0.0021
2166.00,-0.0021
2165.00,-0.0020
2164.00,-0.0019
2163.00,-0.0019
2162.00,-0.0020
2161.00,-0.0023
2160.00,-0.0027
2159.00,-0.0031
2158.00,-0.0034
2157.00,-0.0034
2156.00,-0.0034
2155.00,-0.0033
2154.00,-0.0031
2153.00,-0.0030
2152.00,-0.0030
2151.00,-0.0033
2150.00,-0.0036
2149.00,-0.0038
2148.00,-0.0038
2147.00,-0.0036
2146.00,-0.0032
2145.00,-0.0030
2144.00,-0.0028
2143.00,-0.0027
2142.00,-0.0027
2141.00,-0.0027
2140.00,-0.0028
2139.00,-0.0029
2138.00,-0.0030
2137.00,-0.0030
2136.00,-0.0030
2135.00,-0.0031
2134.00,-0.0031
2133.00,-0.0030
2132.00,-0.0030
2131.00,-0.0030
2130.00,-0.0029
2129.00,-0.0027
2128.00,-0.0025
2127.00,-0.0024
2126.00,-0.0023
2125.00,-0.0024
2124.00,-0.0025
2123.00,-0.0026
2122.00,-0.0027
2121.00,-0.0026
2120.00,-0.0026
2119.00,-0.0026
2118.00,-0.0026
2117.00,-0.0026
2116.00,-0.0027
2115.00,-0.0028
2114.00,-0.0029
2113.00,-0.0030
2112.00,-0.0029
2111.00,-0.0027
2110.00,-0.0025
2109.00,-0.0023
2108.00,-0.0022
2107.00,-0.0021
2106.00,-0.0021
2105.00,-0.0021
2104.00,-0.0023
2103.00,-0.0024
2102.00,-0.0025
2101.00,-0.0025
2100.00,-0.0026
2099.00,-0.0028
2098.00,-0.0030
2097.00,-0.0031
2096.00,-0.0030
2095.00,-0.0030
2094.00,-0.0028
2093.00,-0.0028
2092.00,-0.0028
2091.00,-0.0029
2090.00,-0.0030
2089.00,-0.0030
2088.00,-0.0030
2087.00,-0.0029
2086.00,-0.0028
2085.00,-0.0027
2084.00,-0.0026
2083.00,-0.0026
2082.00,-0.0026
2081.00,-0.0026
2080.00,-0.0027
2079.00,-0.0027
2078.00,-0.0029
2077.00,-0.0029
2076.00,-0.0029
2075.00,-0.0028
2074.00,-0.0027
2073.00,-0.0027
2072.00,-0.0026
2071.00,-0.0025
2070.00,-0.0025
2069.00,-0.0026
2068.00,-0.0028
2067.00,-0.0030
2066.00,-0.0030
2065.00,-0.0029
2064.00,-0.0026
2063.00,-0.0024
2062.00,-0.0023
2061.00,-0.0023
2060.00,-0.0024
2059.00,-0.0025
2058.00,-0.0025
2057.00,-0.0025
2056.00,-0.0024
2055.00,-0.0023
2054.00,-0.0022
2053.00,-0.0021
2052.00,-0.0020
2051.00,-0.0020
2050.00,-0.0021
2049.00,-0.0023
2048.00,-0.0025
2047.00,-0.0025
2046.00,-0.0024
2045.00,-0.0022
2044.00,-0.0020
2043.00,-0.0019
2042.00,-0.0019
2041.00,-0.0021
2040.00,-0.0024
2039.00,-0.0027
2038.00,-0.0027
2037.00,-0.0025
2036.00,-0.0024
2035.00,-0.0023
2034.00,-0.0024
2033.00,-0.0023
2032.00,-0.0021
2031.00,-0.0018
2030.00,-0.0018
2029.00,-0.0021
2028.00,-0.0024
2027.00,-0.0027
2026.00,-0.0029
2025.00,-0.0030
2024.00,-0.0031
2023.00,-0.0033
2022.00,-0.0034
2021.00,-0.0036
2020.00,-0.0037
2019.00,-0.0037
2018.00,-0.0037
2017.00,-0.0036
2016.00,-0.0035
2015.00,-0.0033
2014.00,-0.0032
2013.00,-0.0032
2012.00,-0.0032
2011.00,-0.0030
2010.00,-0.0029
2009.00,-0.0027
2008.00,-0.0026
2007.00,-0.0026
2006.00,-0.0027
2005.00,-0.0028
2004.00,-0.0029
2003.00,-0.0027
2002.00,-0.0024
2001.00,-0.0020
2000.00,-0.0020
1999.00,-0.0021
1998.00,-0.0022
1997.00,-0.0022
1996.00,-0.0020
1995.00,-0.0018
1994.00,-0.0017
1993.00,-0.0017
1992.00,-0.0019
1991.00,-0.0021
1990.00,-0.0024
1989.00,-0.0025
1988.00,-0.0025
1987.00,-0.0025
1986.00,-0.0024
1985.00,-0.0023
1984.00,-0.0023
1983.00,-0.0024
1982.00,-0.0025
1981.00,-0.0027
1980.00,-0.0029
1979.00,-0.0031
1978.00,-0.0034
1977.00,-0.0036
1976.00,-0.0036
1975.00,-0.0034
1974.00,-0.0029
1973.00,-0.0027
1972.00,-0.0026
1971.00,-0.0028
1970.00,-0.0028
1969.00,-0.0026
1968.00,-0.0025
1967.00,-0.0026
1966.00,-0.0029
1965.00,-0.0032
1964.00,-0.0031
1963.00,-0.0029
1962.00,-0.0027
1961.00,-0.0026
1960.00,-0.0025
1959.00,-0.0024
1958.00,-0.0023
1957.00,-0.0023
1956.00,-0.0024
1955.00,-0.0025
1954.00,-0.0024
1953.00,-0.0023
1952.00,-0.0023
1951.00,-0.0024
1950.00,-0.0025
1949.00,-0.0026
1948.00,-0.0026
1947.00,-0.0025
1946.00,-0.0025
1945.00,-0.0026
1944.00,-0.0028
1943.00,-0.0028
1942.00,-0.0027
1941.00,-0.0027
1940.00,-0.0027
1939.00,-0.0028
1938.00,-0.0029
1937.00,-0.0029
1936.00,-0.0029
1935.00,-0.0030
1934.00,-0.0031
1933.00,-0.0031
1932.00,-0.0030
1931.00,-0.0028
1930.00,-0.0025
1929.00,-0.0023
1928.00,-0.0022
1927.00,-0.0021
1926.00,-0.0022
1925.00,-0.0022
1924.00,-0.0023
1923.00,-0.0024
1922.00,-0.0025
1921.00,-0.0026
1920.00,-0.0027
1919.00,-0.0028
1918.00,-0.0028
1917.00,-0.0027
1916.00,-0.0026
1915.00,-0.0025
1914.00,-0.0024
1913.00,-0.0024
1912.00,-0.0024
1911.00,-0.0024
1910.00,-0.0024
1909.00,-0.0025
1908.00,-0.0026
1907.00,-0.0027
1906.00,-0.0027
1905.00,-0.0026
1904.00,-0.0026
1903.00,-0.0025
1902.00,-0.0025
1901.00,-0.0025
1900.00,-0.0025
1899.00,-0.0025
1898.00,-0.0024
1897.00,-0.0024
1896.00,-0.0025
1895.00,-0.0025
1894.00,-0.0025
1893.00,-0.0025
1892.00,-0.0024
1891.00,-0.0023
1890.00,-0.0022
1889.00,-0.0022
1888.00,-0.0022
1887.00,-0.0023
1886.00,-0.0025
1885.00,-0.0025
1884.00,-0.0025
1883.00,-0.0024
1882.00,-0.0024
1881.00,-0.0024
1880.00,-0.0024
1879.00,-0.0024
1878.00,-0.0024
1877.00,-0.0024
1876.00,-0.0024
1875.00,-0.0023
1874.00,-0.0022
1873.00,-0.0022
1872.00,-0.0021
1871.00,-0.0020
1870.00,-0.0021
1869.00,-0.0022
1868.00,-0.0022
1867.00,-0.0023
1866.00,-0.0023
1865.00,-0.0023
1864.00,-0.0024
1863.00,-0.0025
1862.00,-0.0025
1861.00,-0.0026
1860.00,-0.0026
1859.00,-0.0026
1858.00,-0.0025
1857.00,-0.0024
1856.00,-0.0024
1855.00,-0.0023
1854.00,-0.0024
1853.00,-0.0024
1852.00,-0.0024
1851.00,-0.0024
1850.00,-0.0023
1849.00,-0.0023
1848.00,-0.0023
1847.00,-0.0024
1846.00,-0.0023
1845.00,-0.0023
1844.00,-0.0023
1843.00,-0.0023
1842.00,-0.0023
1841.00,-0.0023
1840.00,-0.0022
1839.00,-0.0022
1838.00,-0.0022
1837.00,-0.0022
1836.00,-0.0022
1835.00,-0.0022
1834.00,-0.0022
1833.00,-0.0022
1832.00,-0.0021
1831.00,-0.0020
1830.00,-0.0020
1829.00,-0.0020
1828.00,-0.0020
1827.00,-0.0021
1826.00,-0.0021
1825.00,-0.0021
1824.00,-0.0021
1823.00,-0.0021
1822.00,-0.0021
1821.00,-0.0021
1820.00,-0.0021
1819.00,-0.0021
1818.00,-0.0022
1817.00,-0.0022
1816.00,-0.0022
1815.00,-0.0022
1814.00,-0.0022
1813.00,-0.0022
1812.00,-0.0021
1811.00,-0.0021
1810.00,-0.0021
1809.00,-0.0020
1808.00,-0.0020
1807.00,-0.0020
1806.00,-0.0020
1805.00,-0.0020
1804.00,-0.0020
1803.00,-0.0021
1802.00,-0.0021
1801.00,-0.0021
1800.00,-0.0021
1799.00,-0.0021
1798.00,-0.0020
1797.00,-0.0020
1796.00,-0.0020
1795.00,-0.0021
1794.00,-0.0021
1793.00,-0.0020
1792.00,-0.0019
1791.00,-0.0019
1790.00,-0.0019
1789.00,-0.0020
1788.00,-0.0020
1787.00,-0.0020
1786.00,-0.0020
1785.00,-0.0020
1784.00,-0.0020
1783.00,-0.0020
1782.00,-0.0020
1781.00,-0.0020
1780.00,-0.0021
1779.00,-0.0021
1778.00,-0.0021
1777.00,-0.0021
1776.00,-0.0021
1775.00,-0.0021
1774.00,-0.0021
1773.00,-0.0021
1772.00,-0.0022
1771.00,-0.0022
1770.00,-0.0022
1769.00,-0.0022
1768.00,-0.0023
1767.00,-0.0023
1766.00,-0.0023
1765.00,-0.0022
1764.00,-0.0023
1763.00,-0.0023
1762.00,-0.0024
1761.00,-0.0024
1760.00,-0.0024
1759.00,-0.0024
1758.00,-0.0025
1757.00,-0.0025
1756.00,-0.0025
1755.00,-0.0025
1754.00,-0.0025
1753.00,-0.0025
1752.00,-0.0027
1751.00,-0.0028
1750.00,-0.0028
1749.00,-0.0028
1748.00,-0.0028
1747.00,-0.0028
1746.00,-0.0028
1745.00,-0.0028
1744.00,-0.0028
1743.00,-0.0028
1742.00,-0.0028
1741.00,-0.0028
1740.00,-0.0029
1739.00,-0.0029
1738.00,-0.0029
1737.00,-0.0030
1736.00,-0.0030
1735.00,-0.0030
1734.00,-0.0030
1733.00,-0.0030
1732.00,-0.0030
1731.00,-0.0030
1730.00,-0.0030
1729.00,-0.0030
1728.00,-0.0030
1727.00,-0.0030
1726.00,-0.0030
1725.00,-0.0030
1724.00,-0.0030
1723.00,-0.0030
1722.00,-0.0031
1721.00,-0.0031
1720.00,-0.0031
1719.00,-0.0032
1718.00,-0.0033
1717.00,-0.0033
1716.00,-0.0032
1715.00,-0.0032
1714.00,-0.0032
1713.00,-0.0032
1712.00,-0.0032
1711.00,-0.0032
1710.00,-0.0032
1709.00,-0.0032
1708.00,-0.0032
1707.00,-0.0032
1706.00,-0.0032
1705.00,-0.0033
1704.00,-0.0033
1703.00,-0.0032
1702.00,-0.0032
1701.00,-0.0033
1700.00,-0.0034
1699.00,-0.0035
1698.00,-0.0035
1697.00,-0.0034
1696.00,-0.0032
1695.00,-0.0032
1694.00,-0.0032
1693.00,-0.0033
1692.00,-0.0033
1691.00,-0.0032
1690.00,-0.0032
1689.00,-0.0032
1688.00,-0.0032
1687.00,-0.0032
1686.00,-0.0033
1685.00,-0.0035
1684.00,-0.0036
1683.00,-0.0036
1682.00,-0.0036
1681.00,-0.0036
1680.00,-0.0036
1679.00,-0.0035
1678.00,-0.0035
1677.00,-0.0034
1676.00,-0.0033
1675.00,-0.0033
1674.00,-0.0033
1673.00,-0.0034
1672.00,-0.0034
1671.00,-0.0035
1670.00,-0.0036
1669.00,-0.0036
1668.00,-0.0036
1667.00,-0.0036
1666.00,-0.0036
1665.00,-0.0036
1664.00,-0.0037
1663.00,-0.0037
1662.00,-0.0038
1661.00,-0.0038
1660.00,-0.0037
1659.00,-0.0036
1658.00,-0.0036
1657.00,-0.0036
1656.00,-0.0037
1655.00,-0.0038
1654.00,-0.0040
1653.00,-0.0041
1652.00,-0.0040
1651.00,-0.0041
1650.00,-0.0041
1649.00,-0.0041
1648.00,-0.0042
1647.00,-0.0042
1646.00,-0.0042
1645.00,-0.0042
1644.00,-0.0041
1643.00,-0.0042
1642.00,-0.0042
1641.00,-0.0043
1640.00,-0.0043
1639.00,-0.0044
1638.00,-0.0044
1637.00,-0.0045
1636.00,-0.0045
1635.00,-0.0045
1634.00,-0.0046
1633.00,-0.0048
1632.00,-0.0049
1631.00,-0.0050
1630.00,-0.0050
1629.00,-0.0051
1628.00,-0.0052
1627.00,-0.0052
1626.00,-0.0052
1625.00,-0.0051
1624.00,-0.0050
1623.00,-0.0050
1622.00,-0.0051
1621.00,-0.0051
1620.00,-0.0051
1619.00,-0.0052
1618.00,-0.0052
1617.00,-0.0053
1616.00,-0.0054
1615.00,-0.0054
1614.00,-0.0054
1613.00,-0.0054
1612.00,-0.0054
1611.00,-0.0054
1610.00,-0.0055
1609.00,-0.0055
1608.00,-0.0056
1607.00,-0.0056
1606.00,-0.0056
1605.00,-0.0056
1604.00,-0.0056
1603.00,-0.0056
1602.00,-0.0058
1601.00,-0.0059
1600.00,-0.0060
1599.00,-0.0061
1598.00,-0.0060
1597.00,-0.0060
1596.00,-0.0059
1595.00,-0.0059
1594.00,-0.0059
1593.00,-0.0060
1592.00,-0.0061
1591.00,-0.0062
1590.00,-0.0062
1589.00,-0.0063
1588.00,-0.0063
1587.00,-0.0062
1586.00,-0.0062
1585.00,-0.0062
1584.00,-0.0063
1583.00,-0.0063
1582.00,-0.0064
1581.00,-0.0064
1580.00,-0.0064
1579.00,-0.0064
1578.00,-0.0063
1577.00,-0.0062
1576.00,-0.0064
1575.00,-0.0066
1574.00,-0.0067
1573.00,-0.0068
1572.00,-0.0067
1571.00,-0.0067
1570.00,-0.0067
1569.00,-0.0067
1568.00,-0.0066
1567.00,-0.0066
1566.00,-0.0066
1565.00,-0.0067
1564.00,-0.0067
1563.00,-0.0067
1562.00,-0.0066
1561.00,-0.0064
1560.00,-0.0063
1559.00,-0.0064
1558.00,-0.0065
1557.00,-0.0066
1556.00,-0.0067
1555.00,-0.0067
1554.00,-0.0066
1553.00,-0.0065
1552.00,-0.0064
1551.00,-0.0063
1550.00,-0.0064
1549.00,-0.0064
1548.00,-0.0064
1547.00,-0.0064
1546.00,-0.0063
1545.00,-0.0063
1544.00,-0.0062
1543.00,-0.0062
1542.00,-0.0061
1541.00,-0.0061
1540.00,-0.0060
1539.00,-0.0061
1538.00,-0.0062
1537.00,-0.0062
1536.00,-0.0062
1535.00,-0.0061
1534.00,-0.0061
1533.00,-0.0061
1532.00,-0.0061
1531.00,-0.0061
1530.00,-0.0060
1529.00,-0.0059
1528.00,-0.0059
1527.00,-0.0059
1526.00,-0.0060
1525.00,-0.0061
1524.00,-0.0061
1523.00,-0.0061
1522.00,-0.0061
1521.00,-0.0060
1520.00,-0.0058
1519.00,-0.0057
1518.00,-0.0057
1517.00,-0.0057
1516.00,-0.0058
1515.00,-0.0058
1514.00,-0.0058
1513.00,-0.0058
1512.00,-0.0058
1511.00,-0.0058
1510.00,-0.0057
1509.00,-0.0056
1508.00,-0.0055
1507.00,-0.0054
1506.00,-0.0053
1505.00,-0.0054
1504.00,-0.0055
1503.00,-0.0055
1502.00,-0.0056
1501.00,-0.0056
1500.00,-0.0055
1499.00,-0.0054
1498.00,-0.0052
1497.00,-0.0051
1496.00,-0.0051
1495.00,-0.0051
1494.00,-0.0053
1493.00,-0.0054
1492.00,-0.0055
1491.00,-0.0055
1490.00,-0.0054
1489.00,-0.0053
1488.00,-0.0053
1487.00,-0.0053
1486.00,-0.0054
1485.00,-0.0054
1484.00,-0.0055
1483.00,-0.0055
1482.00,-0.0055
1481.00,-0.0055
1480.00,-0.0055
1479.00,-0.0056
1478.00,-0.0056
1477.00,-0.0056
1476.00,-0.0056
1475.00,-0.0057
1474.00,-0.0059
1473.00,-0.0059
1472.00,-0.0058
1471.00,-0.0058
1470.00,-0.0057
1469.00,-0.0056
1468.00,-0.0056
1467.00,-0.0056
1466.00,-0.0057
1465.00,-0.0058
1464.00,-0.0060
1463.00,-0.0060
1462.00,-0.0061
1461.00,-0.0061
1460.00,-0.0061
1459.00,-0.0061
1458.00,-0.0062
1457.00,-0.0062
1456.00,-0.0062
1455.00,-0.0062
1454.00,-0.0062
1453.00,-0.0061
1452.00,-0.0060
1451.00,-0.0060
1450.00,-0.0059
1449.00,-0.0059
1448.00,-0.0058
1447.00,-0.0058
1446.00,-0.0057
1445.00,-0.0057
1444.00,-0.0058
1443.00,-0.0058
1442.00,-0.0059
1441.00,-0.0059
1440.00,-0.0059
1439.00,-0.0058
1438.00,-0.0058
1437.00,-0.0057
1436.00,-0.0057
1435.00,-0.0058
1434.00,-0.0058
1433.00,-0.0058
1432.00,-0.0058
1431.00,-0.0058
1430.00,-0.0059
1429.00,-0.0060
1428.00,-0.0060
1427.00,-0.0060
1426.00,-0.0060
1425.00,-0.0060
1424.00,-0.0061
1423.00,-0.0061
1422.00,-0.0061
1421.00,-0.0061
1420.00,-0.0061
1419.00,-0.0061
1418.00,-0.0061
1417.00,-0.0061
1416.00,-0.0061
1415.00,-0.0062
1414.00,-0.0063
1413.00,-0.0064
1412.00,-0.0066
1411.00,-0.0066
1410.00,-0.0067
1409.00,-0.0067
1408.00,-0.0068
1407.00,-0.0068
1406.00,-0.0069
1405.00,-0.0071
1404.00,-0.0072
1403.00,-0.0073
1402.00,-0.0074
1401.00,-0.0075
1400.00,-0.0076
1399.00,-0.0077
1398.00,-0.0078
1397.00,-0.0078
1396.00,-0.0078
1395.00,-0.0079
1394.00,-0.0080
1393.00,-0.0080
1392.00,-0.0080
1391.00,-0.0080
1390.00,-0.0079
1389.00,-0.0079
1388.00,-0.0079
1387.00,-0.0080
1386.00,-0.0080
1385.00,-0.0081
1384.00,-0.0081
1383.00,-0.0082
1382.00,-0.0081
1381.00,-0.0081
1380.00,-0.0080
1379.00,-0.0079
1378.00,-0.0079
1377.00,-0.0078
1376.00,-0.0077
1375.00,-0.0077
1374.00,-0.0077
1373.00,-0.0076
1372.00,-0.0076
1371.00,-0.0076
1370.00,-0.0075
1369.00,-0.0075
1368.00,-0.0075
1367.00,-0.0075
1366.00,-0.0074
1365.00,-0.0074
1364.00,-0.0074
1363.00,-0.0074
1362.00,-0.0073
1361.00,-0.0073
1360.00,-0.0073
1359.00,-0.0073
1358.00,-0.0073
1357.00,-0.0072
1356.00,-0.0072
1355.00,-0.0071
1354.00,-0.0071
1353.00,-0.0071
1352.00,-0.0071
1351.00,-0.0072
1350.00,-0.0073
1349.00,-0.0074
1348.00,-0.0074
1347.00,-0.0073
1346.00,-0.0073
1345.00,-0.0073
1344.00,-0.0074
1343.00,-0.0074
1342.00,-0.0073
1341.00,-0.0073
1340.00,-0.0072
1339.00,-0.0071
1338.00,-0.0071
1337.00,-0.0071
1336.00,-0.0071
1335.00,-0.0071
1334.00,-0.0071
1333.00,-0.0070
1332.00,-0.0070
1331.00,-0.0070
1330.00,-0.0070
1329.00,-0.0070
1328.00,-0.0070
1327.00,-0.0070
1326.00,-0.0070
1325.00,-0.0070
1324.00,-0.0069
1323.00,-0.0068
1322.00,-0.0067
1321.00,-0.0066
1320.00,-0.0066
1319.00,-0.0066
1318.00,-0.0067
1317.00,-0.0068
1316.00,-0.0069
1315.00,-0.0069
1314.00,-0.0068
1313.00,-0.0067
1312.00,-0.0067
1311.00,-0.0066
1310.00,-0.0066
1309.00,-0.0066
1308.00,-0.0066
1307.00,-0.0067
1306.00,-0.0067
1305.00,-0.0068
1304.00,-0.0067
1303.00,-0.0067
1302.00,-0.0066
1301.00,-0.0066
1300.00,-0.0067
1299.00,-0.0067
1298.00,-0.0068
1297.00,-0.0068
1296.00,-0.0069
1295.00,-0.0069
1294.00,-0.0069
1293.00,-0.0069
1292.00,-0.0069
1291.00,-0.0069
1290.00,-0.0070
1289.00,-0.0070
1288.00,-0.0071
1287.00,-0.0071
1286.00,-0.0072
1285.00,-0.0072
1284.00,-0.0071
1283.00,-0.0070
1282.00,-0.0070
1281.00,-0.0070
1280.00,-0.0071
1279.00,-0.0072
1278.00,-0.0073
1277.00,-0.0074
1276.00,-0.0074
1275.00,-0.0075
1274.00,-0.0075
1273.00,-0.0076
1272.00,-0.0077
1271.00,-0.0077
1270.00,-0.0076
1269.00,-0.0076
1268.00,-0.0077
1267.00,-0.0077
1266.00,-0.0076
1265.00,-0.0076
1264.00,-0.0076
1263.00,-0.0077
1262.00,-0.0078
1261.00,-0.0078
1260.00,-0.0078
1259.00,-0.0077
1258.00,-0.0077
1257.00,-0.0077
1256.00,-0.0078
1255.00,-0.0079
1254.00,-0.0079
1253.00,-0.0078
1252.00,-0.0077
1251.00,-0.0078
1250.00,-0.0079
1249.00,-0.0079
1248.00,-0.0079
1247.00,-0.0078
1246.00,-0.0077
1245.00,-0.0077
1244.00,-0.0076
1243.00,-0.0076
1242.00,-0.0077
1241.00,-0.0077
1240.00,-0.0078
1239.00,-0.0077
1238.00,-0.0077
1237.00,-0.0076
1236.00,-0.0075
1235.00,-0.0075
1234.00,-0.0075
1233.00,-0.0074
1232.00,-0.0074
1231.00,-0.0074
1230.00,-0.0075
1229.00,-0.0075
1228.00,-0.0075
1227.00,-0.0074
1226.00,-0.0074
1225.00,-0.0074
1224.00,-0.0074
1223.00,-0.0075
1222.00,-0.0074
1221.00,-0.0073
1220.00,-0.0072
1219.00,-0.0073
1218.00,-0.0073
1217.00,-0.0073
1216.00,-0.0072
1215.00,-0.0071
1214.00,-0.0071
1213.00,-0.0071
1212.00,-0.0071
1211.00,-0.0070
1210.00,-0.0069
1209.00,-0.0068
1208.00,-0.0068
1207.00,-0.0068
1206.00,-0.0068
1205.00,-0.0068
1204.00,-0.0068
1203.00,-0.0067
1202.00,-0.0067
1201.00,-0.0068
1200.00,-0.0067
1199.00,-0.0067
1198.00,-0.0067
1197.00,-0.0067
1196.00,-0.0068
1195.00,-0.0068
1194.00,-0.0068
1193.00,-0.0068
1192.00,-0.0068
1191.00,-0.0067
1190.00,-0.0067
1189.00,-0.0068
1188.00,-0.0068
1187.00,-0.0068
1186.00,-0.0068
1185.00,-0.0068
1184.00,-0.0068
1183.00,-0.0069
1182.00,-0.0071
1181.00,-0.0072
1180.00,-0.0074
1179.00,-0.0075
1178.00,-0.0075
1177.00,-0.0075
1176.00,-0.0074
1175.00,-0.0073
1174.00,-0.0072
1173.00,-0.0072
1172.00,-0.0072
1171.00,-0.0073
1170.00,-0.0074
1169.00,-0.0075
1168.00,-0.0074
1167.00,-0.0074
1166.00,-0.0074
1165.00,-0.0075
1164.00,-0.0075
1163.00,-0.0076
1162.00,-0.0076
1161.00,-0.0077
1160.00,-0.0077
1159.00,-0.0078
1158.00,-0.0078
1157.00,-0.0079
1156.00,-0.0078
1155.00,-0.0077
1154.00,-0.0077
1153.00,-0.0077
1152.00,-0.0078
1151.00,-0.0078
1150.00,-0.0078
1149.00,-0.0079
1148.00,-0.0078
1147.00,-0.0078
1146.00,-0.0076
1145.00,-0.0075
1144.00,-0.0074
1143.00,-0.0073
1142.00,-0.0072
1141.00,-0.0071
1140.00,-0.0072
1139.00,-0.0072
1138.00,-0.0072
1137.00,-0.0072
1136.00,-0.0071
1135.00,-0.0069
1134.00,-0.0068
1133.00,-0.0067
1132.00,-0.0067
1131.00,-0.0067
1130.00,-0.0067
1129.00,-0.0066
1128.00,-0.0064
1127.00,-0.0064
1126.00,-0.0066
1125.00,-0.0068
1124.00,-0.0068
1123.00,-0.0066
1122.00,-0.0063
1121.00,-0.0060
1120.00,-0.0058
1119.00,-0.0057
1118.00,-0.0057
1117.00,-0.0057
1116.00,-0.0057
1115.00,-0.0056
1114.00,-0.0056
1113.00,-0.0057
1112.00,-0.0058
1111.00,-0.0058
1110.00,-0.0058
1109.00,-0.0057
1108.00,-0.0057
1107.00,-0.0057
1106.00,-0.0057
1105.00,-0.0058
1104.00,-0.0057
1103.00,-0.0056
1102.00,-0.0054
1101.00,-0.0054
1100.00,-0.0055
1099.00,-0.0056
1098.00,-0.0056
1097.00,-0.0057
1096.00,-0.0058
1095.00,-0.0059
1094.00,-0.0060
1093.00,-0.0059
1092.00,-0.0059
1091.00,-0.0059
1090.00,-0.0060
1089.00,-0.0062
1088.00,-0.0063
1087.00,-0.0064
1086.00,-0.0063
1085.00,-0.0063
1084.00,-0.0062
1083.00,-0.0061
1082.00,-0.0060
1081.00,-0.0059
1080.00,-0.0058
1079.00,-0.0056
1078.00,-0.0054
1077.00,-0.0053
1076.00,-0.0054
1075.00,-0.0056
1074.00,-0.0059
1073.00,-0.0061
1072.00,-0.0061
1071.00,-0.0061
1070.00,-0.0062
1069.00,-0.0064
1068.00,-0.0065
1067.00,-0.0064
1066.00,-0.0062
1065.00,-0.0060
1064.00,-0.0058
1063.00,-0.0057
1062.00,-0.0058
1061.00,-0.0060
1060.00,-0.0062
1059.00,-0.0062
1058.00,-0.0061
1057.00,-0.0058
1056.00,-0.0055
1055.00,-0.0053
1054.00,-0.0051
1053.00,-0.0049
1052.00,-0.0048
1051.00,-0.0049
1050.00,-0.0049
1049.00,-0.0048
1048.00,-0.0047
1047.00,-0.0047
1046.00,-0.0047
1045.00,-0.0047
1044.00,-0.0046
1043.00,-0.0045
1042.00,-0.0045
1041.00,-0.0046
1040.00,-0.0046
1039.00,-0.0046
1038.00,-0.0044
1037.00,-0.0043
1036.00,-0.0042
1035.00,-0.0042
1034.00,-0.0043
1033.00,-0.0043
1032.00,-0.0044
1031.00,-0.0044
1030.00,-0.0045
1029.00,-0.0047
1028.00,-0.0048
1027.00,-0.0049
1026.00,-0.0048
1025.00,-0.0047
1024.00,-0.0047
1023.00,-0.0047
1022.00,-0.0049
1021.00,-0.0050
1020.00,-0.0051
1019.00,-0.0051
1018.00,-0.0051
1017.00,-0.0051
1016.00,-0.0050
1015.00,-0.0048
1014.00,-0.0047
1013.00,-0.0046
1012.00,-0.0045
1011.00,-0.0045
1010.00,-0.0044
1009.00,-0.0044
1008.00,-0.0044
1007.00,-0.0044
1006.00,-0.0045
1005.00,-0.0044
1004.00,-0.0043
1003.00,-0.0042
1002.00,-0.0041
1001.00,-0.0042
1000.00,-0.0044
999.00,-0.0047
998.00,-0.0050
997.00,-0.0051
996.00,-0.0050
995.00,-0.0049
994.00,-0.0048
993.00,-0.0049
992.00,-0.0051
991.00,-0.0053
990.00,-0.0054
989.00,-0.0054
988.00,-0.0054
987.00,-0.0053
986.00,-0.0052
985.00,-0.0052
984.00,-0.0053
983.00,-0.0055
982.00,-0.0057
981.00,-0.0057
980.00,-0.0057
979.00,-0.0058
978.00,-0.0059
977.00,-0.0061
976.00,-0.0063
975.00,-0.0064
974.00,-0.0064
973.00,-0.0063
972.00,-0.0064
971.00,-0.0066
970.00,-0.0067
969.00,-0.0069
968.00,-0.0070
967.00,-0.0070
966.00,-0.0071
965.00,-0.0073
964.00,-0.0073
963.00,-0.0073
962.00,-0.0072
961.00,-0.0071
960.00,-0.0071
959.00,-0.0072
958.00,-0.0072
957.00,-0.0073
956.00,-0.0074
955.00,-0.0075
954.00,-0.0077
953.00,-0.0077
952.00,-0.0077
951.00,-0.0075
950.00,-0.0073
949.00,-0.0071
948.00,-0.0071
947.00,-0.0072
946.00,-0.0072
945.00,-0.0072
944.00,-0.0071
943.00,-0.0070
942.00,-0.0069
941.00,-0.0068
940.00,-0.0067
939.00,-0.0066
938.00,-0.0065
937.00,-0.0065
936.00,-0.0066
935.00,-0.0067
934.00,-0.0067
933.00,-0.0066
932.00,-0.0063
931.00,-0.0061
930.00,-0.0060
929.00,-0.0059
928.00,-0.0058
927.00,-0.0057
926.00,-0.0056
925.00,-0.0055
924.00,-0.0055
923.00,-0.0055
922.00,-0.0055
921.00,-0.0055
920.00,-0.0055
919.00,-0.0055
918.00,-0.0055
917.00,-0.0055
916.00,-0.0054
915.00,-0.0053
914.00,-0.0052
913.00,-0.0053
912.00,-0.0055
911.00,-0.0057
910.00,-0.0060
909.00,-0.0063
908.00,-0.0067
907.00,-0.0069
906.00,-0.0069
905.00,-0.0066
904.00,-0.0062
903.00,-0.0059
902.00,-0.0058
901.00,-0.0060
900.00,-0.0062
899.00,-0.0063
898.00,-0.0063
897.00,-0.0062
896.00,-0.0061
895.00,-0.0063
894.00,-0.0065
893.00,-0.0067
892.00,-0.0069
891.00,-0.0070
890.00,-0.0069
889.00,-0.0068
888.00,-0.0067
887.00,-0.0068
886.00,-0.0071
885.00,-0.0073
884.00,-0.0072
883.00,-0.0069
882.00,-0.0065
881.00,-0.0064
880.00,-0.0064
879.00,-0.0066
878.00,-0.0067
877.00,-0.0068
876.00,-0.0069
875.00,-0.0068
874.00,-0.0068
873.00,-0.0067
872.00,-0.0066
871.00,-0.0065
870.00,-0.0064
869.00,-0.0064
868.00,-0.0065
867.00,-0.0066
866.00,-0.0067
865.00,-0.0067
864.00,-0.0066
863.00,-0.0065
862.00,-0.0064
861.00,-0.0063
860.00,-0.0063
859.00,-0.0065
858.00,-0.0068
857.00,-0.0070
856.00,-0.0071
855.00,-0.0069
854.00,-0.0067
853.00,-0.0067
852.00,-0.0068
851.00,-0.0068
850.00,-0.0068
849.00,-0.0068
848.00,-0.0068
847.00,-0.0067
846.00,-0.0067
845.00,-0.0066
844.00,-0.0065
843.00,-0.0067
842.00,-0.0070
841.00,-0.0074
840.00,-0.0077
839.00,-0.0081
838.00,-0.0084
837.00,-0.0085
836.00,-0.0086
835.00,-0.0087
834.00,-0.0087
833.00,-0.0087
832.00,-0.0087
831.00,-0.0087
830.00,-0.0087
829.00,-0.0086
828.00,-0.0084
827.00,-0.0082
826.00,-0.0079
825.00,-0.0077
824.00,-0.0076
823.00,-0.0075
822.00,-0.0076
821.00,-0.0077
820.00,-0.0077
819.00,-0.0077
818.00,-0.0078
817.00,-0.0080
816.00,-0.0083
815.00,-0.0085
814.00,-0.0083
813.00,-0.0079
812.00,-0.0077
811.00,-0.0075
810.00,-0.0074
809.00,-0.0073
808.00,-0.0073
807.00,-0.0073
806.00,-0.0074
805.00,-0.0075
804.00,-0.0074
803.00,-0.0072
802.00,-0.0068
801.00,-0.0065
800.00,-0.0064
799.00,-0.0063
798.00,-0.0065
797.00,-0.0067
796.00,-0.0070
795.00,-0.0073
794.00,-0.0077
793.00,-0.0080
792.00,-0.0081
791.00,-0.0080
790.00,-0.0078
789.00,-0.0077
788.00,-0.0078
787.00,-0.0079
786.00,-0.0079
785.00,-0.0079
784.00,-0.0078
783.00,-0.0078
782.00,-0.0079
781.00,-0.0080
780.00,-0.0082
779.00,-0.0083
778.00,-0.0082
777.00,-0.0081
776.00,-0.0080
775.00,-0.0081
774.00,-0.0083
773.00,-0.0087
772.00,-0.0090
771.00,-0.0091
770.00,-0.0091
769.00,-0.0091
768.00,-0.0091
767.00,-0.0092
766.00,-0.0094
765.00,-0.0095
764.00,-0.0096
763.00,-0.0096
762.00,-0.0097
761.00,-0.0097
760.00,-0.0097
759.00,-0.0094
758.00,-0.0089
757.00,-0.0085
756.00,-0.0082
755.00,-0.0082
754.00,-0.0082
753.00,-0.0083
752.00,-0.0082
751.00,-0.0082
750.00,-0.0081
749.00,-0.0081
748.00,-0.0081
747.00,-0.0081
746.00,-0.0082
745.00,-0.0085
744.00,-0.0088
743.00,-0.0089
742.00,-0.0090
741.00,-0.0091
740.00,-0.0092
739.00,-0.0094
738.00,-0.0094
737.00,-0.0093
736.00,-0.0093
735.00,-0.0094
734.00,-0.0094
733.00,-0.0094
732.00,-0.0093
731.00,-0.0092
730.00,-0.0091
729.00,-0.0090
728.00,-0.0090
727.00,-0.0090
726.00,-0.0091
725.00,-0.0094
724.00,-0.0097
723.00,-0.0102
722.00,-0.0105
721.00,-0.0107
720.00,-0.0108
719.00,-0.0107
718.00,-0.0107
717.00,-0.0107
716.00,-0.0108
715.00,-0.0109
714.00,-0.0110
713.00,-0.0110
712.00,-0.0107
711.00,-0.0105
710.00,-0.0104
709.00,-0.0103
708.00,-0.0103
707.00,-0.0103
706.00,-0.0103
705.00,-0.0102
704.00,-0.0099
703.00,-0.0097
702.00,-0.0099
701.00,-0.0103
700.00,-0.0108
699.00,-0.0110
698.00,-0.0109
697.00,-0.0108
696.00,-0.0107
695.00,-0.0104
694.00,-0.0098
693.00,-0.0091
692.00,-0.0085
691.00,-0.0082
690.00,-0.0080
689.00,-0.0080
688.00,-0.0082
687.00,-0.0085
686.00,-0.0089
685.00,-0.0091
684.00,-0.0093
683.00,-0.0095
682.00,-0.0097
681.00,-0.0099
680.00,-0.0100
679.00,-0.0101
678.00,-0.0102
677.00,-0.0103
676.00,-0.0104
675.00,-0.0107
674.00,-0.0110
673.00,-0.0113
672.00,-0.0113
671.00,-0.0112
670.00,-0.0111
669.00,-0.0112
668.00,-0.0110
667.00,-0.0106
666.00,-0.0103
665.00,-0.0104
664.00,-0.0107
663.00,-0.0113
662.00,-0.0121
661.00,-0.0127
660.00,-0.0134
659.00,-0.0138
658.00,-0.0140
657.00,-0.0139
656.00,-0.0137
655.00,-0.0139
654.00,-0.0145
653.00,-0.0153
652.00,-0.0161
651.00,-0.0164
650.00,-0.0164
