Created as New Dataset,Monday, April 03 2023
cm-1,A
4000.00,0.0214
3999.00,0.0215
3998.00,0.0215
3997.00,0.0215
3996.00,0.0215
3995.00,0.0214
3994.00,0.0214
3993.00,0.0214
3992.00,0.0214
3991.00,0.0213
3990.00,0.0213
3989.00,0.0213
3988.00,0.0213
3987.00,0.0213
3986.00,0.0213
3985.00,0.0213
3984.00,0.0213
3983.00,0.0213
3982.00,0.0213
3981.00,0.0213
3980.00,0.0212
3979.00,0.0212
3978.00,0.0212
3977.00,0.0212
3976.00,0.0212
3975.00,0.0212
3974.00,0.0212
3973.00,0.0212
3972.00,0.0212
3971.00,0.0213
3970.00,0.0213
3969.00,0.0213
3968.00,0.0212
3967.00,0.0211
3966.00,0.0211
3965.00,0.0211
3964.00,0.0211
3963.00,0.0212
3962.00,0.0213
3961.00,0.0213
3960.00,0.0212
3959.00,0.0211
3958.00,0.0211
3957.00,0.0210
3956.00,0.0210
3955.00,0.0210
3954.00,0.0210
3953.00,0.0210
3952.00,0.0210
3951.00,0.0211
3950.00,0.0211
3949.00,0.0212
3948.00,0.0212
3947.00,0.0212
3946.00,0.0213
3945.00,0.0212
3944.00,0.0211
3943.00,0.0210
3942.00,0.0209
3941.00,0.0209
3940.00,0.0209
3939.00,0.0209
3938.00,0.0209
3937.00,0.0209
3936.00,0.0209
3935.00,0.0209
3934.00,0.0209
3933.00,0.0209
3932.00,0.0209
3931.00,0.0210
3930.00,0.0210
3929.00,0.0211
3928.00,0.0211
3927.00,0.0211
3926.00,0.0211
3925.00,0.0210
3924.00,0.0210
3923.00,0.0210
3922.00,0.0210
3921.00,0.0210
3920.00,0.0209
3919.00,0.0209
3918.00,0.0209
3917.00,0.0209
3916.00,0.0209
3915.00,0.0209
3914.00,0.0209
3913.00,0.0208
3912.00,0.0207
3911.00,0.0207
3910.00,0.0206
3909.00,0.0207
3908.00,0.0207
3907.00,0.0208
3906.00,0.0208
3905.00,0.0207
3904.00,0.0207
3903.00,0.0209
3902.00,0.0211
3901.00,0.0212
3900.00,0.0212
3899.00,0.0210
3898.00,0.0208
3897.00,0.0207
3896.00,0.0207
3895.00,0.0207
3894.00,0.0208
3893.00,0.0208
3892.00,0.0206
3891.00,0.0204
3890.00,0.0204
3889.00,0.0205
3888.00,0.0206
3887.00,0.0205
3886.00,0.0203
3885.00,0.0202
3884.00,0.0204
3883.00,0.0207
3882.00,0.0207
3881.00,0.0205
3880.00,0.0203
3879.00,0.0203
3878.00,0.0206
3877.00,0.0208
3876.00,0.0208
3875.00,0.0206
3874.00,0.0204
3873.00,0.0205
3872.00,0.0207
3871.00,0.0207
3870.00,0.0205
3869.00,0.0204
3868.00,0.0206
3867.00,0.0207
3866.00,0.0206
3865.00,0.0205
3864.00,0.0205
3863.00,0.0206
3862.00,0.0206
3861.00,0.0206
3860.00,0.0205
3859.00,0.0204
3858.00,0.0203
3857.00,0.0204
3856.00,0.0204
3855.00,0.0201
3854.00,0.0199
3853.00,0.0200
3852.00,0.0202
3851.00,0.0204
3850.00,0.0204
3849.00,0.0202
3848.00,0.0201
3847.00,0.0200
3846.00,0.0201
3845.00,0.0201
3844.00,0.0201
3843.00,0.0201
3842.00,0.0202
3841.00,0.0204
3840.00,0.0205
3839.00,0.0205
3838.00,0.0204
3837.00,0.0203
3836.00,0.0203
3835.00,0.0203
3834.00,0.0204
3833.00,0.0203
3832.00,0.0202
3831.00,0.0202
3830.00,0.0202
3829.00,0.0203
3828.00,0.0202
3827.00,0.0199
3826.00,0.0198
3825.00,0.0199
3824.00,0.0202
3823.00,0.0204
3822.00,0.0202
3821.00,0.0199
3820.00,0.0199
3819.00,0.0201
3818.00,0.0202
3817.00,0.0201
3816.00,0.0198
3815.00,0.0198
3814.00,0.0199
3813.00,0.0199
3812.00,0.0198
3811.00,0.0196
3810.00,0.0196
3809.00,0.0197
3808.00,0.0196
3807.00,0.0195
3806.00,0.0196
3805.00,0.0199
3804.00,0.0203
3803.00,0.0204
3802.00,0.0201
3801.00,0.0199
3800.00,0.0199
3799.00,0.0200
3798.00,0.0200
3797.00,0.0198
3796.00,0.0196
3795.00,0.0196
3794.00,0.0196
3793.00,0.0196
3792.00,0.0195
3791.00,0.0195
3790.00,0.0194
3789.00,0.0195
3788.00,0.0196
3787.00,0.0197
3786.00,0.0197
3785.00,0.0197
3784.00,0.0197
3783.00,0.0197
3782.00,0.0198
3781.00,0.0197
3780.00,0.0196
3779.00,0.0195
3778.00,0.0195
3777.00,0.0195
3776.00,0.0195
3775.00,0.0194
3774.00,0.0193
3773.00,0.0193
3772.00,0.0193
3771.00,0.0193
3770.00,0.0192
3769.00,0.0192
3768.00,0.0194
3767.00,0.0194
3766.00,0.0194
3765.00,0.0192
3764.00,0.0193
3763.00,0.0194
3762.00,0.0196
3761.00,0.0196
3760.00,0.0195
3759.00,0.0194
3758.00,0.0194
3757.00,0.0193
3756.00,0.0192
3755.00,0.0193
3754.00,0.0192
3753.00,0.0191
3752.00,0.0190
3751.00,0.0191
3750.00,0.0191
3749.00,0.0192
3748.00,0.0195
3747.00,0.0199
3746.00,0.0200
3745.00,0.0196
3744.00,0.0192
3743.00,0.0192
3742.00,0.0193
3741.00,0.0194
3740.00,0.0195
3739.00,0.0196
3738.00,0.0198
3737.00,0.0198
3736.00,0.0197
3735.00,0.0197
3734.00,0.0197
3733.00,0.0196
3732.00,0.0194
3731.00,0.0192
3730.00,0.0192
3729.00,0.0193
3728.00,0.0193
3727.00,0.0193
3726.00,0.0194
3725.00,0.0195
3724.00,0.0196
3723.00,0.0197
3722.00,0.0198
3721.00,0.0199
3720.00,0.0201
3719.00,0.0202
3718.00,0.0203
3717.00,0.0203
3716.00,0.0204
3715.00,0.0207
3714.00,0.0210
3713.00,0.0213
3712.00,0.0217
3711.00,0.0221
3710.00,0.0224
3709.00,0.0227
3708.00,0.0229
3707.00,0.0232
3706.00,0.0236
3705.00,0.0241
3704.00,0.0246
3703.00,0.0250
3702.00,0.0254
3701.00,0.0259
3700.00,0.0264
3699.00,0.0267
3698.00,0.0270
3697.00,0.0271
3696.00,0.0271
3695.00,0.0271
3694.00,0.0271
3693.00,0.0271
3692.00,0.0271
3691.00,0.0272
3690.00,0.0273
3689.00,0.0273
3688.00,0.0270
3687.00,0.0266
3686.00,0.0263
3685.00,0.0258
3684.00,0.0254
3683.00,0.0251
3682.00,0.0247
3681.00,0.0244
3680.00,0.0240
3679.00,0.0238
3678.00,0.0238
3677.00,0.0237
3676.00,0.0235
3675.00,0.0235
3674.00,0.0237
3673.00,0.0239
3672.00,0.0241
3671.00,0.0242
3670.00,0.0243
3669.00,0.0246
3668.00,0.0248
3667.00,0.0248
3666.00,0.0247
3665.00,0.0247
3664.00,0.0247
3663.00,0.0249
3662.00,0.0251
3661.00,0.0254
3660.00,0.0257
3659.00,0.0262
3658.00,0.0266
3657.00,0.0270
3656.00,0.0272
3655.00,0.0275
3654.00,0.0279
3653.00,0.0282
3652.00,0.0283
3651.00,0.0284
3650.00,0.0287
3649.00,0.0293
3648.00,0.0296
3647.00,0.0296
3646.00,0.0294
3645.00,0.0292
3644.00,0.0289
3643.00,0.0287
3642.00,0.0286
3641.00,0.0284
3640.00,0.0284
3639.00,0.0283
3638.00,0.0282
3637.00,0.0282
3636.00,0.0283
3635.00,0.0283
3634.00,0.0282
3633.00,0.0282
3632.00,0.0284
3631.00,0.0287
3630.00,0.0291
3629.00,0.0297
3628.00,0.0304
3627.00,0.0311
3626.00,0.0315
3625.00,0.0319
3624.00,0.0324
3623.00,0.0330
3622.00,0.0337
3621.00,0.0342
3620.00,0.0344
3619.00,0.0343
3618.00,0.0339
3617.00,0.0334
3616.00,0.0329
3615.00,0.0323
3614.00,0.0318
3613.00,0.0314
3612.00,0.0312
3611.00,0.0311
3610.00,0.0311
3609.00,0.0311
3608.00,0.0311
3607.00,0.0311
3606.00,0.0310
3605.00,0.0308
3604.00,0.0307
3603.00,0.0306
3602.00,0.0307
3601.00,0.0309
3600.00,0.0310
3599.00,0.0310
3598.00,0.0310
3597.00,0.0310
3596.00,0.0310
3595.00,0.0310
3594.00,0.0310
3593.00,0.0310
3592.00,0.0309
3591.00,0.0309
3590.00,0.0310
3589.00,0.0311
3588.00,0.0314
3587.00,0.0317
3586.00,0.0319
3585.00,0.0319
3584.00,0.0318
3583.00,0.0317
3582.00,0.0316
3581.00,0.0316
3580.00,0.0316
3579.00,0.0317
3578.00,0.0318
3577.00,0.0318
3576.00,0.0319
3575.00,0.0320
3574.00,0.0321
3573.00,0.0321
3572.00,0.0322
3571.00,0.0322
3570.00,0.0323
3569.00,0.0324
3568.00,0.0327
3567.00,0.0331
3566.00,0.0334
3565.00,0.0335
3564.00,0.0334
3563.00,0.0333
3562.00,0.0332
3561.00,0.0332
3560.00,0.0333
3559.00,0.0333
3558.00,0.0334
3557.00,0.0335
3556.00,0.0336
3555.00,0.0337
3554.00,0.0339
3553.00,0.0340
3552.00,0.0342
3551.00,0.0343
3550.00,0.0344
3549.00,0.0345
3548.00,0.0346
3547.00,0.0347
3546.00,0.0349
3545.00,0.0350
3544.00,0.0351
3543.00,0.0351
3542.00,0.0351
3541.00,0.0351
3540.00,0.0350
3539.00,0.0349
3538.00,0.0349
3537.00,0.0349
3536.00,0.0350
3535.00,0.0352
3534.00,0.0353
3533.00,0.0354
3532.00,0.0355
3531.00,0.0356
3530.00,0.0357
3529.00,0.0357
3528.00,0.0357
3527.00,0.0358
3526.00,0.0360
3525.00,0.0362
3524.00,0.0365
3523.00,0.0367
3522.00,0.0368
3521.00,0.0367
3520.00,0.0366
3519.00,0.0365
3518.00,0.0364
3517.00,0.0364
3516.00,0.0364
3515.00,0.0365
3514.00,0.0367
3513.00,0.0368
3512.00,0.0370
3511.00,0.0371
3510.00,0.0372
3509.00,0.0373
3508.00,0.0374
3507.00,0.0374
3506.00,0.0375
3505.00,0.0376
3504.00,0.0377
3503.00,0.0379
3502.00,0.0380
3501.00,0.0381
3500.00,0.0381
3499.00,0.0381
3498.00,0.0382
3497.00,0.0382
3496.00,0.0383
3495.00,0.0384
3494.00,0.0384
3493.00,0.0384
3492.00,0.0384
3491.00,0.0385
3490.00,0.0385
3489.00,0.0386
3488.00,0.0387
3487.00,0.0388
3486.00,0.0388
3485.00,0.0389
3484.00,0.0389
3483.00,0.0390
3482.00,0.0391
3481.00,0.0392
3480.00,0.0393
3479.00,0.0394
3478.00,0.0395
3477.00,0.0396
3476.00,0.0397
3475.00,0.0398
3474.00,0.0399
3473.00,0.0399
3472.00,0.0400
3471.00,0.0401
3470.00,0.0401
3469.00,0.0402
3468.00,0.0403
3467.00,0.0404
3466.00,0.0405
3465.00,0.0406
3464.00,0.0406
3463.00,0.0406
3462.00,0.0405
3461.00,0.0405
3460.00,0.0406
3459.00,0.0407
3458.00,0.0409
3457.00,0.0410
3456.00,0.0410
3455.00,0.0410
3454.00,0.0410
3453.00,0.0411
3452.00,0.0412
3451.00,0.0413
3450.00,0.0414
3449.00,0.0415
3448.00,0.0416
3447.00,0.0417
3446.00,0.0417
3445.00,0.0418
3444.00,0.0419
3443.00,0.0419
3442.00,0.0419
3441.00,0.0418
3440.00,0.0418
3439.00,0.0418
3438.00,0.0418
3437.00,0.0419
3436.00,0.0419
3435.00,0.0420
3434.00,0.0420
3433.00,0.0420
3432.00,0.0421
3431.00,0.0422
3430.00,0.0423
3429.00,0.0423
3428.00,0.0423
3427.00,0.0423
3426.00,0.0424
3425.00,0.0426
3424.00,0.0427
3423.00,0.0428
3422.00,0.0429
3421.00,0.0429
3420.00,0.0430
3419.00,0.0431
3418.00,0.0431
3417.00,0.0431
3416.00,0.0430
3415.00,0.0430
3414.00,0.0430
3413.00,0.0431
3412.00,0.0432
3411.00,0.0433
3410.00,0.0434
3409.00,0.0434
3408.00,0.0435
3407.00,0.0435
3406.00,0.0435
3405.00,0.0435
3404.00,0.0435
3403.00,0.0435
3402.00,0.0435
3401.00,0.0436
3400.00,0.0437
3399.00,0.0437
3398.00,0.0438
3397.00,0.0438
3396.00,0.0437
3395.00,0.0438
3394.00,0.0438
3393.00,0.0439
3392.00,0.0439
3391.00,0.0440
3390.00,0.0441
3389.00,0.0441
3388.00,0.0441
3387.00,0.0441
3386.00,0.0441
3385.00,0.0441
3384.00,0.0442
3383.00,0.0443
3382.00,0.0444
3381.00,0.0444
3380.00,0.0444
3379.00,0.0444
3378.00,0.0445
3377.00,0.0444
3376.00,0.0444
3375.00,0.0444
3374.00,0.0444
3373.00,0.0444
3372.00,0.0443
3371.00,0.0443
3370.00,0.0444
3369.00,0.0445
3368.00,0.0446
3367.00,0.0446
3366.00,0.0446
3365.00,0.0445
3364.00,0.0445
3363.00,0.0445
3362.00,0.0447
3361.00,0.0448
3360.00,0.0449
3359.00,0.0449
3358.00,0.0449
3357.00,0.0449
3356.00,0.0448
3355.00,0.0449
3354.00,0.0449
3353.00,0.0449
3352.00,0.0448
3351.00,0.0448
3350.00,0.0449
3349.00,0.0449
3348.00,0.0449
3347.00,0.0449
3346.00,0.0449
3345.00,0.0448
3344.00,0.0448
3343.00,0.0447
3342.00,0.0447
3341.00,0.0448
3340.00,0.0449
3339.00,0.0449
3338.00,0.0450
3337.00,0.0450
3336.00,0.0449
3335.00,0.0449
3334.00,0.0449
3333.00,0.0449
3332.00,0.0449
3331.00,0.0448
3330.00,0.0448
3329.00,0.0447
3328.00,0.0447
3327.00,0.0448
3326.00,0.0449
3325.00,0.0450
3324.00,0.0450
3323.00,0.0450
3322.00,0.0450
3321.00,0.0449
3320.00,0.0449
3319.00,0.0449
3318.00,0.0449
3317.00,0.0449
3316.00,0.0449
3315.00,0.0448
3314.00,0.0448
3313.00,0.0448
3312.00,0.0448
3311.00,0.0448
3310.00,0.0449
3309.00,0.0450
3308.00,0.0450
3307.00,0.0450
3306.00,0.0450
3305.00,0.0450
3304.00,0.0450
3303.00,0.0449
3302.00,0.0449
3301.00,0.0449
3300.00,0.0449
3299.00,0.0448
3298.00,0.0448
3297.00,0.0449
3296.00,0.0450
3295.00,0.0450
3294.00,0.0450
3293.00,0.0450
3292.00,0.0449
3291.00,0.0449
3290.00,0.0449
3289.00,0.0449
3288.00,0.0450
3287.00,0.0450
3286.00,0.0450
3285.00,0.0451
3284.00,0.0451
3283.00,0.0451
3282.00,0.0450
3281.00,0.0450
3280.00,0.0450
3279.00,0.0450
3278.00,0.0450
3277.00,0.0450
3276.00,0.0451
3275.00,0.0451
3274.00,0.0451
3273.00,0.0451
3272.00,0.0451
3271.00,0.0451
3270.00,0.0451
3269.00,0.0451
3268.00,0.0451
3267.00,0.0451
3266.00,0.0451
3265.00,0.0450
3264.00,0.0450
3263.00,0.0449
3262.00,0.0449
3261.00,0.0450
3260.00,0.0450
3259.00,0.0451
3258.00,0.0451
3257.00,0.0450
3256.00,0.0449
3255.00,0.0449
3254.00,0.0449
3253.00,0.0449
3252.00,0.0449
3251.00,0.0449
3250.00,0.0449
3249.00,0.0449
3248.00,0.0449
3247.00,0.0449
3246.00,0.0449
3245.00,0.0449
3244.00,0.0449
3243.00,0.0449
3242.00,0.0448
3241.00,0.0448
3240.00,0.0448
3239.00,0.0448
3238.00,0.0449
3237.00,0.0450
3236.00,0.0450
3235.00,0.0451
3234.00,0.0451
3233.00,0.0451
3232.00,0.0451
3231.00,0.0450
3230.00,0.0450
3229.00,0.0449
3228.00,0.0449
3227.00,0.0448
3226.00,0.0449
3225.00,0.0449
3224.00,0.0448
3223.00,0.0448
3222.00,0.0448
3221.00,0.0448
3220.00,0.0448
3219.00,0.0447
3218.00,0.0447
3217.00,0.0447
3216.00,0.0448
3215.00,0.0449
3214.00,0.0449
3213.00,0.0449
3212.00,0.0448
3211.00,0.0447
3210.00,0.0446
3209.00,0.0446
3208.00,0.0446
3207.00,0.0446
3206.00,0.0446
3205.00,0.0446
3204.00,0.0447
3203.00,0.0447
3202.00,0.0447
3201.00,0.0446
3200.00,0.0446
3199.00,0.0446
3198.00,0.0446
3197.00,0.0446
3196.00,0.0446
3195.00,0.0446
3194.00,0.0445
3193.00,0.0445
3192.00,0.0445
3191.00,0.0444
3190.00,0.0443
3189.00,0.0443
3188.00,0.0442
3187.00,0.0442
3186.00,0.0442
3185.00,0.0442
3184.00,0.0442
3183.00,0.0442
3182.00,0.0442
3181.00,0.0442
3180.00,0.0442
3179.00,0.0441
3178.00,0.0440
3177.00,0.0439
3176.00,0.0438
3175.00,0.0438
3174.00,0.0439
3173.00,0.0439
3172.00,0.0439
3171.00,0.0439
3170.00,0.0439
3169.00,0.0438
3168.00,0.0438
3167.00,0.0438
3166.00,0.0438
3165.00,0.0439
3164.00,0.0440
3163.00,0.0440
3162.00,0.0439
3161.00,0.0438
3160.00,0.0436
3159.00,0.0434
3158.00,0.0433
3157.00,0.0433
3156.00,0.0433
3155.00,0.0433
3154.00,0.0434
3153.00,0.0435
3152.00,0.0434
3151.00,0.0434
3150.00,0.0433
3149.00,0.0433
3148.00,0.0433
3147.00,0.0433
3146.00,0.0433
3145.00,0.0432
3144.00,0.0432
3143.00,0.0431
3142.00,0.0431
3141.00,0.0431
3140.00,0.0430
3139.00,0.0430
3138.00,0.0430
3137.00,0.0430
3136.00,0.0431
3135.00,0.0430
3134.00,0.0430
3133.00,0.0429
3132.00,0.0429
3131.00,0.0429
3130.00,0.0429
3129.00,0.0429
3128.00,0.0428
3127.00,0.0428
3126.00,0.0427
3125.00,0.0427
3124.00,0.0427
3123.00,0.0427
3122.00,0.0426
3121.00,0.0426
3120.00,0.0425
3119.00,0.0426
3118.00,0.0426
3117.00,0.0425
3116.00,0.0425
3115.00,0.0425
3114.00,0.0425
3113.00,0.0424
3112.00,0.0424
3111.00,0.0423
3110.00,0.0423
3109.00,0.0422
3108.00,0.0422
3107.00,0.0422
3106.00,0.0423
3105.00,0.0423
3104.00,0.0423
3103.00,0.0422
3102.00,0.0421
3101.00,0.0421
3100.00,0.0420
3099.00,0.0420
3098.00,0.0420
3097.00,0.0420
3096.00,0.0420
3095.00,0.0421
3094.00,0.0422
3093.00,0.0422
3092.00,0.0422
3091.00,0.0421
3090.00,0.0419
3089.00,0.0418
3088.00,0.0417
3087.00,0.0417
3086.00,0.0417
3085.00,0.0418
3084.00,0.0418
3083.00,0.0418
3082.00,0.0418
3081.00,0.0418
3080.00,0.0418
3079.00,0.0418
3078.00,0.0418
3077.00,0.0417
3076.00,0.0417
3075.00,0.0417
3074.00,0.0417
3073.00,0.0417
3072.00,0.0417
3071.00,0.0416
3070.00,0.0416
3069.00,0.0416
3068.00,0.0416
3067.00,0.0416
3066.00,0.0415
3065.00,0.0414
3064.00,0.0413
3063.00,0.0413
3062.00,0.0412
3061.00,0.0412
3060.00,0.0412
3059.00,0.0412
3058.00,0.0411
3057.00,0.0411
3056.00,0.0411
3055.00,0.0410
3054.00,0.0410
3053.00,0.0409
3052.00,0.0409
3051.00,0.0409
3050.00,0.0410
3049.00,0.0410
3048.00,0.0410
3047.00,0.0409
3046.00,0.0409
3045.00,0.0409
3044.00,0.0408
3043.00,0.0407
3042.00,0.0406
3041.00,0.0405
3040.00,0.0404
3039.00,0.0404
3038.00,0.0404
3037.00,0.0404
3036.00,0.0405
3035.00,0.0405
3034.00,0.0405
3033.00,0.0404
3032.00,0.0404
3031.00,0.0403
3030.00,0.0402
3029.00,0.0401
3028.00,0.0400
3027.00,0.0400
3026.00,0.0400
3025.00,0.0399
3024.00,0.0399
3023.00,0.0399
3022.00,0.0398
3021.00,0.0398
3020.00,0.0397
3019.00,0.0396
3018.00,0.0395
3017.00,0.0395
3016.00,0.0394
3015.00,0.0394
3014.00,0.0393
3013.00,0.0392
3012.00,0.0392
3011.00,0.0391
3010.00,0.0390
3009.00,0.0389
3008.00,0.0386
3007.00,0.0385
3006.00,0.0383
3005.00,0.0382
3004.00,0.0381
3003.00,0.0380
3002.00,0.0378
3001.00,0.0377
3000.00,0.0375
2999.00,0.0374
2998.00,0.0373
2997.00,0.0371
2996.00,0.0370
2995.00,0.0370
2994.00,0.0369
2993.00,0.0368
2992.00,0.0367
2991.00,0.0366
2990.00,0.0365
2989.00,0.0365
2988.00,0.0364
2987.00,0.0362
2986.00,0.0359
2985.00,0.0355
2984.00,0.0351
2983.00,0.0348
2982.00,0.0346
2981.00,0.0347
2980.00,0.0348
2979.00,0.0350
2978.00,0.0352
2977.00,0.0355
2976.00,0.0356
2975.00,0.0357
2974.00,0.0357
2973.00,0.0355
2972.00,0.0355
2971.00,0.0355
2970.00,0.0357
2969.00,0.0359
2968.00,0.0361
2967.00,0.0362
2966.00,0.0363
2965.00,0.0364
2964.00,0.0365
2963.00,0.0366
2962.00,0.0367
2961.00,0.0368
2960.00,0.0368
2959.00,0.0368
2958.00,0.0368
2957.00,0.0369
2956.00,0.0370
2955.00,0.0371
2954.00,0.0373
2953.00,0.0374
2952.00,0.0375
2951.00,0.0375
2950.00,0.0376
2949.00,0.0377
2948.00,0.0377
2947.00,0.0377
2946.00,0.0377
2945.00,0.0378
2944.00,0.0379
2943.00,0.0380
2942.00,0.0381
2941.00,0.0382
2940.00,0.0382
2939.00,0.0382
2938.00,0.0382
2937.00,0.0383
2936.00,0.0383
2935.00,0.0384
2934.00,0.0384
2933.00,0.0384
2932.00,0.0384
2931.00,0.0384
2930.00,0.0385
2929.00,0.0385
2928.00,0.0386
2927.00,0.0386
2926.00,0.0386
2925.00,0.0385
2924.00,0.0385
2923.00,0.0385
2922.00,0.0384
2921.00,0.0384
2920.00,0.0383
2919.00,0.0381
2918.00,0.0380
2917.00,0.0379
2916.00,0.0378
2915.00,0.0377
2914.00,0.0376
2913.00,0.0375
2912.00,0.0375
2911.00,0.0375
2910.00,0.0375
2909.00,0.0374
2908.00,0.0373
2907.00,0.0372
2906.00,0.0372
2905.00,0.0371
2904.00,0.0370
2903.00,0.0369
2902.00,0.0369
2901.00,0.0368
2900.00,0.0368
2899.00,0.0367
2898.00,0.0366
2897.00,0.0366
2896.00,0.0365
2895.00,0.0365
2894.00,0.0364
2893.00,0.0363
2892.00,0.0363
2891.00,0.0362
2890.00,0.0361
2889.00,0.0361
2888.00,0.0361
2887.00,0.0361
2886.00,0.0361
2885.00,0.0360
2884.00,0.0360
2883.00,0.0359
2882.00,0.0359
2881.00,0.0359
2880.00,0.0360
2879.00,0.0360
2878.00,0.0361
2877.00,0.0361
2876.00,0.0361
2875.00,0.0361
2874.00,0.0360
2873.00,0.0360
2872.00,0.0359
2871.00,0.0359
2870.00,0.0359
2869.00,0.0359
2868.00,0.0360
2867.00,0.0360
2866.00,0.0360
2865.00,0.0360
2864.00,0.0360
2863.00,0.0360
2862.00,0.0361
2861.00,0.0362
2860.00,0.0363
2859.00,0.0364
2858.00,0.0365
2857.00,0.0365
2856.00,0.0365
2855.00,0.0364
2854.00,0.0363
2853.00,0.0362
2852.00,0.0362
2851.00,0.0362
2850.00,0.0362
2849.00,0.0362
2848.00,0.0361
2847.00,0.0361
2846.00,0.0360
2845.00,0.0359
2844.00,0.0358
2843.00,0.0357
2842.00,0.0356
2841.00,0.0355
2840.00,0.0354
2839.00,0.0353
2838.00,0.0352
2837.00,0.0352
2836.00,0.0352
2835.00,0.0352
2834.00,0.0352
2833.00,0.0352
2832.00,0.0351
2831.00,0.0349
2830.00,0.0349
2829.00,0.0349
2828.00,0.0349
2827.00,0.0349
2826.00,0.0349
2825.00,0.0348
2824.00,0.0348
2823.00,0.0347
2822.00,0.0347
2821.00,0.0346
2820.00,0.0345
2819.00,0.0344
2818.00,0.0344
2817.00,0.0344
2816.00,0.0343
2815.00,0.0343
2814.00,0.0342
2813.00,0.0342
2812.00,0.0341
2811.00,0.0341
2810.00,0.0341
2809.00,0.0341
2808.00,0.0341
2807.00,0.0341
2806.00,0.0341
2805.00,0.0341
2804.00,0.0340
2803.00,0.0340
2802.00,0.0340
2801.00,0.0339
2800.00,0.0339
2799.00,0.0339
2798.00,0.0338
2797.00,0.0338
2796.00,0.0338
2795.00,0.0338
2794.00,0.0337
2793.00,0.0337
2792.00,0.0337
2791.00,0.0336
2790.00,0.0336
2789.00,0.0336
2788.00,0.0336
2787.00,0.0335
2786.00,0.0335
2785.00,0.0334
2784.00,0.0334
2783.00,0.0333
2782.00,0.0333
2781.00,0.0332
2780.00,0.0331
2779.00,0.0331
2778.00,0.0331
2777.00,0.0332
2776.00,0.0332
2775.00,0.0332
2774.00,0.0331
2773.00,0.0331
2772.00,0.0330
2771.00,0.0329
2770.00,0.0328
2769.00,0.0327
2768.00,0.0327
2767.00,0.0327
2766.00,0.0327
2765.00,0.0327
2764.00,0.0327
2763.00,0.0327
2762.00,0.0326
2761.00,0.0326
2760.00,0.0326
2759.00,0.0326
2758.00,0.0326
2757.00,0.0325
2756.00,0.0325
2755.00,0.0325
2754.00,0.0325
2753.00,0.0325
2752.00,0.0324
2751.00,0.0324
2750.00,0.0324
2749.00,0.0324
2748.00,0.0323
2747.00,0.0323
2746.00,0.0323
2745.00,0.0323
2744.00,0.0323
2743.00,0.0323
2742.00,0.0322
2741.00,0.0322
2740.00,0.0322
2739.00,0.0321
2738.00,0.0320
2737.00,0.0319
2736.00,0.0319
2735.00,0.0319
2734.00,0.0319
2733.00,0.0320
2732.00,0.0320
2731.00,0.0319
2730.00,0.0318
2729.00,0.0318
2728.00,0.0318
2727.00,0.0317
2726.00,0.0317
2725.00,0.0317
2724.00,0.0317
2723.00,0.0317
2722.00,0.0316
2721.00,0.0316
2720.00,0.0315
2719.00,0.0315
2718.00,0.0315
2717.00,0.0315
2716.00,0.0315
2715.00,0.0315
2714.00,0.0314
2713.00,0.0314
2712.00,0.0314
2711.00,0.0314
2710.00,0.0314
2709.00,0.0313
2708.00,0.0313
2707.00,0.0312
2706.00,0.0312
2705.00,0.0311
2704.00,0.0311
2703.00,0.0311
2702.00,0.0311
2701.00,0.0311
2700.00,0.0311
2699.00,0.0310
2698.00,0.0310
2697.00,0.0310
2696.00,0.0310
2695.00,0.0310
2694.00,0.0310
2693.00,0.0310
2692.00,0.0310
2691.00,0.0310
2690.00,0.0309
2689.00,0.0309
2688.00,0.0309
2687.00,0.0309
2686.00,0.0308
2685.00,0.0308
2684.00,0.0308
2683.00,0.0308
2682.00,0.0307
2681.00,0.0307
2680.00,0.0307
2679.00,0.0306
2678.00,0.0305
2677.00,0.0304
2676.00,0.0304
2675.00,0.0304
2674.00,0.0304
2673.00,0.0304
2672.00,0.0304
2671.00,0.0303
2670.00,0.0303
2669.00,0.0303
2668.00,0.0303
2667.00,0.0303
2666.00,0.0303
2665.00,0.0303
2664.00,0.0303
2663.00,0.0304
2662.00,0.0304
2661.00,0.0304
2660.00,0.0304
2659.00,0.0304
2658.00,0.0304
2657.00,0.0304
2656.00,0.0304
2655.00,0.0304
2654.00,0.0304
2653.00,0.0304
2652.00,0.0304
2651.00,0.0304
2650.00,0.0304
2649.00,0.0304
2648.00,0.0304
2647.00,0.0303
2646.00,0.0302
2645.00,0.0303
2644.00,0.0303
2643.00,0.0303
2642.00,0.0303
2641.00,0.0303
2640.00,0.0303
2639.00,0.0303
2638.00,0.0303
2637.00,0.0303
2636.00,0.0303
2635.00,0.0303
2634.00,0.0303
2633.00,0.0303
2632.00,0.0303
2631.00,0.0303
2630.00,0.0302
2629.00,0.0301
2628.00,0.0301
2627.00,0.0300
2626.00,0.0301
2625.00,0.0302
2624.00,0.0303
2623.00,0.0303
2622.00,0.0304
2621.00,0.0304
2620.00,0.0304
2619.00,0.0304
2618.00,0.0303
2617.00,0.0303
2616.00,0.0303
2615.00,0.0302
2614.00,0.0302
2613.00,0.0302
2612.00,0.0303
2611.00,0.0303
2610.00,0.0303
2609.00,0.0302
2608.00,0.0301
2607.00,0.0301
2606.00,0.0301
2605.00,0.0302
2604.00,0.0302
2603.00,0.0303
2602.00,0.0302
2601.00,0.0302
2600.00,0.0302
2599.00,0.0301
2598.00,0.0301
2597.00,0.0300
2596.00,0.0300
2595.00,0.0300
2594.00,0.0300
2593.00,0.0300
2592.00,0.0301
2591.00,0.0301
2590.00,0.0302
2589.00,0.0302
2588.00,0.0301
2587.00,0.0301
2586.00,0.0300
2585.00,0.0299
2584.00,0.0299
2583.00,0.0299
2582.00,0.0299
2581.00,0.0300
2580.00,0.0300
2579.00,0.0300
2578.00,0.0300
2577.00,0.0299
2576.00,0.0299
2575.00,0.0298
2574.00,0.0299
2573.00,0.0299
2572.00,0.0299
2571.00,0.0299
2570.00,0.0298
2569.00,0.0298
2568.00,0.0298
2567.00,0.0299
2566.00,0.0300
2565.00,0.0300
2564.00,0.0300
2563.00,0.0299
2562.00,0.0299
2561.00,0.0300
2560.00,0.0300
2559.00,0.0300
2558.00,0.0300
2557.00,0.0300
2556.00,0.0300
2555.00,0.0300
2554.00,0.0300
2553.00,0.0299
2552.00,0.0298
2551.00,0.0297
2550.00,0.0296
2549.00,0.0295
2548.00,0.0294
2547.00,0.0294
2546.00,0.0294
2545.00,0.0295
2544.00,0.0296
2543.00,0.0296
2542.00,0.0295
2541.00,0.0294
2540.00,0.0293
2539.00,0.0292
2538.00,0.0291
2537.00,0.0291
2536.00,0.0291
2535.00,0.0291
2534.00,0.0292
2533.00,0.0293
2532.00,0.0293
2531.00,0.0292
2530.00,0.0292
2529.00,0.0291
2528.00,0.0291
2527.00,0.0291
2526.00,0.0291
2525.00,0.0291
2524.00,0.0290
2523.00,0.0290
2522.00,0.0290
2521.00,0.0290
2520.00,0.0291
2519.00,0.0291
2518.00,0.0292
2517.00,0.0293
2516.00,0.0294
2515.00,0.0293
2514.00,0.0293
2513.00,0.0292
2512.00,0.0292
2511.00,0.0292
2510.00,0.0293
2509.00,0.0293
2508.00,0.0293
2507.00,0.0293
2506.00,0.0292
2505.00,0.0291
2504.00,0.0291
2503.00,0.0291
2502.00,0.0291
2501.00,0.0292
2500.00,0.0292
2499.00,0.0292
2498.00,0.0292
2497.00,0.0291
2496.00,0.0291
2495.00,0.0292
2494.00,0.0292
2493.00,0.0293
2492.00,0.0292
2491.00,0.0292
2490.00,0.0292
2489.00,0.0292
2488.00,0.0292
2487.00,0.0292
2486.00,0.0291
2485.00,0.0290
2484.00,0.0289
2483.00,0.0288
2482.00,0.0289
2481.00,0.0289
2480.00,0.0290
2479.00,0.0290
2478.00,0.0289
2477.00,0.0289
2476.00,0.0288
2475.00,0.0288
2474.00,0.0289
2473.00,0.0289
2472.00,0.0290
2471.00,0.0289
2470.00,0.0289
2469.00,0.0288
2468.00,0.0287
2467.00,0.0286
2466.00,0.0286
2465.00,0.0286
2464.00,0.0286
2463.00,0.0286
2462.00,0.0286
2461.00,0.0286
2460.00,0.0286
2459.00,0.0286
2458.00,0.0287
2457.00,0.0287
2456.00,0.0287
2455.00,0.0287
2454.00,0.0287
2453.00,0.0288
2452.00,0.0289
2451.00,0.0289
2450.00,0.0288
2449.00,0.0287
2448.00,0.0286
2447.00,0.0286
2446.00,0.0285
2445.00,0.0284
2444.00,0.0284
2443.00,0.0283
2442.00,0.0283
2441.00,0.0283
2440.00,0.0284
2439.00,0.0284
2438.00,0.0284
2437.00,0.0284
2436.00,0.0283
2435.00,0.0283
2434.00,0.0282
2433.00,0.0282
2432.00,0.0282
2431.00,0.0282
2430.00,0.0282
2429.00,0.0283
2428.00,0.0282
2427.00,0.0282
2426.00,0.0282
2425.00,0.0281
2424.00,0.0281
2423.00,0.0281
2422.00,0.0281
2421.00,0.0281
2420.00,0.0281
2419.00,0.0280
2418.00,0.0280
2417.00,0.0279
2416.00,0.0279
2415.00,0.0278
2414.00,0.0278
2413.00,0.0279
2412.00,0.0279
2411.00,0.0279
2410.00,0.0278
2409.00,0.0278
2408.00,0.0278
2407.00,0.0277
2406.00,0.0277
2405.00,0.0276
2404.00,0.0276
2403.00,0.0276
2402.00,0.0276
2401.00,0.0276
2400.00,0.0276
2399.00,0.0276
2398.00,0.0275
2397.00,0.0275
2396.00,0.0274
2395.00,0.0274
2394.00,0.0273
2393.00,0.0273
2392.00,0.0273
2391.00,0.0272
2390.00,0.0272
2389.00,0.0272
2388.00,0.0272
2387.00,0.0272
2386.00,0.0272
2385.00,0.0271
2384.00,0.0270
2383.00,0.0270
2382.00,0.0270
2381.00,0.0270
2380.00,0.0271
2379.00,0.0271
2378.00,0.0271
2377.00,0.0269
2376.00,0.0268
2375.00,0.0268
2374.00,0.0268
2373.00,0.0269
2372.00,0.0269
2371.00,0.0268
2370.00,0.0266
2369.00,0.0263
2368.00,0.0261
2367.00,0.0262
2366.00,0.0265
2365.00,0.0269
2364.00,0.0270
2363.00,0.0268
2362.00,0.0266
2361.00,0.0265
2360.00,0.0265
2359.00,0.0266
2358.00,0.0265
2357.00,0.0264
2356.00,0.0263
2355.00,0.0262
2354.00,0.0262
2353.00,0.0265
2352.00,0.0269
2351.00,0.0272
2350.00,0.0272
2349.00,0.0269
2348.00,0.0265
2347.00,0.0261
2346.00,0.0259
2345.00,0.0260
2344.00,0.0262
2343.00,0.0264
2342.00,0.0265
2341.00,0.0266
2340.00,0.0266
2339.00,0.0264
2338.00,0.0263
2337.00,0.0262
2336.00,0.0262
2335.00,0.0262
2334.00,0.0262
2333.00,0.0262
2332.00,0.0261
2331.00,0.0260
2330.00,0.0259
2329.00,0.0259
2328.00,0.0261
2327.00,0.0263
2326.00,0.0265
2325.00,0.0265
2324.00,0.0264
2323.00,0.0263
2322.00,0.0262
2321.00,0.0263
2320.00,0.0262
2319.00,0.0262
2318.00,0.0261
2317.00,0.0261
2316.00,0.0261
2315.00,0.0260
2314.00,0.0260
2313.00,0.0260
2312.00,0.0260
2311.00,0.0260
2310.00,0.0261
2309.00,0.0262
2308.00,0.0263
2307.00,0.0263
2306.00,0.0262
2305.00,0.0262
2304.00,0.0262
2303.00,0.0260
2302.00,0.0259
2301.00,0.0259
2300.00,0.0260
2299.00,0.0260
2298.00,0.0261
2297.00,0.0261
2296.00,0.0261
2295.00,0.0261
2294.00,0.0262
2293.00,0.0264
2292.00,0.0266
2291.00,0.0267
2290.00,0.0266
2289.00,0.0266
2288.00,0.0266
2287.00,0.0267
2286.00,0.0268
2285.00,0.0269
2284.00,0.0270
2283.00,0.0270
2282.00,0.0269
2281.00,0.0268
2280.00,0.0267
2279.00,0.0267
2278.00,0.0268
2277.00,0.0267
2276.00,0.0266
2275.00,0.0265
2274.00,0.0263
2273.00,0.0262
2272.00,0.0262
2271.00,0.0263
2270.00,0.0263
2269.00,0.0264
2268.00,0.0263
2267.00,0.0263
2266.00,0.0262
2265.00,0.0263
2264.00,0.0263
2263.00,0.0264
2262.00,0.0264
2261.00,0.0264
2260.00,0.0264
2259.00,0.0264
2258.00,0.0263
2257.00,0.0260
2256.00,0.0258
2255.00,0.0258
2254.00,0.0258
2253.00,0.0259
2252.00,0.0259
2251.00,0.0259
2250.00,0.0259
2249.00,0.0259
2248.00,0.0259
2247.00,0.0259
2246.00,0.0260
2245.00,0.0262
2244.00,0.0263
2243.00,0.0263
2242.00,0.0262
2241.00,0.0261
2240.00,0.0261
2239.00,0.0260
2238.00,0.0260
2237.00,0.0260
2236.00,0.0261
2235.00,0.0262
2234.00,0.0263
2233.00,0.0263
2232.00,0.0261
2231.00,0.0258
2230.00,0.0256
2229.00,0.0255
2228.00,0.0255
2227.00,0.0256
2226.00,0.0257
2225.00,0.0257
2224.00,0.0257
2223.00,0.0256
2222.00,0.0255
2221.00,0.0255
2220.00,0.0254
2219.00,0.0254
2218.00,0.0255
2217.00,0.0255
2216.00,0.0256
2215.00,0.0258
2214.00,0.0259
2213.00,0.0259
2212.00,0.0257
2211.00,0.0255
2210.00,0.0255
2209.00,0.0255
2208.00,0.0256
2207.00,0.0256
2206.00,0.0256
2205.00,0.0256
2204.00,0.0255
2203.00,0.0255
2202.00,0.0256
2201.00,0.0256
2200.00,0.0256
2199.00,0.0255
2198.00,0.0254
2197.00,0.0253
2196.00,0.0253
2195.00,0.0252
2194.00,0.0252
2193.00,0.0252
2192.00,0.0250
2191.00,0.0248
2190.00,0.0246
2189.00,0.0245
2188.00,0.0247
2187.00,0.0251
2186.00,0.0254
2185.00,0.0255
2184.00,0.0252
2183.00,0.0249
2182.00,0.0247
2181.00,0.0247
2180.00,0.0250
2179.00,0.0252
2178.00,0.0255
2177.00,0.0256
2176.00,0.0255
2175.00,0.0253
2174.00,0.0252
2173.00,0.0251
2172.00,0.0250
2171.00,0.0251
2170.00,0.0253
2169.00,0.0256
2168.00,0.0257
2167.00,0.0257
2166.00,0.0256
2165.00,0.0257
2164.00,0.0259
2163.00,0.0262
2162.00,0.0263
2161.00,0.0260
2160.00,0.0253
2159.00,0.0244
2158.00,0.0237
2157.00,0.0235
2156.00,0.0235
2155.00,0.0236
2154.00,0.0239
2153.00,0.0242
2152.00,0.0243
2151.00,0.0242
2150.00,0.0238
2149.00,0.0236
2148.00,0.0236
2147.00,0.0238
2146.00,0.0241
2145.00,0.0243
2144.00,0.0245
2143.00,0.0245
2142.00,0.0245
2141.00,0.0245
2140.00,0.0244
2139.00,0.0241
2138.00,0.0238
2137.00,0.0235
2136.00,0.0233
2135.00,0.0231
2134.00,0.0231
2133.00,0.0232
2132.00,0.0233
2131.00,0.0234
2130.00,0.0234
2129.00,0.0235
2128.00,0.0236
2127.00,0.0237
2126.00,0.0237
2125.00,0.0237
2124.00,0.0236
2123.00,0.0235
2122.00,0.0234
2121.00,0.0234
2120.00,0.0234
2119.00,0.0234
2118.00,0.0234
2117.00,0.0233
2116.00,0.0232
2115.00,0.0230
2114.00,0.0229
2113.00,0.0229
2112.00,0.0231
2111.00,0.0233
2110.00,0.0235
2109.00,0.0236
2108.00,0.0237
2107.00,0.0237
2106.00,0.0237
2105.00,0.0236
2104.00,0.0236
2103.00,0.0234
2102.00,0.0233
2101.00,0.0232
2100.00,0.0231
2099.00,0.0229
2098.00,0.0228
2097.00,0.0228
2096.00,0.0228
2095.00,0.0228
2094.00,0.0229
2093.00,0.0229
2092.00,0.0229
2091.00,0.0229
2090.00,0.0228
2089.00,0.0228
2088.00,0.0228
2087.00,0.0228
2086.00,0.0229
2085.00,0.0231
2084.00,0.0232
2083.00,0.0233
2082.00,0.0232
2081.00,0.0231
2080.00,0.0231
2079.00,0.0231
2078.00,0.0231
2077.00,0.0231
2076.00,0.0231
2075.00,0.0231
2074.00,0.0230
2073.00,0.0230
2072.00,0.0230
2071.00,0.0230
2070.00,0.0231
2069.00,0.0230
2068.00,0.0228
2067.00,0.0227
2066.00,0.0226
2065.00,0.0226
2064.00,0.0226
2063.00,0.0227
2062.00,0.0228
2061.00,0.0227
2060.00,0.0226
2059.00,0.0224
2058.00,0.0224
2057.00,0.0225
2056.00,0.0226
2055.00,0.0226
2054.00,0.0227
2053.00,0.0230
2052.00,0.0232
2051.00,0.0233
2050.00,0.0231
2049.00,0.0229
2048.00,0.0227
2047.00,0.0226
2046.00,0.0226
2045.00,0.0228
2044.00,0.0231
2043.00,0.0232
2042.00,0.0232
2041.00,0.0230
2040.00,0.0226
2039.00,0.0224
2038.00,0.0224
2037.00,0.0227
2036.00,0.0230
2035.00,0.0230
2034.00,0.0227
2033.00,0.0225
2032.00,0.0226
2031.00,0.0229
2030.00,0.0230
2029.00,0.0228
2028.00,0.0225
2027.00,0.0222
2026.00,0.0221
2025.00,0.0219
2024.00,0.0217
2023.00,0.0214
2022.00,0.0212
2021.00,0.0211
2020.00,0.0210
2019.00,0.0209
2018.00,0.0208
2017.00,0.0208
2016.00,0.0210
2015.00,0.0212
2014.00,0.0215
2013.00,0.0217
2012.00,0.0217
2011.00,0.0217
2010.00,0.0217
2009.00,0.0218
2008.00,0.0217
2007.00,0.0215
2006.00,0.0213
2005.00,0.0212
2004.00,0.0212
2003.00,0.0213
2002.00,0.0216
2001.00,0.0218
2000.00,0.0218
1999.00,0.0216
1998.00,0.0214
1997.00,0.0214
1996.00,0.0216
1995.00,0.0219
1994.00,0.0221
1993.00,0.0221
1992.00,0.0220
1991.00,0.0218
1990.00,0.0216
1989.00,0.0215
1988.00,0.0215
1987.00,0.0214
1986.00,0.0214
1985.00,0.0213
1984.00,0.0213
1983.00,0.0214
1982.00,0.0215
1981.00,0.0215
1980.00,0.0213
1979.00,0.0208
1978.00,0.0203
1977.00,0.0200
1976.00,0.0199
1975.00,0.0202
1974.00,0.0206
1973.00,0.0207
1972.00,0.0205
1971.00,0.0203
1970.00,0.0202
1969.00,0.0203
1968.00,0.0205
1967.00,0.0204
1966.00,0.0202
1965.00,0.0200
1964.00,0.0200
1963.00,0.0200
1962.00,0.0200
1961.00,0.0200
1960.00,0.0200
1959.00,0.0201
1958.00,0.0201
1957.00,0.0200
1956.00,0.0199
1955.00,0.0199
1954.00,0.0199
1953.00,0.0200
1952.00,0.0200
1951.00,0.0199
1950.00,0.0197
1949.00,0.0196
1948.00,0.0197
1947.00,0.0198
1946.00,0.0198
1945.00,0.0198
1944.00,0.0196
1943.00,0.0194
1942.00,0.0192
1941.00,0.0190
1940.00,0.0189
1939.00,0.0187
1938.00,0.0187
1937.00,0.0187
1936.00,0.0187
1935.00,0.0187
1934.00,0.0186
1933.00,0.0185
1932.00,0.0186
1931.00,0.0188
1930.00,0.0190
1929.00,0.0192
1928.00,0.0193
1927.00,0.0194
1926.00,0.0194
1925.00,0.0195
1924.00,0.0194
1923.00,0.0193
1922.00,0.0192
1921.00,0.0191
1920.00,0.0190
1919.00,0.0187
1918.00,0.0184
1917.00,0.0183
1916.00,0.0183
1915.00,0.0184
1914.00,0.0185
1913.00,0.0185
1912.00,0.0185
1911.00,0.0184
1910.00,0.0183
1909.00,0.0182
1908.00,0.0180
1907.00,0.0180
1906.00,0.0179
1905.00,0.0180
1904.00,0.0181
1903.00,0.0181
1902.00,0.0181
1901.00,0.0180
1900.00,0.0180
1899.00,0.0180
1898.00,0.0180
1897.00,0.0180
1896.00,0.0178
1895.00,0.0176
1894.00,0.0175
1893.00,0.0175
1892.00,0.0177
1891.00,0.0177
1890.00,0.0177
1889.00,0.0176
1888.00,0.0175
1887.00,0.0174
1886.00,0.0173
1885.00,0.0172
1884.00,0.0172
1883.00,0.0172
1882.00,0.0171
1881.00,0.0171
1880.00,0.0170
1879.00,0.0169
1878.00,0.0168
1877.00,0.0168
1876.00,0.0168
1875.00,0.0169
1874.00,0.0170
1873.00,0.0172
1872.00,0.0174
1871.00,0.0175
1870.00,0.0173
1869.00,0.0171
1868.00,0.0168
1867.00,0.0167
1866.00,0.0166
1865.00,0.0165
1864.00,0.0164
1863.00,0.0162
1862.00,0.0161
1861.00,0.0159
1860.00,0.0158
1859.00,0.0158
1858.00,0.0158
1857.00,0.0158
1856.00,0.0159
1855.00,0.0158
1854.00,0.0157
1853.00,0.0156
1852.00,0.0156
1851.00,0.0157
1850.00,0.0158
1849.00,0.0159
1848.00,0.0159
1847.00,0.0159
1846.00,0.0159
1845.00,0.0156
1844.00,0.0152
1843.00,0.0150
1842.00,0.0150
1841.00,0.0152
1840.00,0.0152
1839.00,0.0152
1838.00,0.0151
1837.00,0.0151
1836.00,0.0150
1835.00,0.0149
1834.00,0.0150
1833.00,0.0153
1832.00,0.0155
1831.00,0.0155
1830.00,0.0153
1829.00,0.0151
1828.00,0.0150
1827.00,0.0150
1826.00,0.0149
1825.00,0.0147
1824.00,0.0146
1823.00,0.0145
1822.00,0.0145
1821.00,0.0144
1820.00,0.0144
1819.00,0.0142
1818.00,0.0141
1817.00,0.0140
1816.00,0.0139
1815.00,0.0139
1814.00,0.0140
1813.00,0.0141
1812.00,0.0142
1811.00,0.0142
1810.00,0.0141
1809.00,0.0140
1808.00,0.0141
1807.00,0.0141
1806.00,0.0141
1805.00,0.0142
1804.00,0.0144
1803.00,0.0145
1802.00,0.0145
1801.00,0.0144
1800.00,0.0144
1799.00,0.0143
1798.00,0.0144
1797.00,0.0145
1796.00,0.0147
1795.00,0.0149
1794.00,0.0149
1793.00,0.0149
1792.00,0.0148
1791.00,0.0147
1790.00,0.0147
1789.00,0.0149
1788.00,0.0151
1787.00,0.0153
1786.00,0.0154
1785.00,0.0156
1784.00,0.0158
1783.00,0.0161
1782.00,0.0163
1781.00,0.0164
1780.00,0.0164
1779.00,0.0165
1778.00,0.0168
1777.00,0.0171
1776.00,0.0175
1775.00,0.0179
1774.00,0.0181
1773.00,0.0181
1772.00,0.0181
1771.00,0.0181
1770.00,0.0183
1769.00,0.0185
1768.00,0.0186
1767.00,0.0188
1766.00,0.0191
1765.00,0.0195
1764.00,0.0199
1763.00,0.0201
1762.00,0.0201
1761.00,0.0203
1760.00,0.0205
1759.00,0.0209
1758.00,0.0211
1757.00,0.0213
1756.00,0.0216
1755.00,0.0220
1754.00,0.0223
1753.00,0.0227
1752.00,0.0229
1751.00,0.0232
1750.00,0.0237
1749.00,0.0242
1748.00,0.0246
1747.00,0.0250
1746.00,0.0253
1745.00,0.0257
1744.00,0.0261
1743.00,0.0265
1742.00,0.0269
1741.00,0.0272
1740.00,0.0275
1739.00,0.0278
1738.00,0.0281
1737.00,0.0285
1736.00,0.0288
1735.00,0.0290
1734.00,0.0292
1733.00,0.0297
1732.00,0.0303
1731.00,0.0308
1730.00,0.0311
1729.00,0.0314
1728.00,0.0317
1727.00,0.0320
1726.00,0.0323
1725.00,0.0327
1724.00,0.0331
1723.00,0.0334
1722.00,0.0337
1721.00,0.0341
1720.00,0.0343
1719.00,0.0344
1718.00,0.0345
1717.00,0.0348
1716.00,0.0352
1715.00,0.0354
1714.00,0.0356
1713.00,0.0358
1712.00,0.0360
1711.00,0.0361
1710.00,0.0363
1709.00,0.0366
1708.00,0.0369
1707.00,0.0371
1706.00,0.0373
1705.00,0.0374
1704.00,0.0375
1703.00,0.0376
1702.00,0.0376
1701.00,0.0374
1700.00,0.0373
1699.00,0.0372
1698.00,0.0373
1697.00,0.0374
1696.00,0.0373
1695.00,0.0373
1694.00,0.0374
1693.00,0.0376
1692.00,0.0378
1691.00,0.0379
1690.00,0.0381
1689.00,0.0383
1688.00,0.0384
1687.00,0.0385
1686.00,0.0386
1685.00,0.0387
1684.00,0.0389
1683.00,0.0392
1682.00,0.0393
1681.00,0.0394
1680.00,0.0395
1679.00,0.0397
1678.00,0.0399
1677.00,0.0402
1676.00,0.0405
1675.00,0.0408
1674.00,0.0411
1673.00,0.0415
1672.00,0.0418
1671.00,0.0420
1670.00,0.0423
1669.00,0.0425
1668.00,0.0427
1667.00,0.0429
1666.00,0.0431
1665.00,0.0433
1664.00,0.0436
1663.00,0.0439
1662.00,0.0442
1661.00,0.0446
1660.00,0.0449
1659.00,0.0453
1658.00,0.0456
1657.00,0.0459
1656.00,0.0460
1655.00,0.0460
1654.00,0.0459
1653.00,0.0466
1652.00,0.0474
1651.00,0.0480
1650.00,0.0484
1649.00,0.0488
1648.00,0.0490
1647.00,0.0493
1646.00,0.0497
1645.00,0.0500
1644.00,0.0503
1643.00,0.0506
1642.00,0.0508
1641.00,0.0511
1640.00,0.0514
1639.00,0.0518
1638.00,0.0521
1637.00,0.0526
1636.00,0.0533
1635.00,0.0539
1634.00,0.0542
1633.00,0.0542
1632.00,0.0543
1631.00,0.0545
1630.00,0.0548
1629.00,0.0553
1628.00,0.0557
1627.00,0.0561
1626.00,0.0565
1625.00,0.0569
1624.00,0.0574
1623.00,0.0579
1622.00,0.0582
1621.00,0.0583
1620.00,0.0583
1619.00,0.0584
1618.00,0.0586
1617.00,0.0589
1616.00,0.0594
1615.00,0.0598
1614.00,0.0601
1613.00,0.0603
1612.00,0.0605
1611.00,0.0607
1610.00,0.0610
1609.00,0.0613
1608.00,0.0615
1607.00,0.0618
1606.00,0.0620
1605.00,0.0623
1604.00,0.0625
1603.00,0.0627
1602.00,0.0628
1601.00,0.0629
1600.00,0.0631
1599.00,0.0633
1598.00,0.0636
1597.00,0.0639
1596.00,0.0642
1595.00,0.0644
1594.00,0.0647
1593.00,0.0648
1592.00,0.0650
1591.00,0.0651
1590.00,0.0653
1589.00,0.0654
1588.00,0.0656
1587.00,0.0658
1586.00,0.0660
1585.00,0.0661
1584.00,0.0663
1583.00,0.0664
1582.00,0.0666
1581.00,0.0666
1580.00,0.0667
1579.00,0.0667
1578.00,0.0668
1577.00,0.0670
1576.00,0.0673
1575.00,0.0675
1574.00,0.0674
1573.00,0.0673
1572.00,0.0672
1571.00,0.0673
1570.00,0.0674
1569.00,0.0675
1568.00,0.0675
1567.00,0.0675
1566.00,0.0674
1565.00,0.0672
1564.00,0.0670
1563.00,0.0667
1562.00,0.0663
1561.00,0.0661
1560.00,0.0660
1559.00,0.0667
1558.00,0.0671
1557.00,0.0666
1556.00,0.0661
1555.00,0.0657
1554.00,0.0654
1553.00,0.0652
1552.00,0.0650
1551.00,0.0648
1550.00,0.0645
1549.00,0.0641
1548.00,0.0637
1547.00,0.0633
1546.00,0.0630
1545.00,0.0628
1544.00,0.0625
1543.00,0.0623
1542.00,0.0619
1541.00,0.0616
1540.00,0.0615
1539.00,0.0612
1538.00,0.0607
1537.00,0.0602
1536.00,0.0599
1535.00,0.0596
1534.00,0.0592
1533.00,0.0589
1532.00,0.0584
1531.00,0.0580
1530.00,0.0576
1529.00,0.0573
1528.00,0.0570
1527.00,0.0566
1526.00,0.0562
1525.00,0.0557
1524.00,0.0554
1523.00,0.0550
1522.00,0.0547
1521.00,0.0545
1520.00,0.0545
1519.00,0.0544
1518.00,0.0542
1517.00,0.0538
1516.00,0.0534
1515.00,0.0529
1514.00,0.0524
1513.00,0.0521
1512.00,0.0519
1511.00,0.0517
1510.00,0.0515
1509.00,0.0513
1508.00,0.0512
1507.00,0.0510
1506.00,0.0507
1505.00,0.0502
1504.00,0.0498
1503.00,0.0496
1502.00,0.0493
1501.00,0.0491
1500.00,0.0490
1499.00,0.0489
1498.00,0.0487
1497.00,0.0485
1496.00,0.0485
1495.00,0.0483
1494.00,0.0482
1493.00,0.0481
1492.00,0.0481
1491.00,0.0481
1490.00,0.0483
1489.00,0.0484
1488.00,0.0484
1487.00,0.0483
1486.00,0.0481
1485.00,0.0479
1484.00,0.0478
1483.00,0.0477
1482.00,0.0478
1481.00,0.0479
1480.00,0.0479
1479.00,0.0480
1478.00,0.0481
1477.00,0.0482
1476.00,0.0483
1475.00,0.0484
1474.00,0.0484
1473.00,0.0487
1472.00,0.0491
1471.00,0.0493
1470.00,0.0495
1469.00,0.0496
1468.00,0.0498
1467.00,0.0499
1466.00,0.0500
1465.00,0.0501
1464.00,0.0502
1463.00,0.0502
1462.00,0.0502
1461.00,0.0502
1460.00,0.0503
1459.00,0.0504
1458.00,0.0505
1457.00,0.0508
1456.00,0.0511
1455.00,0.0512
1454.00,0.0513
1453.00,0.0514
1452.00,0.0515
1451.00,0.0517
1450.00,0.0518
1449.00,0.0520
1448.00,0.0523
1447.00,0.0526
1446.00,0.0527
1445.00,0.0527
1444.00,0.0528
1443.00,0.0528
1442.00,0.0529
1441.00,0.0529
1440.00,0.0530
1439.00,0.0532
1438.00,0.0533
1437.00,0.0536
1436.00,0.0540
1435.00,0.0542
1434.00,0.0543
1433.00,0.0544
1432.00,0.0546
1431.00,0.0548
1430.00,0.0549
1429.00,0.0549
1428.00,0.0549
1427.00,0.0551
1426.00,0.0552
1425.00,0.0554
1424.00,0.0557
1423.00,0.0558
1422.00,0.0558
1421.00,0.0557
1420.00,0.0559
1419.00,0.0563
1418.00,0.0567
1417.00,0.0569
1416.00,0.0570
1415.00,0.0570
1414.00,0.0569
1413.00,0.0569
1412.00,0.0569
1411.00,0.0570
1410.00,0.0571
1409.00,0.0571
1408.00,0.0573
1407.00,0.0574
1406.00,0.0575
1405.00,0.0576
1404.00,0.0576
1403.00,0.0577
1402.00,0.0576
1401.00,0.0576
1400.00,0.0577
1399.00,0.0579
1398.00,0.0581
1397.00,0.0583
1396.00,0.0584
1395.00,0.0585
1394.00,0.0586
1393.00,0.0586
1392.00,0.0586
1391.00,0.0587
1390.00,0.0587
1389.00,0.0587
1388.00,0.0589
1387.00,0.0591
1386.00,0.0593
1385.00,0.0594
1384.00,0.0594
1383.00,0.0595
1382.00,0.0596
1381.00,0.0598
1380.00,0.0599
1379.00,0.0600
1378.00,0.0602
1377.00,0.0604
1376.00,0.0606
1375.00,0.0607
1374.00,0.0608
1373.00,0.0609
1372.00,0.0609
1371.00,0.0609
1370.00,0.0609
1369.00,0.0609
1368.00,0.0609
1367.00,0.0609
1366.00,0.0608
1365.00,0.0608
1364.00,0.0608
1363.00,0.0609
1362.00,0.0610
1361.00,0.0610
1360.00,0.0609
1359.00,0.0607
1358.00,0.0607
1357.00,0.0607
1356.00,0.0607
1355.00,0.0607
1354.00,0.0606
1353.00,0.0605
1352.00,0.0603
1351.00,0.0602
1350.00,0.0601
1349.00,0.0599
1348.00,0.0598
1347.00,0.0597
1346.00,0.0596
1345.00,0.0595
1344.00,0.0593
1343.00,0.0592
1342.00,0.0592
1341.00,0.0592
1340.00,0.0593
1339.00,0.0593
1338.00,0.0593
1337.00,0.0591
1336.00,0.0590
1335.00,0.0588
1334.00,0.0587
1333.00,0.0585
1332.00,0.0584
1331.00,0.0584
1330.00,0.0583
1329.00,0.0582
1328.00,0.0582
1327.00,0.0581
1326.00,0.0580
1325.00,0.0580
1324.00,0.0580
1323.00,0.0580
1322.00,0.0581
1321.00,0.0581
1320.00,0.0581
1319.00,0.0581
1318.00,0.0580
1317.00,0.0578
1316.00,0.0576
1315.00,0.0576
1314.00,0.0576
1313.00,0.0577
1312.00,0.0579
1311.00,0.0579
1310.00,0.0579
1309.00,0.0579
1308.00,0.0579
1307.00,0.0578
1306.00,0.0578
1305.00,0.0578
1304.00,0.0578
1303.00,0.0579
1302.00,0.0579
1301.00,0.0579
1300.00,0.0579
1299.00,0.0578
1298.00,0.0578
1297.00,0.0577
1296.00,0.0577
1295.00,0.0578
1294.00,0.0579
1293.00,0.0580
1292.00,0.0581
1291.00,0.0582
1290.00,0.0583
1289.00,0.0583
1288.00,0.0583
1287.00,0.0583
1286.00,0.0584
1285.00,0.0584
1284.00,0.0586
1283.00,0.0587
1282.00,0.0588
1281.00,0.0589
1280.00,0.0589
1279.00,0.0588
1278.00,0.0588
1277.00,0.0588
1276.00,0.0589
1275.00,0.0590
1274.00,0.0590
1273.00,0.0591
1272.00,0.0591
1271.00,0.0592
1270.00,0.0592
1269.00,0.0593
1268.00,0.0593
1267.00,0.0595
1266.00,0.0597
1265.00,0.0600
1264.00,0.0601
1263.00,0.0601
1262.00,0.0601
1261.00,0.0602
1260.00,0.0604
1259.00,0.0606
1258.00,0.0607
1257.00,0.0609
1256.00,0.0609
1255.00,0.0609
1254.00,0.0610
1253.00,0.0613
1252.00,0.0615
1251.00,0.0617
1250.00,0.0617
1249.00,0.0618
1248.00,0.0620
1247.00,0.0622
1246.00,0.0624
1245.00,0.0626
1244.00,0.0628
1243.00,0.0629
1242.00,0.0629
1241.00,0.0629
1240.00,0.0630
1239.00,0.0631
1238.00,0.0633
1237.00,0.0635
1236.00,0.0636
1235.00,0.0637
1234.00,0.0638
1233.00,0.0639
1232.00,0.0640
1231.00,0.0641
1230.00,0.0641
1229.00,0.0641
1228.00,0.0642
1227.00,0.0643
1226.00,0.0644
1225.00,0.0644
1224.00,0.0644
1223.00,0.0645
1222.00,0.0645
1221.00,0.0646
1220.00,0.0646
1219.00,0.0646
1218.00,0.0647
1217.00,0.0649
1216.00,0.0650
1215.00,0.0650
1214.00,0.0650
1213.00,0.0650
1212.00,0.0651
1211.00,0.0652
1210.00,0.0653
1209.00,0.0654
1208.00,0.0656
1207.00,0.0657
1206.00,0.0657
1205.00,0.0657
1204.00,0.0658
1203.00,0.0658
1202.00,0.0659
1201.00,0.0659
1200.00,0.0660
1199.00,0.0661
1198.00,0.0662
1197.00,0.0663
1196.00,0.0664
1195.00,0.0664
1194.00,0.0663
1193.00,0.0663
1192.00,0.0664
1191.00,0.0666
1190.00,0.0667
1189.00,0.0667
1188.00,0.0667
1187.00,0.0667
1186.00,0.0668
1185.00,0.0669
1184.00,0.0670
1183.00,0.0672
1182.00,0.0673
1181.00,0.0672
1180.00,0.0672
1179.00,0.0672
1178.00,0.0673
1177.00,0.0675
1176.00,0.0677
1175.00,0.0679
1174.00,0.0681
1173.00,0.0682
1172.00,0.0683
1171.00,0.0684
1170.00,0.0685
1169.00,0.0687
1168.00,0.0690
1167.00,0.0692
1166.00,0.0693
1165.00,0.0694
1164.00,0.0695
1163.00,0.0694
1162.00,0.0694
1161.00,0.0694
1160.00,0.0694
1159.00,0.0694
1158.00,0.0693
1157.00,0.0692
1156.00,0.0693
1155.00,0.0695
1154.00,0.0696
1153.00,0.0697
1152.00,0.0697
1151.00,0.0698
1150.00,0.0698
1149.00,0.0699
1148.00,0.0700
1147.00,0.0703
1146.00,0.0705
1145.00,0.0707
1144.00,0.0710
1143.00,0.0714
1142.00,0.0718
1141.00,0.0720
1140.00,0.0722
1139.00,0.0725
1138.00,0.0727
1137.00,0.0730
1136.00,0.0733
1135.00,0.0737
1134.00,0.0741
1133.00,0.0746
1132.00,0.0750
1131.00,0.0753
1130.00,0.0758
1129.00,0.0765
1128.00,0.0773
1127.00,0.0779
1126.00,0.0783
1125.00,0.0788
1124.00,0.0796
1123.00,0.0807
1122.00,0.0822
1121.00,0.0837
1120.00,0.0851
1119.00,0.0861
1118.00,0.0869
1117.00,0.0874
1116.00,0.0880
1115.00,0.0885
1114.00,0.0888
1113.00,0.0890
1112.00,0.0891
1111.00,0.0892
1110.00,0.0893
1109.00,0.0897
1108.00,0.0903
1107.00,0.0909
1106.00,0.0915
1105.00,0.0920
1104.00,0.0926
1103.00,0.0932
1102.00,0.0938
1101.00,0.0945
1100.00,0.0951
1099.00,0.0957
1098.00,0.0962
1097.00,0.0966
1096.00,0.0969
1095.00,0.0972
1094.00,0.0974
1093.00,0.0977
1092.00,0.0981
1091.00,0.0984
1090.00,0.0985
1089.00,0.0985
1088.00,0.0986
1087.00,0.0988
1086.00,0.0991
1085.00,0.0996
1084.00,0.1000
1083.00,0.1002
1082.00,0.1003
1081.00,0.1004
1080.00,0.1007
1079.00,0.1011
1078.00,0.1014
1077.00,0.1017
1076.00,0.1017
1075.00,0.1016
1074.00,0.1015
1073.00,0.1016
1072.00,0.1018
1071.00,0.1021
1070.00,0.1022
1069.00,0.1024
1068.00,0.1026
1067.00,0.1029
1066.00,0.1034
1065.00,0.1040
1064.00,0.1047
1063.00,0.1051
1062.00,0.1053
1061.00,0.1053
1060.00,0.1055
1059.00,0.1059
1058.00,0.1065
1057.00,0.1071
1056.00,0.1076
1055.00,0.1082
1054.00,0.1088
1053.00,0.1095
1052.00,0.1103
1051.00,0.1110
1050.00,0.1117
1049.00,0.1125
1048.00,0.1133
1047.00,0.1141
1046.00,0.1148
1045.00,0.1157
1044.00,0.1167
1043.00,0.1176
1042.00,0.1184
1041.00,0.1191
1040.00,0.1200
1039.00,0.1212
1038.00,0.1225
1037.00,0.1238
1036.00,0.1249
1035.00,0.1258
1034.00,0.1265
1033.00,0.1271
1032.00,0.1277
1031.00,0.1278
1030.00,0.1275
1029.00,0.1268
1028.00,0.1259
1027.00,0.1249
1026.00,0.1238
1025.00,0.1229
1024.00,0.1220
1023.00,0.1212
1022.00,0.1202
1021.00,0.1194
1020.00,0.1188
1019.00,0.1184
1018.00,0.1183
1017.00,0.1184
1016.00,0.1187
1015.00,0.1192
1014.00,0.1197
1013.00,0.1202
1012.00,0.1208
1011.00,0.1215
1010.00,0.1223
1009.00,0.1229
1008.00,0.1233
1007.00,0.1235
1006.00,0.1236
1005.00,0.1236
1004.00,0.1235
1003.00,0.1233
1002.00,0.1228
1001.00,0.1221
1000.00,0.1211
999.00,0.1198
998.00,0.1183
997.00,0.1169
996.00,0.1156
995.00,0.1143
994.00,0.1128
993.00,0.1111
992.00,0.1094
991.00,0.1078
990.00,0.1064
989.00,0.1052
988.00,0.1041
987.00,0.1029
986.00,0.1017
985.00,0.1006
984.00,0.0994
983.00,0.0983
982.00,0.0971
981.00,0.0960
980.00,0.0951
979.00,0.0942
978.00,0.0931
977.00,0.0921
976.00,0.0911
975.00,0.0902
974.00,0.0895
973.00,0.0889
972.00,0.0882
971.00,0.0875
970.00,0.0868
969.00,0.0862
968.00,0.0858
967.00,0.0853
966.00,0.0847
965.00,0.0841
964.00,0.0836
963.00,0.0831
962.00,0.0827
961.00,0.0823
960.00,0.0819
959.00,0.0815
958.00,0.0812
957.00,0.0809
956.00,0.0806
955.00,0.0804
954.00,0.0802
953.00,0.0801
952.00,0.0800
951.00,0.0800
950.00,0.0801
949.00,0.0803
948.00,0.0806
947.00,0.0808
946.00,0.0810
945.00,0.0813
944.00,0.0817
943.00,0.0821
942.00,0.0824
941.00,0.0828
940.00,0.0833
939.00,0.0838
938.00,0.0841
937.00,0.0841
936.00,0.0838
935.00,0.0835
934.00,0.0833
933.00,0.0834
932.00,0.0835
931.00,0.0835
930.00,0.0834
929.00,0.0833
928.00,0.0834
927.00,0.0837
926.00,0.0840
925.00,0.0843
924.00,0.0848
923.00,0.0853
922.00,0.0858
921.00,0.0865
920.00,0.0873
919.00,0.0882
918.00,0.0892
917.00,0.0902
916.00,0.0912
915.00,0.0921
914.00,0.0927
913.00,0.0930
912.00,0.0928
911.00,0.0923
910.00,0.0915
909.00,0.0905
908.00,0.0895
907.00,0.0885
906.00,0.0876
905.00,0.0869
904.00,0.0864
903.00,0.0858
902.00,0.0850
901.00,0.0841
900.00,0.0831
899.00,0.0821
898.00,0.0813
897.00,0.0806
896.00,0.0799
895.00,0.0791
894.00,0.0784
893.00,0.0777
892.00,0.0770
891.00,0.0764
890.00,0.0758
889.00,0.0753
888.00,0.0749
887.00,0.0745
886.00,0.0739
885.00,0.0734
884.00,0.0731
883.00,0.0729
882.00,0.0727
881.00,0.0724
880.00,0.0721
879.00,0.0718
878.00,0.0714
877.00,0.0708
876.00,0.0703
875.00,0.0699
874.00,0.0697
873.00,0.0696
872.00,0.0695
871.00,0.0693
870.00,0.0691
869.00,0.0687
868.00,0.0683
867.00,0.0678
866.00,0.0676
865.00,0.0677
864.00,0.0679
863.00,0.0681
862.00,0.0680
861.00,0.0678
860.00,0.0676
859.00,0.0675
858.00,0.0674
857.00,0.0673
856.00,0.0671
855.00,0.0670
854.00,0.0671
853.00,0.0673
852.00,0.0675
851.00,0.0676
850.00,0.0677
849.00,0.0679
848.00,0.0681
847.00,0.0684
846.00,0.0687
845.00,0.0689
844.00,0.0692
843.00,0.0693
842.00,0.0693
841.00,0.0692
840.00,0.0692
839.00,0.0692
838.00,0.0694
837.00,0.0697
836.00,0.0700
835.00,0.0702
834.00,0.0703
833.00,0.0704
832.00,0.0705
831.00,0.0707
830.00,0.0709
829.00,0.0712
828.00,0.0715
827.00,0.0718
826.00,0.0720
825.00,0.0725
824.00,0.0731
823.00,0.0736
822.00,0.0739
821.00,0.0740
820.00,0.0743
819.00,0.0746
818.00,0.0747
817.00,0.0747
816.00,0.0746
815.00,0.0746
814.00,0.0750
813.00,0.0756
812.00,0.0762
811.00,0.0767
810.00,0.0772
809.00,0.0777
808.00,0.0784
807.00,0.0791
806.00,0.0798
805.00,0.0806
804.00,0.0815
803.00,0.0825
802.00,0.0835
801.00,0.0846
800.00,0.0857
799.00,0.0865
798.00,0.0869
797.00,0.0869
796.00,0.0869
795.00,0.0868
794.00,0.0866
793.00,0.0865
792.00,0.0863
791.00,0.0862
790.00,0.0861
789.00,0.0861
788.00,0.0860
787.00,0.0860
786.00,0.0861
785.00,0.0864
784.00,0.0870
783.00,0.0873
782.00,0.0875
781.00,0.0874
780.00,0.0872
779.00,0.0871
778.00,0.0871
777.00,0.0872
776.00,0.0872
775.00,0.0869
774.00,0.0865
773.00,0.0860
772.00,0.0855
771.00,0.0853
770.00,0.0853
769.00,0.0854
768.00,0.0856
767.00,0.0856
766.00,0.0854
765.00,0.0852
764.00,0.0853
763.00,0.0856
762.00,0.0859
761.00,0.0860
760.00,0.0861
759.00,0.0864
758.00,0.0869
757.00,0.0875
756.00,0.0881
755.00,0.0884
754.00,0.0885
753.00,0.0885
752.00,0.0885
751.00,0.0887
750.00,0.0889
749.00,0.0892
748.00,0.0894
747.00,0.0895
746.00,0.0892
745.00,0.0887
744.00,0.0883
743.00,0.0880
742.00,0.0878
741.00,0.0876
740.00,0.0872
739.00,0.0867
738.00,0.0863
737.00,0.0860
736.00,0.0858
735.00,0.0857
734.00,0.0857
733.00,0.0857
732.00,0.0858
731.00,0.0857
730.00,0.0858
729.00,0.0860
728.00,0.0863
727.00,0.0867
726.00,0.0870
725.00,0.0870
724.00,0.0868
723.00,0.0865
722.00,0.0863
721.00,0.0864
720.00,0.0867
719.00,0.0870
718.00,0.0872
717.00,0.0872
716.00,0.0873
715.00,0.0873
714.00,0.0875
713.00,0.0880
712.00,0.0887
711.00,0.0895
710.00,0.0902
709.00,0.0907
708.00,0.0913
707.00,0.0919
706.00,0.0927
705.00,0.0939
704.00,0.0953
703.00,0.0965
702.00,0.0973
701.00,0.0977
700.00,0.0981
699.00,0.0989
698.00,0.0999
697.00,0.1009
696.00,0.1017
695.00,0.1023
694.00,0.1027
693.00,0.1030
692.00,0.1033
691.00,0.1036
690.00,0.1040
689.00,0.1045
688.00,0.1047
687.00,0.1045
686.00,0.1040
685.00,0.1037
684.00,0.1036
683.00,0.1034
682.00,0.1032
681.00,0.1030
680.00,0.1031
679.00,0.1031
678.00,0.1032
677.00,0.1034
676.00,0.1036
675.00,0.1036
674.00,0.1036
673.00,0.1035
672.00,0.1034
671.00,0.1031
670.00,0.1027
669.00,0.1028
668.00,0.1038
667.00,0.1049
666.00,0.1052
665.00,0.1052
664.00,0.1051
663.00,0.1049
662.00,0.1043
661.00,0.1037
660.00,0.1034
659.00,0.1035
658.00,0.1040
657.00,0.1048
656.00,0.1056
655.00,0.1061
654.00,0.1059
653.00,0.1053
652.00,0.1043
651.00,0.1033
650.00,0.1027
