Created as New Dataset,Monday, April 03 2023
cm-1,A
4000.00,0.0130
3999.00,0.0131
3998.00,0.0131
3997.00,0.0131
3996.00,0.0131
3995.00,0.0130
3994.00,0.0130
3993.00,0.0130
3992.00,0.0130
3991.00,0.0129
3990.00,0.0129
3989.00,0.0129
3988.00,0.0129
3987.00,0.0129
3986.00,0.0129
3985.00,0.0129
3984.00,0.0129
3983.00,0.0129
3982.00,0.0129
3981.00,0.0129
3980.00,0.0129
3979.00,0.0129
3978.00,0.0129
3977.00,0.0129
3976.00,0.0128
3975.00,0.0128
3974.00,0.0128
3973.00,0.0128
3972.00,0.0129
3971.00,0.0129
3970.00,0.0130
3969.00,0.0130
3968.00,0.0129
3967.00,0.0129
3966.00,0.0128
3965.00,0.0128
3964.00,0.0128
3963.00,0.0129
3962.00,0.0129
3961.00,0.0129
3960.00,0.0128
3959.00,0.0128
3958.00,0.0127
3957.00,0.0127
3956.00,0.0127
3955.00,0.0127
3954.00,0.0127
3953.00,0.0127
3952.00,0.0127
3951.00,0.0128
3950.00,0.0129
3949.00,0.0130
3948.00,0.0130
3947.00,0.0131
3946.00,0.0131
3945.00,0.0131
3944.00,0.0130
3943.00,0.0128
3942.00,0.0127
3941.00,0.0127
3940.00,0.0128
3939.00,0.0128
3938.00,0.0128
3937.00,0.0128
3936.00,0.0129
3935.00,0.0129
3934.00,0.0128
3933.00,0.0128
3932.00,0.0127
3931.00,0.0128
3930.00,0.0129
3929.00,0.0129
3928.00,0.0130
3927.00,0.0130
3926.00,0.0129
3925.00,0.0129
3924.00,0.0129
3923.00,0.0130
3922.00,0.0130
3921.00,0.0130
3920.00,0.0130
3919.00,0.0129
3918.00,0.0129
3917.00,0.0129
3916.00,0.0129
3915.00,0.0129
3914.00,0.0128
3913.00,0.0128
3912.00,0.0127
3911.00,0.0126
3910.00,0.0126
3909.00,0.0127
3908.00,0.0128
3907.00,0.0129
3906.00,0.0130
3905.00,0.0129
3904.00,0.0130
3903.00,0.0131
3902.00,0.0133
3901.00,0.0134
3900.00,0.0133
3899.00,0.0132
3898.00,0.0130
3897.00,0.0129
3896.00,0.0128
3895.00,0.0128
3894.00,0.0128
3893.00,0.0128
3892.00,0.0127
3891.00,0.0126
3890.00,0.0126
3889.00,0.0127
3888.00,0.0128
3887.00,0.0127
3886.00,0.0125
3885.00,0.0125
3884.00,0.0127
3883.00,0.0130
3882.00,0.0129
3881.00,0.0127
3880.00,0.0126
3879.00,0.0126
3878.00,0.0128
3877.00,0.0130
3876.00,0.0130
3875.00,0.0128
3874.00,0.0127
3873.00,0.0128
3872.00,0.0130
3871.00,0.0130
3870.00,0.0128
3869.00,0.0127
3868.00,0.0129
3867.00,0.0130
3866.00,0.0129
3865.00,0.0128
3864.00,0.0128
3863.00,0.0129
3862.00,0.0130
3861.00,0.0129
3860.00,0.0127
3859.00,0.0126
3858.00,0.0126
3857.00,0.0127
3856.00,0.0127
3855.00,0.0125
3854.00,0.0124
3853.00,0.0125
3852.00,0.0127
3851.00,0.0128
3850.00,0.0127
3849.00,0.0125
3848.00,0.0124
3847.00,0.0124
3846.00,0.0125
3845.00,0.0125
3844.00,0.0125
3843.00,0.0125
3842.00,0.0126
3841.00,0.0128
3840.00,0.0128
3839.00,0.0129
3838.00,0.0128
3837.00,0.0128
3836.00,0.0127
3835.00,0.0128
3834.00,0.0128
3833.00,0.0127
3832.00,0.0126
3831.00,0.0126
3830.00,0.0126
3829.00,0.0127
3828.00,0.0126
3827.00,0.0124
3826.00,0.0123
3825.00,0.0125
3824.00,0.0128
3823.00,0.0129
3822.00,0.0127
3821.00,0.0125
3820.00,0.0125
3819.00,0.0127
3818.00,0.0128
3817.00,0.0126
3816.00,0.0123
3815.00,0.0123
3814.00,0.0124
3813.00,0.0125
3812.00,0.0124
3811.00,0.0122
3810.00,0.0122
3809.00,0.0122
3808.00,0.0122
3807.00,0.0121
3806.00,0.0122
3805.00,0.0126
3804.00,0.0129
3803.00,0.0129
3802.00,0.0127
3801.00,0.0126
3800.00,0.0126
3799.00,0.0127
3798.00,0.0127
3797.00,0.0125
3796.00,0.0123
3795.00,0.0123
3794.00,0.0124
3793.00,0.0124
3792.00,0.0124
3791.00,0.0123
3790.00,0.0123
3789.00,0.0123
3788.00,0.0124
3787.00,0.0124
3786.00,0.0125
3785.00,0.0125
3784.00,0.0125
3783.00,0.0126
3782.00,0.0126
3781.00,0.0126
3780.00,0.0125
3779.00,0.0124
3778.00,0.0124
3777.00,0.0124
3776.00,0.0124
3775.00,0.0123
3774.00,0.0123
3773.00,0.0123
3772.00,0.0124
3771.00,0.0123
3770.00,0.0122
3769.00,0.0122
3768.00,0.0124
3767.00,0.0124
3766.00,0.0124
3765.00,0.0123
3764.00,0.0123
3763.00,0.0124
3762.00,0.0125
3761.00,0.0126
3760.00,0.0125
3759.00,0.0125
3758.00,0.0124
3757.00,0.0124
3756.00,0.0123
3755.00,0.0124
3754.00,0.0123
3753.00,0.0122
3752.00,0.0121
3751.00,0.0122
3750.00,0.0123
3749.00,0.0125
3748.00,0.0128
3747.00,0.0132
3746.00,0.0133
3745.00,0.0130
3744.00,0.0126
3743.00,0.0125
3742.00,0.0126
3741.00,0.0126
3740.00,0.0127
3739.00,0.0128
3738.00,0.0129
3737.00,0.0130
3736.00,0.0129
3735.00,0.0130
3734.00,0.0130
3733.00,0.0128
3732.00,0.0125
3731.00,0.0124
3730.00,0.0124
3729.00,0.0124
3728.00,0.0125
3727.00,0.0124
3726.00,0.0124
3725.00,0.0125
3724.00,0.0125
3723.00,0.0125
3722.00,0.0124
3721.00,0.0124
3720.00,0.0125
3719.00,0.0125
3718.00,0.0124
3717.00,0.0123
3716.00,0.0123
3715.00,0.0124
3714.00,0.0125
3713.00,0.0125
3712.00,0.0126
3711.00,0.0127
3710.00,0.0127
3709.00,0.0127
3708.00,0.0126
3707.00,0.0126
3706.00,0.0127
3705.00,0.0128
3704.00,0.0128
3703.00,0.0128
3702.00,0.0127
3701.00,0.0127
3700.00,0.0128
3699.00,0.0129
3698.00,0.0128
3697.00,0.0127
3696.00,0.0127
3695.00,0.0127
3694.00,0.0127
3693.00,0.0127
3692.00,0.0128
3691.00,0.0129
3690.00,0.0130
3689.00,0.0131
3688.00,0.0130
3687.00,0.0129
3686.00,0.0129
3685.00,0.0128
3684.00,0.0128
3683.00,0.0127
3682.00,0.0127
3681.00,0.0126
3680.00,0.0125
3679.00,0.0126
3678.00,0.0127
3677.00,0.0128
3676.00,0.0127
3675.00,0.0127
3674.00,0.0129
3673.00,0.0131
3672.00,0.0132
3671.00,0.0131
3670.00,0.0131
3669.00,0.0133
3668.00,0.0134
3667.00,0.0133
3666.00,0.0132
3665.00,0.0132
3664.00,0.0131
3663.00,0.0131
3662.00,0.0132
3661.00,0.0133
3660.00,0.0135
3659.00,0.0137
3658.00,0.0138
3657.00,0.0138
3656.00,0.0139
3655.00,0.0140
3654.00,0.0143
3653.00,0.0146
3652.00,0.0147
3651.00,0.0146
3650.00,0.0146
3649.00,0.0149
3648.00,0.0151
3647.00,0.0151
3646.00,0.0150
3645.00,0.0149
3644.00,0.0149
3643.00,0.0148
3642.00,0.0148
3641.00,0.0148
3640.00,0.0149
3639.00,0.0149
3638.00,0.0150
3637.00,0.0151
3636.00,0.0151
3635.00,0.0151
3634.00,0.0152
3633.00,0.0153
3632.00,0.0155
3631.00,0.0156
3630.00,0.0157
3629.00,0.0158
3628.00,0.0160
3627.00,0.0161
3626.00,0.0160
3625.00,0.0158
3624.00,0.0157
3623.00,0.0158
3622.00,0.0159
3621.00,0.0161
3620.00,0.0162
3619.00,0.0163
3618.00,0.0165
3617.00,0.0166
3616.00,0.0166
3615.00,0.0166
3614.00,0.0165
3613.00,0.0165
3612.00,0.0165
3611.00,0.0165
3610.00,0.0166
3609.00,0.0168
3608.00,0.0169
3607.00,0.0169
3606.00,0.0168
3605.00,0.0167
3604.00,0.0165
3603.00,0.0165
3602.00,0.0166
3601.00,0.0167
3600.00,0.0168
3599.00,0.0168
3598.00,0.0168
3597.00,0.0168
3596.00,0.0168
3595.00,0.0168
3594.00,0.0168
3593.00,0.0168
3592.00,0.0168
3591.00,0.0169
3590.00,0.0170
3589.00,0.0171
3588.00,0.0172
3587.00,0.0173
3586.00,0.0174
3585.00,0.0173
3584.00,0.0173
3583.00,0.0172
3582.00,0.0171
3581.00,0.0171
3580.00,0.0171
3579.00,0.0171
3578.00,0.0171
3577.00,0.0171
3576.00,0.0172
3575.00,0.0172
3574.00,0.0173
3573.00,0.0174
3572.00,0.0175
3571.00,0.0175
3570.00,0.0176
3569.00,0.0177
3568.00,0.0178
3567.00,0.0181
3566.00,0.0183
3565.00,0.0182
3564.00,0.0180
3563.00,0.0178
3562.00,0.0177
3561.00,0.0177
3560.00,0.0177
3559.00,0.0178
3558.00,0.0178
3557.00,0.0179
3556.00,0.0180
3555.00,0.0181
3554.00,0.0181
3553.00,0.0182
3552.00,0.0182
3551.00,0.0183
3550.00,0.0184
3549.00,0.0184
3548.00,0.0184
3547.00,0.0185
3546.00,0.0186
3545.00,0.0186
3544.00,0.0186
3543.00,0.0186
3542.00,0.0185
3541.00,0.0184
3540.00,0.0184
3539.00,0.0183
3538.00,0.0183
3537.00,0.0183
3536.00,0.0183
3535.00,0.0184
3534.00,0.0186
3533.00,0.0187
3532.00,0.0187
3531.00,0.0187
3530.00,0.0187
3529.00,0.0186
3528.00,0.0186
3527.00,0.0186
3526.00,0.0187
3525.00,0.0189
3524.00,0.0190
3523.00,0.0192
3522.00,0.0192
3521.00,0.0191
3520.00,0.0189
3519.00,0.0188
3518.00,0.0187
3517.00,0.0187
3516.00,0.0187
3515.00,0.0187
3514.00,0.0188
3513.00,0.0189
3512.00,0.0190
3511.00,0.0191
3510.00,0.0191
3509.00,0.0191
3508.00,0.0191
3507.00,0.0192
3506.00,0.0192
3505.00,0.0193
3504.00,0.0194
3503.00,0.0195
3502.00,0.0196
3501.00,0.0196
3500.00,0.0196
3499.00,0.0196
3498.00,0.0196
3497.00,0.0196
3496.00,0.0196
3495.00,0.0196
3494.00,0.0195
3493.00,0.0195
3492.00,0.0195
3491.00,0.0195
3490.00,0.0195
3489.00,0.0195
3488.00,0.0195
3487.00,0.0196
3486.00,0.0196
3485.00,0.0197
3484.00,0.0197
3483.00,0.0197
3482.00,0.0198
3481.00,0.0198
3480.00,0.0199
3479.00,0.0199
3478.00,0.0199
3477.00,0.0199
3476.00,0.0200
3475.00,0.0200
3474.00,0.0200
3473.00,0.0200
3472.00,0.0201
3471.00,0.0201
3470.00,0.0201
3469.00,0.0201
3468.00,0.0201
3467.00,0.0202
3466.00,0.0202
3465.00,0.0203
3464.00,0.0203
3463.00,0.0203
3462.00,0.0202
3461.00,0.0201
3460.00,0.0202
3459.00,0.0203
3458.00,0.0204
3457.00,0.0204
3456.00,0.0203
3455.00,0.0203
3454.00,0.0203
3453.00,0.0203
3452.00,0.0204
3451.00,0.0204
3450.00,0.0205
3449.00,0.0205
3448.00,0.0206
3447.00,0.0206
3446.00,0.0207
3445.00,0.0208
3444.00,0.0208
3443.00,0.0207
3442.00,0.0206
3441.00,0.0205
3440.00,0.0204
3439.00,0.0204
3438.00,0.0205
3437.00,0.0205
3436.00,0.0206
3435.00,0.0205
3434.00,0.0205
3433.00,0.0205
3432.00,0.0206
3431.00,0.0206
3430.00,0.0207
3429.00,0.0207
3428.00,0.0207
3427.00,0.0207
3426.00,0.0207
3425.00,0.0208
3424.00,0.0208
3423.00,0.0209
3422.00,0.0210
3421.00,0.0210
3420.00,0.0210
3419.00,0.0211
3418.00,0.0211
3417.00,0.0211
3416.00,0.0210
3415.00,0.0209
3414.00,0.0208
3413.00,0.0209
3412.00,0.0210
3411.00,0.0210
3410.00,0.0211
3409.00,0.0211
3408.00,0.0212
3407.00,0.0212
3406.00,0.0212
3405.00,0.0211
3404.00,0.0211
3403.00,0.0210
3402.00,0.0210
3401.00,0.0210
3400.00,0.0211
3399.00,0.0211
3398.00,0.0212
3397.00,0.0212
3396.00,0.0211
3395.00,0.0211
3394.00,0.0211
3393.00,0.0211
3392.00,0.0211
3391.00,0.0212
3390.00,0.0212
3389.00,0.0213
3388.00,0.0213
3387.00,0.0213
3386.00,0.0213
3385.00,0.0213
3384.00,0.0213
3383.00,0.0214
3382.00,0.0213
3381.00,0.0213
3380.00,0.0213
3379.00,0.0214
3378.00,0.0214
3377.00,0.0214
3376.00,0.0214
3375.00,0.0214
3374.00,0.0214
3373.00,0.0213
3372.00,0.0212
3371.00,0.0212
3370.00,0.0211
3369.00,0.0212
3368.00,0.0213
3367.00,0.0213
3366.00,0.0213
3365.00,0.0213
3364.00,0.0213
3363.00,0.0213
3362.00,0.0214
3361.00,0.0215
3360.00,0.0216
3359.00,0.0216
3358.00,0.0215
3357.00,0.0214
3356.00,0.0214
3355.00,0.0215
3354.00,0.0215
3353.00,0.0215
3352.00,0.0216
3351.00,0.0215
3350.00,0.0215
3349.00,0.0215
3348.00,0.0215
3347.00,0.0214
3346.00,0.0214
3345.00,0.0214
3344.00,0.0214
3343.00,0.0214
3342.00,0.0214
3341.00,0.0214
3340.00,0.0214
3339.00,0.0214
3338.00,0.0215
3337.00,0.0215
3336.00,0.0215
3335.00,0.0215
3334.00,0.0215
3333.00,0.0215
3332.00,0.0214
3331.00,0.0213
3330.00,0.0213
3329.00,0.0213
3328.00,0.0213
3327.00,0.0213
3326.00,0.0214
3325.00,0.0215
3324.00,0.0215
3323.00,0.0215
3322.00,0.0214
3321.00,0.0214
3320.00,0.0214
3319.00,0.0214
3318.00,0.0214
3317.00,0.0214
3316.00,0.0214
3315.00,0.0213
3314.00,0.0213
3313.00,0.0212
3312.00,0.0212
3311.00,0.0212
3310.00,0.0213
3309.00,0.0214
3308.00,0.0215
3307.00,0.0216
3306.00,0.0215
3305.00,0.0215
3304.00,0.0214
3303.00,0.0214
3302.00,0.0214
3301.00,0.0214
3300.00,0.0214
3299.00,0.0214
3298.00,0.0214
3297.00,0.0214
3296.00,0.0214
3295.00,0.0215
3294.00,0.0215
3293.00,0.0214
3292.00,0.0214
3291.00,0.0213
3290.00,0.0213
3289.00,0.0213
3288.00,0.0213
3287.00,0.0213
3286.00,0.0214
3285.00,0.0215
3284.00,0.0215
3283.00,0.0215
3282.00,0.0215
3281.00,0.0215
3280.00,0.0214
3279.00,0.0214
3278.00,0.0214
3277.00,0.0214
3276.00,0.0214
3275.00,0.0214
3274.00,0.0214
3273.00,0.0214
3272.00,0.0214
3271.00,0.0214
3270.00,0.0214
3269.00,0.0215
3268.00,0.0215
3267.00,0.0215
3266.00,0.0215
3265.00,0.0214
3264.00,0.0213
3263.00,0.0213
3262.00,0.0213
3261.00,0.0213
3260.00,0.0214
3259.00,0.0214
3258.00,0.0214
3257.00,0.0214
3256.00,0.0213
3255.00,0.0212
3254.00,0.0213
3253.00,0.0213
3252.00,0.0214
3251.00,0.0214
3250.00,0.0214
3249.00,0.0214
3248.00,0.0214
3247.00,0.0213
3246.00,0.0213
3245.00,0.0214
3244.00,0.0214
3243.00,0.0214
3242.00,0.0214
3241.00,0.0214
3240.00,0.0213
3239.00,0.0213
3238.00,0.0213
3237.00,0.0214
3236.00,0.0215
3235.00,0.0216
3234.00,0.0216
3233.00,0.0216
3232.00,0.0215
3231.00,0.0215
3230.00,0.0214
3229.00,0.0213
3228.00,0.0213
3227.00,0.0213
3226.00,0.0213
3225.00,0.0213
3224.00,0.0213
3223.00,0.0214
3222.00,0.0214
3221.00,0.0214
3220.00,0.0213
3219.00,0.0213
3218.00,0.0213
3217.00,0.0213
3216.00,0.0214
3215.00,0.0215
3214.00,0.0215
3213.00,0.0214
3212.00,0.0213
3211.00,0.0213
3210.00,0.0212
3209.00,0.0212
3208.00,0.0212
3207.00,0.0212
3206.00,0.0213
3205.00,0.0213
3204.00,0.0213
3203.00,0.0214
3202.00,0.0214
3201.00,0.0214
3200.00,0.0214
3199.00,0.0214
3198.00,0.0213
3197.00,0.0213
3196.00,0.0213
3195.00,0.0213
3194.00,0.0213
3193.00,0.0213
3192.00,0.0213
3191.00,0.0212
3190.00,0.0212
3189.00,0.0211
3188.00,0.0210
3187.00,0.0210
3186.00,0.0210
3185.00,0.0210
3184.00,0.0211
3183.00,0.0212
3182.00,0.0213
3181.00,0.0213
3180.00,0.0213
3179.00,0.0212
3178.00,0.0211
3177.00,0.0210
3176.00,0.0209
3175.00,0.0209
3174.00,0.0210
3173.00,0.0210
3172.00,0.0210
3171.00,0.0210
3170.00,0.0210
3169.00,0.0209
3168.00,0.0209
3167.00,0.0210
3166.00,0.0210
3165.00,0.0211
3164.00,0.0212
3163.00,0.0211
3162.00,0.0211
3161.00,0.0210
3160.00,0.0209
3159.00,0.0208
3158.00,0.0207
3157.00,0.0207
3156.00,0.0207
3155.00,0.0207
3154.00,0.0208
3153.00,0.0209
3152.00,0.0209
3151.00,0.0209
3150.00,0.0208
3149.00,0.0208
3148.00,0.0208
3147.00,0.0208
3146.00,0.0207
3145.00,0.0207
3144.00,0.0207
3143.00,0.0207
3142.00,0.0207
3141.00,0.0207
3140.00,0.0207
3139.00,0.0207
3138.00,0.0207
3137.00,0.0208
3136.00,0.0208
3135.00,0.0208
3134.00,0.0207
3133.00,0.0206
3132.00,0.0206
3131.00,0.0207
3130.00,0.0207
3129.00,0.0206
3128.00,0.0206
3127.00,0.0206
3126.00,0.0205
3125.00,0.0206
3124.00,0.0206
3123.00,0.0206
3122.00,0.0205
3121.00,0.0205
3120.00,0.0205
3119.00,0.0206
3118.00,0.0206
3117.00,0.0206
3116.00,0.0206
3115.00,0.0206
3114.00,0.0205
3113.00,0.0205
3112.00,0.0205
3111.00,0.0205
3110.00,0.0204
3109.00,0.0204
3108.00,0.0204
3107.00,0.0205
3106.00,0.0205
3105.00,0.0206
3104.00,0.0205
3103.00,0.0205
3102.00,0.0204
3101.00,0.0203
3100.00,0.0203
3099.00,0.0203
3098.00,0.0203
3097.00,0.0203
3096.00,0.0204
3095.00,0.0205
3094.00,0.0205
3093.00,0.0206
3092.00,0.0206
3091.00,0.0205
3090.00,0.0204
3089.00,0.0203
3088.00,0.0202
3087.00,0.0202
3086.00,0.0202
3085.00,0.0203
3084.00,0.0204
3083.00,0.0204
3082.00,0.0204
3081.00,0.0204
3080.00,0.0204
3079.00,0.0204
3078.00,0.0203
3077.00,0.0203
3076.00,0.0203
3075.00,0.0203
3074.00,0.0203
3073.00,0.0203
3072.00,0.0203
3071.00,0.0203
3070.00,0.0203
3069.00,0.0203
3068.00,0.0203
3067.00,0.0203
3066.00,0.0203
3065.00,0.0202
3064.00,0.0202
3063.00,0.0201
3062.00,0.0201
3061.00,0.0201
3060.00,0.0201
3059.00,0.0201
3058.00,0.0201
3057.00,0.0202
3056.00,0.0201
3055.00,0.0201
3054.00,0.0201
3053.00,0.0200
3052.00,0.0200
3051.00,0.0201
3050.00,0.0201
3049.00,0.0202
3048.00,0.0202
3047.00,0.0202
3046.00,0.0202
3045.00,0.0201
3044.00,0.0201
3043.00,0.0200
3042.00,0.0199
3041.00,0.0198
3040.00,0.0198
3039.00,0.0198
3038.00,0.0198
3037.00,0.0199
3036.00,0.0199
3035.00,0.0199
3034.00,0.0199
3033.00,0.0198
3032.00,0.0198
3031.00,0.0197
3030.00,0.0197
3029.00,0.0196
3028.00,0.0196
3027.00,0.0196
3026.00,0.0196
3025.00,0.0196
3024.00,0.0196
3023.00,0.0196
3022.00,0.0196
3021.00,0.0196
3020.00,0.0195
3019.00,0.0194
3018.00,0.0193
3017.00,0.0192
3016.00,0.0192
3015.00,0.0192
3014.00,0.0192
3013.00,0.0192
3012.00,0.0191
3011.00,0.0191
3010.00,0.0190
3009.00,0.0188
3008.00,0.0186
3007.00,0.0185
3006.00,0.0184
3005.00,0.0183
3004.00,0.0183
3003.00,0.0182
3002.00,0.0180
3001.00,0.0179
3000.00,0.0178
2999.00,0.0177
2998.00,0.0176
2997.00,0.0175
2996.00,0.0174
2995.00,0.0174
2994.00,0.0173
2993.00,0.0173
2992.00,0.0172
2991.00,0.0172
2990.00,0.0171
2989.00,0.0170
2988.00,0.0169
2987.00,0.0168
2986.00,0.0166
2985.00,0.0163
2984.00,0.0159
2983.00,0.0157
2982.00,0.0155
2981.00,0.0155
2980.00,0.0156
2979.00,0.0158
2978.00,0.0160
2977.00,0.0162
2976.00,0.0163
2975.00,0.0164
2974.00,0.0163
2973.00,0.0162
2972.00,0.0162
2971.00,0.0162
2970.00,0.0163
2969.00,0.0165
2968.00,0.0166
2967.00,0.0167
2966.00,0.0167
2965.00,0.0167
2964.00,0.0168
2963.00,0.0169
2962.00,0.0170
2961.00,0.0170
2960.00,0.0170
2959.00,0.0170
2958.00,0.0170
2957.00,0.0171
2956.00,0.0172
2955.00,0.0173
2954.00,0.0174
2953.00,0.0175
2952.00,0.0175
2951.00,0.0176
2950.00,0.0176
2949.00,0.0177
2948.00,0.0177
2947.00,0.0177
2946.00,0.0177
2945.00,0.0177
2944.00,0.0177
2943.00,0.0178
2942.00,0.0178
2941.00,0.0178
2940.00,0.0178
2939.00,0.0177
2938.00,0.0177
2937.00,0.0176
2936.00,0.0176
2935.00,0.0176
2934.00,0.0176
2933.00,0.0176
2932.00,0.0175
2931.00,0.0175
2930.00,0.0175
2929.00,0.0176
2928.00,0.0176
2927.00,0.0175
2926.00,0.0174
2925.00,0.0173
2924.00,0.0173
2923.00,0.0173
2922.00,0.0173
2921.00,0.0174
2920.00,0.0174
2919.00,0.0173
2918.00,0.0173
2917.00,0.0173
2916.00,0.0173
2915.00,0.0174
2914.00,0.0174
2913.00,0.0174
2912.00,0.0174
2911.00,0.0174
2910.00,0.0175
2909.00,0.0175
2908.00,0.0175
2907.00,0.0175
2906.00,0.0175
2905.00,0.0174
2904.00,0.0174
2903.00,0.0174
2902.00,0.0173
2901.00,0.0173
2900.00,0.0173
2899.00,0.0173
2898.00,0.0172
2897.00,0.0172
2896.00,0.0172
2895.00,0.0172
2894.00,0.0172
2893.00,0.0172
2892.00,0.0172
2891.00,0.0172
2890.00,0.0172
2889.00,0.0172
2888.00,0.0172
2887.00,0.0173
2886.00,0.0173
2885.00,0.0172
2884.00,0.0172
2883.00,0.0172
2882.00,0.0172
2881.00,0.0172
2880.00,0.0172
2879.00,0.0172
2878.00,0.0173
2877.00,0.0173
2876.00,0.0173
2875.00,0.0173
2874.00,0.0172
2873.00,0.0172
2872.00,0.0172
2871.00,0.0172
2870.00,0.0172
2869.00,0.0173
2868.00,0.0172
2867.00,0.0172
2866.00,0.0173
2865.00,0.0173
2864.00,0.0173
2863.00,0.0173
2862.00,0.0173
2861.00,0.0173
2860.00,0.0173
2859.00,0.0173
2858.00,0.0174
2857.00,0.0174
2856.00,0.0173
2855.00,0.0173
2854.00,0.0172
2853.00,0.0172
2852.00,0.0172
2851.00,0.0173
2850.00,0.0174
2849.00,0.0175
2848.00,0.0175
2847.00,0.0175
2846.00,0.0176
2845.00,0.0176
2844.00,0.0176
2843.00,0.0176
2842.00,0.0176
2841.00,0.0175
2840.00,0.0174
2839.00,0.0173
2838.00,0.0173
2837.00,0.0174
2836.00,0.0175
2835.00,0.0176
2834.00,0.0176
2833.00,0.0176
2832.00,0.0175
2831.00,0.0174
2830.00,0.0174
2829.00,0.0174
2828.00,0.0174
2827.00,0.0174
2826.00,0.0174
2825.00,0.0174
2824.00,0.0174
2823.00,0.0174
2822.00,0.0174
2821.00,0.0173
2820.00,0.0173
2819.00,0.0172
2818.00,0.0172
2817.00,0.0172
2816.00,0.0172
2815.00,0.0172
2814.00,0.0172
2813.00,0.0171
2812.00,0.0171
2811.00,0.0172
2810.00,0.0172
2809.00,0.0172
2808.00,0.0172
2807.00,0.0172
2806.00,0.0172
2805.00,0.0172
2804.00,0.0171
2803.00,0.0171
2802.00,0.0171
2801.00,0.0171
2800.00,0.0170
2799.00,0.0171
2798.00,0.0171
2797.00,0.0171
2796.00,0.0171
2795.00,0.0171
2794.00,0.0171
2793.00,0.0171
2792.00,0.0171
2791.00,0.0171
2790.00,0.0171
2789.00,0.0171
2788.00,0.0171
2787.00,0.0171
2786.00,0.0170
2785.00,0.0170
2784.00,0.0170
2783.00,0.0170
2782.00,0.0169
2781.00,0.0168
2780.00,0.0167
2779.00,0.0167
2778.00,0.0167
2777.00,0.0168
2776.00,0.0169
2775.00,0.0169
2774.00,0.0169
2773.00,0.0168
2772.00,0.0168
2771.00,0.0167
2770.00,0.0167
2769.00,0.0166
2768.00,0.0166
2767.00,0.0166
2766.00,0.0166
2765.00,0.0166
2764.00,0.0167
2763.00,0.0167
2762.00,0.0167
2761.00,0.0167
2760.00,0.0167
2759.00,0.0167
2758.00,0.0166
2757.00,0.0166
2756.00,0.0165
2755.00,0.0165
2754.00,0.0165
2753.00,0.0165
2752.00,0.0166
2751.00,0.0166
2750.00,0.0166
2749.00,0.0167
2748.00,0.0166
2747.00,0.0166
2746.00,0.0166
2745.00,0.0166
2744.00,0.0165
2743.00,0.0165
2742.00,0.0165
2741.00,0.0165
2740.00,0.0165
2739.00,0.0165
2738.00,0.0164
2737.00,0.0164
2736.00,0.0164
2735.00,0.0164
2734.00,0.0164
2733.00,0.0164
2732.00,0.0164
2731.00,0.0164
2730.00,0.0164
2729.00,0.0164
2728.00,0.0164
2727.00,0.0164
2726.00,0.0164
2725.00,0.0164
2724.00,0.0164
2723.00,0.0163
2722.00,0.0163
2721.00,0.0162
2720.00,0.0162
2719.00,0.0162
2718.00,0.0162
2717.00,0.0163
2716.00,0.0163
2715.00,0.0163
2714.00,0.0163
2713.00,0.0163
2712.00,0.0163
2711.00,0.0163
2710.00,0.0163
2709.00,0.0162
2708.00,0.0162
2707.00,0.0161
2706.00,0.0161
2705.00,0.0161
2704.00,0.0161
2703.00,0.0161
2702.00,0.0161
2701.00,0.0161
2700.00,0.0161
2699.00,0.0161
2698.00,0.0161
2697.00,0.0161
2696.00,0.0161
2695.00,0.0161
2694.00,0.0161
2693.00,0.0161
2692.00,0.0162
2691.00,0.0162
2690.00,0.0161
2689.00,0.0161
2688.00,0.0161
2687.00,0.0161
2686.00,0.0161
2685.00,0.0161
2684.00,0.0161
2683.00,0.0161
2682.00,0.0161
2681.00,0.0160
2680.00,0.0160
2679.00,0.0159
2678.00,0.0159
2677.00,0.0159
2676.00,0.0159
2675.00,0.0159
2674.00,0.0159
2673.00,0.0159
2672.00,0.0159
2671.00,0.0158
2670.00,0.0158
2669.00,0.0158
2668.00,0.0158
2667.00,0.0159
2666.00,0.0159
2665.00,0.0159
2664.00,0.0159
2663.00,0.0159
2662.00,0.0160
2661.00,0.0160
2660.00,0.0160
2659.00,0.0160
2658.00,0.0160
2657.00,0.0160
2656.00,0.0160
2655.00,0.0160
2654.00,0.0160
2653.00,0.0160
2652.00,0.0160
2651.00,0.0161
2650.00,0.0161
2649.00,0.0161
2648.00,0.0161
2647.00,0.0160
2646.00,0.0160
2645.00,0.0160
2644.00,0.0160
2643.00,0.0161
2642.00,0.0161
2641.00,0.0161
2640.00,0.0161
2639.00,0.0161
2638.00,0.0161
2637.00,0.0160
2636.00,0.0160
2635.00,0.0160
2634.00,0.0160
2633.00,0.0161
2632.00,0.0161
2631.00,0.0161
2630.00,0.0160
2629.00,0.0160
2628.00,0.0159
2627.00,0.0159
2626.00,0.0159
2625.00,0.0160
2624.00,0.0160
2623.00,0.0160
2622.00,0.0160
2621.00,0.0161
2620.00,0.0161
2619.00,0.0161
2618.00,0.0161
2617.00,0.0161
2616.00,0.0161
2615.00,0.0160
2614.00,0.0160
2613.00,0.0161
2612.00,0.0161
2611.00,0.0162
2610.00,0.0161
2609.00,0.0160
2608.00,0.0160
2607.00,0.0160
2606.00,0.0160
2605.00,0.0161
2604.00,0.0162
2603.00,0.0162
2602.00,0.0162
2601.00,0.0161
2600.00,0.0161
2599.00,0.0160
2598.00,0.0160
2597.00,0.0160
2596.00,0.0159
2595.00,0.0159
2594.00,0.0159
2593.00,0.0160
2592.00,0.0160
2591.00,0.0161
2590.00,0.0162
2589.00,0.0162
2588.00,0.0161
2587.00,0.0160
2586.00,0.0159
2585.00,0.0158
2584.00,0.0158
2583.00,0.0158
2582.00,0.0158
2581.00,0.0159
2580.00,0.0160
2579.00,0.0161
2578.00,0.0161
2577.00,0.0160
2576.00,0.0159
2575.00,0.0159
2574.00,0.0159
2573.00,0.0159
2572.00,0.0160
2571.00,0.0160
2570.00,0.0159
2569.00,0.0158
2568.00,0.0158
2567.00,0.0160
2566.00,0.0161
2565.00,0.0161
2564.00,0.0161
2563.00,0.0161
2562.00,0.0161
2561.00,0.0161
2560.00,0.0161
2559.00,0.0160
2558.00,0.0161
2557.00,0.0161
2556.00,0.0161
2555.00,0.0161
2554.00,0.0161
2553.00,0.0160
2552.00,0.0159
2551.00,0.0158
2550.00,0.0157
2549.00,0.0156
2548.00,0.0155
2547.00,0.0155
2546.00,0.0155
2545.00,0.0156
2544.00,0.0157
2543.00,0.0157
2542.00,0.0156
2541.00,0.0155
2540.00,0.0154
2539.00,0.0154
2538.00,0.0153
2537.00,0.0153
2536.00,0.0154
2535.00,0.0154
2534.00,0.0156
2533.00,0.0156
2532.00,0.0157
2531.00,0.0156
2530.00,0.0155
2529.00,0.0155
2528.00,0.0154
2527.00,0.0154
2526.00,0.0153
2525.00,0.0153
2524.00,0.0153
2523.00,0.0153
2522.00,0.0153
2521.00,0.0154
2520.00,0.0154
2519.00,0.0155
2518.00,0.0156
2517.00,0.0156
2516.00,0.0157
2515.00,0.0156
2514.00,0.0155
2513.00,0.0154
2512.00,0.0154
2511.00,0.0154
2510.00,0.0155
2509.00,0.0155
2508.00,0.0156
2507.00,0.0156
2506.00,0.0156
2505.00,0.0155
2504.00,0.0154
2503.00,0.0154
2502.00,0.0155
2501.00,0.0155
2500.00,0.0156
2499.00,0.0156
2498.00,0.0156
2497.00,0.0155
2496.00,0.0155
2495.00,0.0155
2494.00,0.0156
2493.00,0.0156
2492.00,0.0156
2491.00,0.0156
2490.00,0.0155
2489.00,0.0155
2488.00,0.0155
2487.00,0.0155
2486.00,0.0155
2485.00,0.0155
2484.00,0.0154
2483.00,0.0153
2482.00,0.0154
2481.00,0.0154
2480.00,0.0155
2479.00,0.0155
2478.00,0.0154
2477.00,0.0153
2476.00,0.0152
2475.00,0.0152
2474.00,0.0152
2473.00,0.0153
2472.00,0.0153
2471.00,0.0154
2470.00,0.0154
2469.00,0.0154
2468.00,0.0153
2467.00,0.0152
2466.00,0.0152
2465.00,0.0152
2464.00,0.0151
2463.00,0.0151
2462.00,0.0151
2461.00,0.0151
2460.00,0.0152
2459.00,0.0152
2458.00,0.0153
2457.00,0.0153
2456.00,0.0152
2455.00,0.0153
2454.00,0.0153
2453.00,0.0154
2452.00,0.0154
2451.00,0.0154
2450.00,0.0154
2449.00,0.0153
2448.00,0.0153
2447.00,0.0152
2446.00,0.0152
2445.00,0.0151
2444.00,0.0150
2443.00,0.0150
2442.00,0.0150
2441.00,0.0150
2440.00,0.0150
2439.00,0.0150
2438.00,0.0150
2437.00,0.0150
2436.00,0.0150
2435.00,0.0149
2434.00,0.0149
2433.00,0.0149
2432.00,0.0149
2431.00,0.0150
2430.00,0.0150
2429.00,0.0150
2428.00,0.0150
2427.00,0.0150
2426.00,0.0149
2425.00,0.0149
2424.00,0.0149
2423.00,0.0149
2422.00,0.0149
2421.00,0.0149
2420.00,0.0149
2419.00,0.0149
2418.00,0.0148
2417.00,0.0148
2416.00,0.0147
2415.00,0.0147
2414.00,0.0148
2413.00,0.0148
2412.00,0.0149
2411.00,0.0148
2410.00,0.0148
2409.00,0.0148
2408.00,0.0147
2407.00,0.0146
2406.00,0.0146
2405.00,0.0146
2404.00,0.0146
2403.00,0.0145
2402.00,0.0145
2401.00,0.0144
2400.00,0.0144
2399.00,0.0145
2398.00,0.0145
2397.00,0.0145
2396.00,0.0145
2395.00,0.0144
2394.00,0.0144
2393.00,0.0143
2392.00,0.0143
2391.00,0.0143
2390.00,0.0143
2389.00,0.0143
2388.00,0.0143
2387.00,0.0143
2386.00,0.0143
2385.00,0.0142
2384.00,0.0141
2383.00,0.0140
2382.00,0.0140
2381.00,0.0140
2380.00,0.0140
2379.00,0.0140
2378.00,0.0140
2377.00,0.0140
2376.00,0.0139
2375.00,0.0139
2374.00,0.0140
2373.00,0.0140
2372.00,0.0140
2371.00,0.0139
2370.00,0.0137
2369.00,0.0134
2368.00,0.0131
2367.00,0.0131
2366.00,0.0133
2365.00,0.0137
2364.00,0.0139
2363.00,0.0139
2362.00,0.0139
2361.00,0.0140
2360.00,0.0140
2359.00,0.0141
2358.00,0.0140
2357.00,0.0139
2356.00,0.0137
2355.00,0.0136
2354.00,0.0135
2353.00,0.0135
2352.00,0.0135
2351.00,0.0136
2350.00,0.0137
2349.00,0.0137
2348.00,0.0137
2347.00,0.0134
2346.00,0.0132
2345.00,0.0132
2344.00,0.0134
2343.00,0.0137
2342.00,0.0139
2341.00,0.0141
2340.00,0.0142
2339.00,0.0140
2338.00,0.0138
2337.00,0.0137
2336.00,0.0136
2335.00,0.0136
2334.00,0.0136
2333.00,0.0135
2332.00,0.0134
2331.00,0.0133
2330.00,0.0132
2329.00,0.0132
2328.00,0.0133
2327.00,0.0135
2326.00,0.0136
2325.00,0.0137
2324.00,0.0137
2323.00,0.0137
2322.00,0.0137
2321.00,0.0137
2320.00,0.0137
2319.00,0.0137
2318.00,0.0136
2317.00,0.0136
2316.00,0.0136
2315.00,0.0136
2314.00,0.0136
2313.00,0.0136
2312.00,0.0136
2311.00,0.0137
2310.00,0.0138
2309.00,0.0140
2308.00,0.0140
2307.00,0.0140
2306.00,0.0140
2305.00,0.0140
2304.00,0.0139
2303.00,0.0138
2302.00,0.0138
2301.00,0.0138
2300.00,0.0138
2299.00,0.0138
2298.00,0.0138
2297.00,0.0138
2296.00,0.0137
2295.00,0.0137
2294.00,0.0138
2293.00,0.0140
2292.00,0.0142
2291.00,0.0143
2290.00,0.0143
2289.00,0.0143
2288.00,0.0143
2287.00,0.0144
2286.00,0.0145
2285.00,0.0146
2284.00,0.0147
2283.00,0.0147
2282.00,0.0146
2281.00,0.0145
2280.00,0.0145
2279.00,0.0144
2278.00,0.0144
2277.00,0.0143
2276.00,0.0142
2275.00,0.0140
2274.00,0.0138
2273.00,0.0138
2272.00,0.0138
2271.00,0.0139
2270.00,0.0140
2269.00,0.0141
2268.00,0.0141
2267.00,0.0142
2266.00,0.0142
2265.00,0.0142
2264.00,0.0142
2263.00,0.0142
2262.00,0.0142
2261.00,0.0142
2260.00,0.0142
2259.00,0.0142
2258.00,0.0140
2257.00,0.0137
2256.00,0.0135
2255.00,0.0135
2254.00,0.0136
2253.00,0.0137
2252.00,0.0138
2251.00,0.0138
2250.00,0.0138
2249.00,0.0138
2248.00,0.0138
2247.00,0.0139
2246.00,0.0141
2245.00,0.0142
2244.00,0.0143
2243.00,0.0143
2242.00,0.0142
2241.00,0.0140
2240.00,0.0138
2239.00,0.0136
2238.00,0.0135
2237.00,0.0135
2236.00,0.0135
2235.00,0.0136
2234.00,0.0137
2233.00,0.0139
2232.00,0.0139
2231.00,0.0139
2230.00,0.0138
2229.00,0.0138
2228.00,0.0137
2227.00,0.0137
2226.00,0.0138
2225.00,0.0137
2224.00,0.0136
2223.00,0.0134
2222.00,0.0132
2221.00,0.0132
2220.00,0.0132
2219.00,0.0133
2218.00,0.0135
2217.00,0.0137
2216.00,0.0139
2215.00,0.0141
2214.00,0.0142
2213.00,0.0142
2212.00,0.0141
2211.00,0.0139
2210.00,0.0138
2209.00,0.0137
2208.00,0.0137
2207.00,0.0136
2206.00,0.0136
2205.00,0.0135
2204.00,0.0134
2203.00,0.0133
2202.00,0.0134
2201.00,0.0135
2200.00,0.0135
2199.00,0.0135
2198.00,0.0136
2197.00,0.0137
2196.00,0.0137
2195.00,0.0136
2194.00,0.0135
2193.00,0.0134
2192.00,0.0133
2191.00,0.0131
2190.00,0.0129
2189.00,0.0127
2188.00,0.0127
2187.00,0.0129
2186.00,0.0133
2185.00,0.0135
2184.00,0.0133
2183.00,0.0131
2182.00,0.0129
2181.00,0.0130
2180.00,0.0132
2179.00,0.0135
2178.00,0.0138
2177.00,0.0139
2176.00,0.0139
2175.00,0.0138
2174.00,0.0136
2173.00,0.0134
2172.00,0.0133
2171.00,0.0134
2170.00,0.0135
2169.00,0.0138
2168.00,0.0139
2167.00,0.0138
2166.00,0.0138
2165.00,0.0138
2164.00,0.0140
2163.00,0.0143
2162.00,0.0145
2161.00,0.0144
2160.00,0.0140
2159.00,0.0133
2158.00,0.0128
2157.00,0.0125
2156.00,0.0124
2155.00,0.0123
2154.00,0.0123
2153.00,0.0124
2152.00,0.0124
2151.00,0.0122
2150.00,0.0120
2149.00,0.0120
2148.00,0.0121
2147.00,0.0124
2146.00,0.0127
2145.00,0.0130
2144.00,0.0132
2143.00,0.0133
2142.00,0.0135
2141.00,0.0135
2140.00,0.0134
2139.00,0.0131
2138.00,0.0128
2137.00,0.0125
2136.00,0.0123
2135.00,0.0122
2134.00,0.0121
2133.00,0.0121
2132.00,0.0122
2131.00,0.0122
2130.00,0.0123
2129.00,0.0124
2128.00,0.0126
2127.00,0.0128
2126.00,0.0129
2125.00,0.0129
2124.00,0.0129
2123.00,0.0129
2122.00,0.0129
2121.00,0.0129
2120.00,0.0129
2119.00,0.0128
2118.00,0.0126
2117.00,0.0125
2116.00,0.0123
2115.00,0.0121
2114.00,0.0119
2113.00,0.0118
2112.00,0.0120
2111.00,0.0122
2110.00,0.0125
2109.00,0.0128
2108.00,0.0130
2107.00,0.0131
2106.00,0.0132
2105.00,0.0132
2104.00,0.0131
2103.00,0.0130
2102.00,0.0130
2101.00,0.0129
2100.00,0.0127
2099.00,0.0124
2098.00,0.0122
2097.00,0.0120
2096.00,0.0120
2095.00,0.0122
2094.00,0.0123
2093.00,0.0125
2092.00,0.0125
2091.00,0.0125
2090.00,0.0124
2089.00,0.0124
2088.00,0.0124
2087.00,0.0125
2086.00,0.0126
2085.00,0.0128
2084.00,0.0129
2083.00,0.0129
2082.00,0.0127
2081.00,0.0126
2080.00,0.0125
2079.00,0.0124
2078.00,0.0124
2077.00,0.0125
2076.00,0.0127
2075.00,0.0128
2074.00,0.0128
2073.00,0.0129
2072.00,0.0129
2071.00,0.0130
2070.00,0.0130
2069.00,0.0129
2068.00,0.0127
2067.00,0.0125
2066.00,0.0124
2065.00,0.0124
2064.00,0.0125
2063.00,0.0126
2062.00,0.0126
2061.00,0.0126
2060.00,0.0125
2059.00,0.0123
2058.00,0.0122
2057.00,0.0122
2056.00,0.0122
2055.00,0.0123
2054.00,0.0125
2053.00,0.0129
2052.00,0.0133
2051.00,0.0133
2050.00,0.0131
2049.00,0.0128
2048.00,0.0125
2047.00,0.0125
2046.00,0.0125
2045.00,0.0127
2044.00,0.0128
2043.00,0.0129
2042.00,0.0129
2041.00,0.0128
2040.00,0.0127
2039.00,0.0125
2038.00,0.0125
2037.00,0.0128
2036.00,0.0129
2035.00,0.0129
2034.00,0.0128
2033.00,0.0128
2032.00,0.0131
2031.00,0.0134
2030.00,0.0133
2029.00,0.0130
2028.00,0.0127
2027.00,0.0125
2026.00,0.0124
2025.00,0.0122
2024.00,0.0118
2023.00,0.0114
2022.00,0.0111
2021.00,0.0110
2020.00,0.0109
2019.00,0.0108
2018.00,0.0107
2017.00,0.0108
2016.00,0.0111
2015.00,0.0115
2014.00,0.0119
2013.00,0.0120
2012.00,0.0120
2011.00,0.0118
2010.00,0.0117
2009.00,0.0117
2008.00,0.0116
2007.00,0.0114
2006.00,0.0112
2005.00,0.0111
2004.00,0.0111
2003.00,0.0113
2002.00,0.0118
2001.00,0.0123
2000.00,0.0126
1999.00,0.0125
1998.00,0.0124
1997.00,0.0124
1996.00,0.0127
1995.00,0.0130
1994.00,0.0131
1993.00,0.0131
1992.00,0.0129
1991.00,0.0125
1990.00,0.0122
1989.00,0.0119
1988.00,0.0118
1987.00,0.0118
1986.00,0.0118
1985.00,0.0119
1984.00,0.0120
1983.00,0.0121
1982.00,0.0123
1981.00,0.0124
1980.00,0.0123
1979.00,0.0121
1978.00,0.0117
1977.00,0.0114
1976.00,0.0114
1975.00,0.0117
1974.00,0.0120
1973.00,0.0120
1972.00,0.0116
1971.00,0.0112
1970.00,0.0110
1969.00,0.0112
1968.00,0.0114
1967.00,0.0115
1966.00,0.0114
1965.00,0.0114
1964.00,0.0115
1963.00,0.0115
1962.00,0.0116
1961.00,0.0116
1960.00,0.0117
1959.00,0.0119
1958.00,0.0119
1957.00,0.0118
1956.00,0.0116
1955.00,0.0114
1954.00,0.0113
1953.00,0.0113
1952.00,0.0113
1951.00,0.0111
1950.00,0.0108
1949.00,0.0107
1948.00,0.0108
1947.00,0.0109
1946.00,0.0110
1945.00,0.0111
1944.00,0.0110
1943.00,0.0109
1942.00,0.0108
1941.00,0.0108
1940.00,0.0107
1939.00,0.0106
1938.00,0.0105
1937.00,0.0105
1936.00,0.0104
1935.00,0.0103
1934.00,0.0102
1933.00,0.0101
1932.00,0.0102
1931.00,0.0104
1930.00,0.0106
1929.00,0.0108
1928.00,0.0110
1927.00,0.0111
1926.00,0.0113
1925.00,0.0113
1924.00,0.0113
1923.00,0.0112
1922.00,0.0111
1921.00,0.0110
1920.00,0.0109
1919.00,0.0107
1918.00,0.0104
1917.00,0.0103
1916.00,0.0103
1915.00,0.0104
1914.00,0.0105
1913.00,0.0105
1912.00,0.0106
1911.00,0.0105
1910.00,0.0104
1909.00,0.0103
1908.00,0.0103
1907.00,0.0103
1906.00,0.0104
1905.00,0.0105
1904.00,0.0106
1903.00,0.0106
1902.00,0.0105
1901.00,0.0104
1900.00,0.0104
1899.00,0.0103
1898.00,0.0104
1897.00,0.0103
1896.00,0.0102
1895.00,0.0100
1894.00,0.0099
1893.00,0.0100
1892.00,0.0102
1891.00,0.0103
1890.00,0.0104
1889.00,0.0103
1888.00,0.0102
1887.00,0.0100
1886.00,0.0100
1885.00,0.0100
1884.00,0.0100
1883.00,0.0100
1882.00,0.0099
1881.00,0.0099
1880.00,0.0099
1879.00,0.0098
1878.00,0.0097
1877.00,0.0096
1876.00,0.0096
1875.00,0.0097
1874.00,0.0098
1873.00,0.0101
1872.00,0.0103
1871.00,0.0103
1870.00,0.0103
1869.00,0.0101
1868.00,0.0099
1867.00,0.0098
1866.00,0.0097
1865.00,0.0097
1864.00,0.0096
1863.00,0.0095
1862.00,0.0094
1861.00,0.0093
1860.00,0.0092
1859.00,0.0092
1858.00,0.0092
1857.00,0.0092
1856.00,0.0093
1855.00,0.0094
1854.00,0.0094
1853.00,0.0094
1852.00,0.0094
1851.00,0.0095
1850.00,0.0095
1849.00,0.0095
1848.00,0.0095
1847.00,0.0095
1846.00,0.0096
1845.00,0.0095
1844.00,0.0092
1843.00,0.0090
1842.00,0.0090
1841.00,0.0091
1840.00,0.0092
1839.00,0.0092
1838.00,0.0092
1837.00,0.0092
1836.00,0.0093
1835.00,0.0093
1834.00,0.0093
1833.00,0.0094
1832.00,0.0096
1831.00,0.0097
1830.00,0.0096
1829.00,0.0095
1828.00,0.0094
1827.00,0.0094
1826.00,0.0093
1825.00,0.0092
1824.00,0.0090
1823.00,0.0089
1822.00,0.0089
1821.00,0.0090
1820.00,0.0091
1819.00,0.0090
1818.00,0.0090
1817.00,0.0089
1816.00,0.0089
1815.00,0.0089
1814.00,0.0089
1813.00,0.0090
1812.00,0.0091
1811.00,0.0091
1810.00,0.0090
1809.00,0.0090
1808.00,0.0090
1807.00,0.0090
1806.00,0.0091
1805.00,0.0092
1804.00,0.0093
1803.00,0.0094
1802.00,0.0094
1801.00,0.0093
1800.00,0.0093
1799.00,0.0092
1798.00,0.0093
1797.00,0.0094
1796.00,0.0096
1795.00,0.0097
1794.00,0.0097
1793.00,0.0097
1792.00,0.0096
1791.00,0.0095
1790.00,0.0094
1789.00,0.0095
1788.00,0.0096
1787.00,0.0098
1786.00,0.0099
1785.00,0.0100
1784.00,0.0101
1783.00,0.0102
1782.00,0.0103
1781.00,0.0103
1780.00,0.0103
1779.00,0.0103
1778.00,0.0104
1777.00,0.0106
1776.00,0.0108
1775.00,0.0109
1774.00,0.0110
1773.00,0.0109
1772.00,0.0108
1771.00,0.0108
1770.00,0.0109
1769.00,0.0112
1768.00,0.0113
1767.00,0.0112
1766.00,0.0113
1765.00,0.0115
1764.00,0.0117
1763.00,0.0118
1762.00,0.0117
1761.00,0.0117
1760.00,0.0118
1759.00,0.0119
1758.00,0.0121
1757.00,0.0121
1756.00,0.0121
1755.00,0.0122
1754.00,0.0124
1753.00,0.0125
1752.00,0.0125
1751.00,0.0125
1750.00,0.0125
1749.00,0.0126
1748.00,0.0127
1747.00,0.0129
1746.00,0.0131
1745.00,0.0133
1744.00,0.0135
1743.00,0.0136
1742.00,0.0137
1741.00,0.0137
1740.00,0.0138
1739.00,0.0139
1738.00,0.0141
1737.00,0.0144
1736.00,0.0147
1735.00,0.0148
1734.00,0.0148
1733.00,0.0148
1732.00,0.0151
1731.00,0.0154
1730.00,0.0156
1729.00,0.0158
1728.00,0.0159
1727.00,0.0161
1726.00,0.0163
1725.00,0.0165
1724.00,0.0167
1723.00,0.0169
1722.00,0.0171
1721.00,0.0173
1720.00,0.0175
1719.00,0.0175
1718.00,0.0175
1717.00,0.0176
1716.00,0.0178
1715.00,0.0180
1714.00,0.0182
1713.00,0.0183
1712.00,0.0185
1711.00,0.0186
1710.00,0.0187
1709.00,0.0188
1708.00,0.0190
1707.00,0.0192
1706.00,0.0193
1705.00,0.0195
1704.00,0.0196
1703.00,0.0197
1702.00,0.0198
1701.00,0.0197
1700.00,0.0195
1699.00,0.0195
1698.00,0.0196
1697.00,0.0199
1696.00,0.0200
1695.00,0.0199
1694.00,0.0198
1693.00,0.0199
1692.00,0.0201
1691.00,0.0203
1690.00,0.0203
1689.00,0.0204
1688.00,0.0205
1687.00,0.0206
1686.00,0.0206
1685.00,0.0205
1684.00,0.0205
1683.00,0.0205
1682.00,0.0205
1681.00,0.0205
1680.00,0.0205
1679.00,0.0205
1678.00,0.0206
1677.00,0.0207
1676.00,0.0207
1675.00,0.0208
1674.00,0.0208
1673.00,0.0209
1672.00,0.0210
1671.00,0.0211
1670.00,0.0212
1669.00,0.0213
1668.00,0.0213
1667.00,0.0213
1666.00,0.0213
1665.00,0.0213
1664.00,0.0213
1663.00,0.0214
1662.00,0.0215
1661.00,0.0216
1660.00,0.0218
1659.00,0.0219
1658.00,0.0221
1657.00,0.0221
1656.00,0.0221
1655.00,0.0219
1654.00,0.0216
1653.00,0.0218
1652.00,0.0219
1651.00,0.0220
1650.00,0.0223
1649.00,0.0225
1648.00,0.0227
1647.00,0.0228
1646.00,0.0230
1645.00,0.0232
1644.00,0.0232
1643.00,0.0233
1642.00,0.0234
1641.00,0.0234
1640.00,0.0234
1639.00,0.0234
1638.00,0.0234
1637.00,0.0235
1636.00,0.0238
1635.00,0.0241
1634.00,0.0243
1633.00,0.0243
1632.00,0.0243
1631.00,0.0243
1630.00,0.0244
1629.00,0.0246
1628.00,0.0247
1627.00,0.0249
1626.00,0.0250
1625.00,0.0251
1624.00,0.0253
1623.00,0.0254
1622.00,0.0255
1621.00,0.0255
1620.00,0.0255
1619.00,0.0255
1618.00,0.0254
1617.00,0.0255
1616.00,0.0258
1615.00,0.0260
1614.00,0.0262
1613.00,0.0263
1612.00,0.0264
1611.00,0.0265
1610.00,0.0266
1609.00,0.0266
1608.00,0.0266
1607.00,0.0267
1606.00,0.0268
1605.00,0.0268
1604.00,0.0269
1603.00,0.0269
1602.00,0.0268
1601.00,0.0267
1600.00,0.0267
1599.00,0.0267
1598.00,0.0268
1597.00,0.0269
1596.00,0.0271
1595.00,0.0272
1594.00,0.0273
1593.00,0.0273
1592.00,0.0273
1591.00,0.0272
1590.00,0.0272
1589.00,0.0271
1588.00,0.0272
1587.00,0.0272
1586.00,0.0272
1585.00,0.0272
1584.00,0.0272
1583.00,0.0271
1582.00,0.0271
1581.00,0.0271
1580.00,0.0271
1579.00,0.0271
1578.00,0.0272
1577.00,0.0272
1576.00,0.0272
1575.00,0.0272
1574.00,0.0271
1573.00,0.0269
1572.00,0.0269
1571.00,0.0268
1570.00,0.0268
1569.00,0.0268
1568.00,0.0268
1567.00,0.0267
1566.00,0.0266
1565.00,0.0265
1564.00,0.0263
1563.00,0.0262
1562.00,0.0261
1561.00,0.0259
1560.00,0.0257
1559.00,0.0260
1558.00,0.0262
1557.00,0.0260
1556.00,0.0259
1555.00,0.0258
1554.00,0.0258
1553.00,0.0258
1552.00,0.0258
1551.00,0.0258
1550.00,0.0256
1549.00,0.0254
1548.00,0.0251
1547.00,0.0249
1546.00,0.0248
1545.00,0.0247
1544.00,0.0245
1543.00,0.0242
1542.00,0.0239
1541.00,0.0238
1540.00,0.0240
1539.00,0.0241
1538.00,0.0240
1537.00,0.0239
1536.00,0.0238
1535.00,0.0238
1534.00,0.0237
1533.00,0.0236
1532.00,0.0234
1531.00,0.0233
1530.00,0.0232
1529.00,0.0232
1528.00,0.0231
1527.00,0.0230
1526.00,0.0228
1525.00,0.0226
1524.00,0.0225
1523.00,0.0225
1522.00,0.0225
1521.00,0.0226
1520.00,0.0227
1519.00,0.0227
1518.00,0.0227
1517.00,0.0226
1516.00,0.0225
1515.00,0.0223
1514.00,0.0221
1513.00,0.0220
1512.00,0.0219
1511.00,0.0218
1510.00,0.0218
1509.00,0.0218
1508.00,0.0218
1507.00,0.0219
1506.00,0.0218
1505.00,0.0215
1504.00,0.0214
1503.00,0.0214
1502.00,0.0214
1501.00,0.0215
1500.00,0.0215
1499.00,0.0215
1498.00,0.0215
1497.00,0.0215
1496.00,0.0215
1495.00,0.0213
1494.00,0.0212
1493.00,0.0212
1492.00,0.0213
1491.00,0.0214
1490.00,0.0215
1489.00,0.0217
1488.00,0.0217
1487.00,0.0217
1486.00,0.0216
1485.00,0.0216
1484.00,0.0215
1483.00,0.0215
1482.00,0.0216
1481.00,0.0216
1480.00,0.0215
1479.00,0.0214
1478.00,0.0214
1477.00,0.0214
1476.00,0.0214
1475.00,0.0213
1474.00,0.0212
1473.00,0.0213
1472.00,0.0215
1471.00,0.0217
1470.00,0.0219
1469.00,0.0220
1468.00,0.0222
1467.00,0.0222
1466.00,0.0222
1465.00,0.0222
1464.00,0.0221
1463.00,0.0221
1462.00,0.0220
1461.00,0.0220
1460.00,0.0221
1459.00,0.0221
1458.00,0.0221
1457.00,0.0222
1456.00,0.0223
1455.00,0.0223
1454.00,0.0224
1453.00,0.0225
1452.00,0.0227
1451.00,0.0228
1450.00,0.0229
1449.00,0.0231
1448.00,0.0233
1447.00,0.0233
1446.00,0.0233
1445.00,0.0233
1444.00,0.0232
1443.00,0.0232
1442.00,0.0231
1441.00,0.0231
1440.00,0.0231
1439.00,0.0233
1438.00,0.0234
1437.00,0.0235
1436.00,0.0235
1435.00,0.0235
1434.00,0.0235
1433.00,0.0236
1432.00,0.0237
1431.00,0.0237
1430.00,0.0238
1429.00,0.0238
1428.00,0.0238
1427.00,0.0238
1426.00,0.0238
1425.00,0.0239
1424.00,0.0239
1423.00,0.0238
1422.00,0.0238
1421.00,0.0237
1420.00,0.0238
1419.00,0.0239
1418.00,0.0240
1417.00,0.0241
1416.00,0.0242
1415.00,0.0242
1414.00,0.0241
1413.00,0.0240
1412.00,0.0240
1411.00,0.0239
1410.00,0.0239
1409.00,0.0238
1408.00,0.0238
1407.00,0.0238
1406.00,0.0237
1405.00,0.0236
1404.00,0.0235
1403.00,0.0234
1402.00,0.0232
1401.00,0.0232
1400.00,0.0232
1399.00,0.0232
1398.00,0.0232
1397.00,0.0233
1396.00,0.0234
1395.00,0.0234
1394.00,0.0234
1393.00,0.0233
1392.00,0.0233
1391.00,0.0233
1390.00,0.0233
1389.00,0.0233
1388.00,0.0233
1387.00,0.0233
1386.00,0.0232
1385.00,0.0231
1384.00,0.0231
1383.00,0.0231
1382.00,0.0231
1381.00,0.0233
1380.00,0.0234
1379.00,0.0236
1378.00,0.0237
1377.00,0.0238
1376.00,0.0240
1375.00,0.0241
1374.00,0.0242
1373.00,0.0242
1372.00,0.0242
1371.00,0.0241
1370.00,0.0241
1369.00,0.0241
1368.00,0.0240
1367.00,0.0240
1366.00,0.0240
1365.00,0.0240
1364.00,0.0240
1363.00,0.0241
1362.00,0.0242
1361.00,0.0243
1360.00,0.0243
1359.00,0.0242
1358.00,0.0242
1357.00,0.0242
1356.00,0.0243
1355.00,0.0243
1354.00,0.0244
1353.00,0.0243
1352.00,0.0242
1351.00,0.0241
1350.00,0.0240
1349.00,0.0239
1348.00,0.0239
1347.00,0.0239
1346.00,0.0239
1345.00,0.0239
1344.00,0.0239
1343.00,0.0239
1342.00,0.0240
1341.00,0.0242
1340.00,0.0244
1339.00,0.0245
1338.00,0.0245
1337.00,0.0245
1336.00,0.0243
1335.00,0.0242
1334.00,0.0242
1333.00,0.0241
1332.00,0.0240
1331.00,0.0240
1330.00,0.0239
1329.00,0.0239
1328.00,0.0239
1327.00,0.0239
1326.00,0.0239
1325.00,0.0240
1324.00,0.0241
1323.00,0.0242
1322.00,0.0243
1321.00,0.0245
1320.00,0.0246
1319.00,0.0246
1318.00,0.0245
1317.00,0.0243
1316.00,0.0242
1315.00,0.0242
1314.00,0.0242
1313.00,0.0243
1312.00,0.0244
1311.00,0.0245
1310.00,0.0246
1309.00,0.0246
1308.00,0.0245
1307.00,0.0245
1306.00,0.0245
1305.00,0.0246
1304.00,0.0248
1303.00,0.0249
1302.00,0.0250
1301.00,0.0251
1300.00,0.0251
1299.00,0.0250
1298.00,0.0250
1297.00,0.0249
1296.00,0.0249
1295.00,0.0248
1294.00,0.0249
1293.00,0.0249
1292.00,0.0250
1291.00,0.0250
1290.00,0.0251
1289.00,0.0252
1288.00,0.0252
1287.00,0.0253
1286.00,0.0253
1285.00,0.0253
1284.00,0.0254
1283.00,0.0255
1282.00,0.0255
1281.00,0.0255
1280.00,0.0254
1279.00,0.0254
1278.00,0.0253
1277.00,0.0253
1276.00,0.0253
1275.00,0.0253
1274.00,0.0254
1273.00,0.0253
1272.00,0.0253
1271.00,0.0253
1270.00,0.0254
1269.00,0.0255
1268.00,0.0255
1267.00,0.0256
1266.00,0.0258
1265.00,0.0258
1264.00,0.0259
1263.00,0.0258
1262.00,0.0257
1261.00,0.0257
1260.00,0.0257
1259.00,0.0257
1258.00,0.0257
1257.00,0.0257
1256.00,0.0256
1255.00,0.0255
1254.00,0.0255
1253.00,0.0256
1252.00,0.0257
1251.00,0.0257
1250.00,0.0257
1249.00,0.0258
1248.00,0.0259
1247.00,0.0261
1246.00,0.0263
1245.00,0.0264
1244.00,0.0265
1243.00,0.0265
1242.00,0.0265
1241.00,0.0264
1240.00,0.0264
1239.00,0.0264
1238.00,0.0265
1237.00,0.0266
1236.00,0.0268
1235.00,0.0268
1234.00,0.0269
1233.00,0.0270
1232.00,0.0271
1231.00,0.0272
1230.00,0.0273
1229.00,0.0274
1228.00,0.0276
1227.00,0.0278
1226.00,0.0279
1225.00,0.0279
1224.00,0.0279
1223.00,0.0279
1222.00,0.0279
1221.00,0.0279
1220.00,0.0280
1219.00,0.0280
1218.00,0.0281
1217.00,0.0281
1216.00,0.0282
1215.00,0.0284
1214.00,0.0285
1213.00,0.0287
1212.00,0.0289
1211.00,0.0291
1210.00,0.0293
1209.00,0.0294
1208.00,0.0295
1207.00,0.0295
1206.00,0.0295
1205.00,0.0294
1204.00,0.0293
1203.00,0.0293
1202.00,0.0292
1201.00,0.0292
1200.00,0.0292
1199.00,0.0293
1198.00,0.0293
1197.00,0.0294
1196.00,0.0295
1195.00,0.0296
1194.00,0.0297
1193.00,0.0299
1192.00,0.0300
1191.00,0.0301
1190.00,0.0301
1189.00,0.0300
1188.00,0.0299
1187.00,0.0298
1186.00,0.0297
1185.00,0.0297
1184.00,0.0296
1183.00,0.0295
1182.00,0.0294
1181.00,0.0293
1180.00,0.0292
1179.00,0.0292
1178.00,0.0293
1177.00,0.0294
1176.00,0.0296
1175.00,0.0298
1174.00,0.0299
1173.00,0.0300
1172.00,0.0300
1171.00,0.0298
1170.00,0.0297
1169.00,0.0296
1168.00,0.0296
1167.00,0.0296
1166.00,0.0295
1165.00,0.0294
1164.00,0.0294
1163.00,0.0293
1162.00,0.0294
1161.00,0.0294
1160.00,0.0295
1159.00,0.0296
1158.00,0.0297
1157.00,0.0298
1156.00,0.0300
1155.00,0.0302
1154.00,0.0303
1153.00,0.0303
1152.00,0.0301
1151.00,0.0298
1150.00,0.0296
1149.00,0.0294
1148.00,0.0293
1147.00,0.0293
1146.00,0.0293
1145.00,0.0294
1144.00,0.0295
1143.00,0.0298
1142.00,0.0300
1141.00,0.0302
1140.00,0.0304
1139.00,0.0304
1138.00,0.0305
1137.00,0.0305
1136.00,0.0306
1135.00,0.0308
1134.00,0.0309
1133.00,0.0310
1132.00,0.0310
1131.00,0.0309
1130.00,0.0308
1129.00,0.0309
1128.00,0.0309
1127.00,0.0308
1126.00,0.0307
1125.00,0.0305
1124.00,0.0306
1123.00,0.0309
1122.00,0.0314
1121.00,0.0319
1120.00,0.0323
1119.00,0.0325
1118.00,0.0326
1117.00,0.0327
1116.00,0.0328
1115.00,0.0329
1114.00,0.0328
1113.00,0.0326
1112.00,0.0324
1111.00,0.0323
1110.00,0.0323
1109.00,0.0323
1108.00,0.0324
1107.00,0.0324
1106.00,0.0324
1105.00,0.0326
1104.00,0.0329
1103.00,0.0332
1102.00,0.0336
1101.00,0.0338
1100.00,0.0340
1099.00,0.0341
1098.00,0.0341
1097.00,0.0341
1096.00,0.0340
1095.00,0.0338
1094.00,0.0337
1093.00,0.0337
1092.00,0.0338
1091.00,0.0338
1090.00,0.0337
1089.00,0.0336
1088.00,0.0335
1087.00,0.0337
1086.00,0.0341
1085.00,0.0344
1084.00,0.0347
1083.00,0.0350
1082.00,0.0352
1081.00,0.0354
1080.00,0.0356
1079.00,0.0358
1078.00,0.0359
1077.00,0.0360
1076.00,0.0359
1075.00,0.0356
1074.00,0.0353
1073.00,0.0352
1072.00,0.0352
1071.00,0.0352
1070.00,0.0353
1069.00,0.0353
1068.00,0.0353
1067.00,0.0356
1066.00,0.0360
1065.00,0.0364
1064.00,0.0368
1063.00,0.0370
1062.00,0.0370
1061.00,0.0369
1060.00,0.0366
1059.00,0.0365
1058.00,0.0364
1057.00,0.0365
1056.00,0.0365
1055.00,0.0365
1054.00,0.0365
1053.00,0.0366
1052.00,0.0367
1051.00,0.0368
1050.00,0.0370
1049.00,0.0375
1048.00,0.0380
1047.00,0.0383
1046.00,0.0386
1045.00,0.0387
1044.00,0.0389
1043.00,0.0389
1042.00,0.0388
1041.00,0.0385
1040.00,0.0383
1039.00,0.0382
1038.00,0.0381
1037.00,0.0381
1036.00,0.0379
1035.00,0.0378
1034.00,0.0378
1033.00,0.0379
1032.00,0.0381
1031.00,0.0382
1030.00,0.0382
1029.00,0.0382
1028.00,0.0381
1027.00,0.0381
1026.00,0.0380
1025.00,0.0380
1024.00,0.0379
1023.00,0.0377
1022.00,0.0374
1021.00,0.0371
1020.00,0.0367
1019.00,0.0364
1018.00,0.0362
1017.00,0.0361
1016.00,0.0361
1015.00,0.0363
1014.00,0.0366
1013.00,0.0368
1012.00,0.0370
1011.00,0.0371
1010.00,0.0371
1009.00,0.0371
1008.00,0.0369
1007.00,0.0367
1006.00,0.0365
1005.00,0.0363
1004.00,0.0362
1003.00,0.0360
1002.00,0.0357
1001.00,0.0354
1000.00,0.0351
999.00,0.0346
998.00,0.0342
997.00,0.0340
996.00,0.0340
995.00,0.0341
994.00,0.0340
993.00,0.0338
992.00,0.0336
991.00,0.0333
990.00,0.0331
989.00,0.0328
988.00,0.0325
987.00,0.0323
986.00,0.0321
985.00,0.0318
984.00,0.0314
983.00,0.0310
982.00,0.0306
981.00,0.0304
980.00,0.0302
979.00,0.0301
978.00,0.0299
977.00,0.0298
976.00,0.0296
975.00,0.0296
974.00,0.0296
973.00,0.0296
972.00,0.0296
971.00,0.0294
970.00,0.0291
969.00,0.0287
968.00,0.0283
967.00,0.0280
966.00,0.0277
965.00,0.0275
964.00,0.0273
963.00,0.0272
962.00,0.0272
961.00,0.0272
960.00,0.0272
959.00,0.0272
958.00,0.0272
957.00,0.0272
956.00,0.0272
955.00,0.0272
954.00,0.0271
953.00,0.0270
952.00,0.0270
951.00,0.0270
950.00,0.0270
949.00,0.0270
948.00,0.0268
947.00,0.0266
946.00,0.0264
945.00,0.0262
944.00,0.0261
943.00,0.0260
942.00,0.0260
941.00,0.0261
940.00,0.0263
939.00,0.0267
938.00,0.0270
937.00,0.0272
936.00,0.0271
935.00,0.0269
934.00,0.0268
933.00,0.0268
932.00,0.0269
931.00,0.0269
930.00,0.0269
929.00,0.0268
928.00,0.0268
927.00,0.0268
926.00,0.0268
925.00,0.0269
924.00,0.0271
923.00,0.0273
922.00,0.0276
921.00,0.0277
920.00,0.0278
919.00,0.0278
918.00,0.0279
917.00,0.0281
916.00,0.0283
915.00,0.0285
914.00,0.0284
913.00,0.0282
912.00,0.0279
911.00,0.0276
910.00,0.0273
909.00,0.0269
908.00,0.0266
907.00,0.0265
906.00,0.0266
905.00,0.0270
904.00,0.0276
903.00,0.0281
902.00,0.0285
901.00,0.0286
900.00,0.0285
899.00,0.0284
898.00,0.0283
897.00,0.0282
896.00,0.0282
895.00,0.0281
894.00,0.0278
893.00,0.0275
892.00,0.0271
891.00,0.0268
890.00,0.0267
889.00,0.0268
888.00,0.0270
887.00,0.0271
886.00,0.0272
885.00,0.0273
884.00,0.0275
883.00,0.0278
882.00,0.0281
881.00,0.0283
880.00,0.0283
879.00,0.0281
878.00,0.0278
877.00,0.0273
876.00,0.0269
875.00,0.0265
874.00,0.0263
873.00,0.0261
872.00,0.0259
871.00,0.0259
870.00,0.0260
869.00,0.0261
868.00,0.0262
867.00,0.0264
866.00,0.0266
865.00,0.0270
864.00,0.0273
863.00,0.0274
862.00,0.0274
861.00,0.0273
860.00,0.0270
859.00,0.0266
858.00,0.0261
857.00,0.0257
856.00,0.0255
855.00,0.0257
854.00,0.0259
853.00,0.0260
852.00,0.0260
851.00,0.0260
850.00,0.0261
849.00,0.0264
848.00,0.0267
847.00,0.0271
846.00,0.0275
845.00,0.0278
844.00,0.0280
843.00,0.0279
842.00,0.0276
841.00,0.0273
840.00,0.0269
839.00,0.0265
838.00,0.0263
837.00,0.0261
836.00,0.0261
835.00,0.0261
834.00,0.0261
833.00,0.0262
832.00,0.0265
831.00,0.0267
830.00,0.0269
829.00,0.0270
828.00,0.0272
827.00,0.0275
826.00,0.0278
825.00,0.0281
824.00,0.0283
823.00,0.0283
822.00,0.0280
821.00,0.0277
820.00,0.0275
819.00,0.0274
818.00,0.0273
817.00,0.0271
816.00,0.0269
815.00,0.0269
814.00,0.0272
813.00,0.0277
812.00,0.0282
811.00,0.0284
810.00,0.0285
809.00,0.0286
808.00,0.0288
807.00,0.0288
806.00,0.0287
805.00,0.0285
804.00,0.0283
803.00,0.0281
802.00,0.0281
801.00,0.0282
800.00,0.0284
799.00,0.0286
798.00,0.0287
797.00,0.0286
796.00,0.0285
795.00,0.0285
794.00,0.0286
793.00,0.0288
792.00,0.0292
791.00,0.0296
790.00,0.0299
789.00,0.0299
788.00,0.0298
787.00,0.0297
786.00,0.0297
785.00,0.0299
784.00,0.0300
783.00,0.0299
782.00,0.0299
781.00,0.0297
780.00,0.0296
779.00,0.0296
778.00,0.0296
777.00,0.0298
776.00,0.0301
775.00,0.0303
774.00,0.0304
773.00,0.0304
772.00,0.0305
771.00,0.0305
770.00,0.0305
769.00,0.0305
768.00,0.0303
767.00,0.0299
766.00,0.0295
765.00,0.0292
764.00,0.0291
763.00,0.0289
762.00,0.0288
761.00,0.0286
760.00,0.0286
759.00,0.0288
758.00,0.0293
757.00,0.0298
756.00,0.0301
755.00,0.0303
754.00,0.0303
753.00,0.0303
752.00,0.0304
751.00,0.0305
750.00,0.0305
749.00,0.0306
748.00,0.0305
747.00,0.0304
746.00,0.0302
745.00,0.0299
744.00,0.0296
743.00,0.0295
742.00,0.0296
741.00,0.0297
740.00,0.0296
739.00,0.0296
738.00,0.0297
737.00,0.0299
736.00,0.0301
735.00,0.0302
734.00,0.0301
733.00,0.0300
732.00,0.0299
731.00,0.0298
730.00,0.0297
729.00,0.0298
728.00,0.0299
727.00,0.0300
726.00,0.0301
725.00,0.0301
724.00,0.0300
723.00,0.0299
722.00,0.0300
721.00,0.0302
720.00,0.0303
719.00,0.0303
718.00,0.0303
717.00,0.0304
716.00,0.0303
715.00,0.0303
714.00,0.0302
713.00,0.0302
712.00,0.0302
711.00,0.0298
710.00,0.0293
709.00,0.0289
708.00,0.0286
707.00,0.0285
706.00,0.0287
705.00,0.0291
704.00,0.0296
703.00,0.0300
702.00,0.0304
701.00,0.0307
700.00,0.0310
699.00,0.0315
698.00,0.0319
697.00,0.0322
696.00,0.0322
695.00,0.0321
694.00,0.0321
693.00,0.0323
692.00,0.0324
691.00,0.0323
690.00,0.0321
689.00,0.0319
688.00,0.0315
687.00,0.0310
686.00,0.0307
685.00,0.0307
684.00,0.0309
683.00,0.0310
682.00,0.0311
681.00,0.0313
680.00,0.0314
679.00,0.0314
678.00,0.0312
677.00,0.0310
676.00,0.0308
675.00,0.0306
674.00,0.0305
673.00,0.0304
672.00,0.0303
671.00,0.0300
670.00,0.0295
669.00,0.0293
668.00,0.0300
667.00,0.0313
666.00,0.0323
665.00,0.0330
664.00,0.0332
663.00,0.0332
662.00,0.0331
661.00,0.0329
660.00,0.0325
659.00,0.0323
658.00,0.0322
657.00,0.0324
656.00,0.0325
655.00,0.0322
654.00,0.0314
653.00,0.0306
652.00,0.0300
651.00,0.0298
650.00,0.0298
