Created as New Dataset,Monday, April 03 2023
cm-1,A
4000.00,0.0174
3999.00,0.0174
3998.00,0.0174
3997.00,0.0174
3996.00,0.0173
3995.00,0.0173
3994.00,0.0172
3993.00,0.0172
3992.00,0.0172
3991.00,0.0172
3990.00,0.0172
3989.00,0.0172
3988.00,0.0172
3987.00,0.0172
3986.00,0.0171
3985.00,0.0171
3984.00,0.0172
3983.00,0.0172
3982.00,0.0172
3981.00,0.0172
3980.00,0.0171
3979.00,0.0171
3978.00,0.0171
3977.00,0.0171
3976.00,0.0171
3975.00,0.0170
3974.00,0.0170
3973.00,0.0171
3972.00,0.0171
3971.00,0.0172
3970.00,0.0172
3969.00,0.0172
3968.00,0.0171
3967.00,0.0170
3966.00,0.0170
3965.00,0.0170
3964.00,0.0170
3963.00,0.0171
3962.00,0.0171
3961.00,0.0171
3960.00,0.0170
3959.00,0.0170
3958.00,0.0170
3957.00,0.0170
3956.00,0.0170
3955.00,0.0169
3954.00,0.0169
3953.00,0.0169
3952.00,0.0169
3951.00,0.0169
3950.00,0.0170
3949.00,0.0170
3948.00,0.0170
3947.00,0.0170
3946.00,0.0170
3945.00,0.0169
3944.00,0.0169
3943.00,0.0168
3942.00,0.0168
3941.00,0.0168
3940.00,0.0168
3939.00,0.0168
3938.00,0.0169
3937.00,0.0169
3936.00,0.0169
3935.00,0.0168
3934.00,0.0168
3933.00,0.0167
3932.00,0.0167
3931.00,0.0167
3930.00,0.0167
3929.00,0.0167
3928.00,0.0167
3927.00,0.0167
3926.00,0.0167
3925.00,0.0168
3924.00,0.0168
3923.00,0.0167
3922.00,0.0167
3921.00,0.0167
3920.00,0.0166
3919.00,0.0166
3918.00,0.0167
3917.00,0.0167
3916.00,0.0168
3915.00,0.0168
3914.00,0.0168
3913.00,0.0168
3912.00,0.0168
3911.00,0.0168
3910.00,0.0168
3909.00,0.0167
3908.00,0.0166
3907.00,0.0165
3906.00,0.0164
3905.00,0.0163
3904.00,0.0162
3903.00,0.0161
3902.00,0.0161
3901.00,0.0162
3900.00,0.0162
3899.00,0.0163
3898.00,0.0163
3897.00,0.0163
3896.00,0.0164
3895.00,0.0164
3894.00,0.0165
3893.00,0.0165
3892.00,0.0165
3891.00,0.0165
3890.00,0.0163
3889.00,0.0162
3888.00,0.0161
3887.00,0.0161
3886.00,0.0161
3885.00,0.0161
3884.00,0.0161
3883.00,0.0161
3882.00,0.0161
3881.00,0.0161
3880.00,0.0161
3879.00,0.0161
3878.00,0.0162
3877.00,0.0163
3876.00,0.0164
3875.00,0.0164
3874.00,0.0162
3873.00,0.0160
3872.00,0.0159
3871.00,0.0159
3870.00,0.0160
3869.00,0.0160
3868.00,0.0159
3867.00,0.0159
3866.00,0.0160
3865.00,0.0161
3864.00,0.0163
3863.00,0.0163
3862.00,0.0164
3861.00,0.0163
3860.00,0.0163
3859.00,0.0162
3858.00,0.0160
3857.00,0.0157
3856.00,0.0153
3855.00,0.0152
3854.00,0.0154
3853.00,0.0157
3852.00,0.0157
3851.00,0.0157
3850.00,0.0158
3849.00,0.0160
3848.00,0.0161
3847.00,0.0162
3846.00,0.0161
3845.00,0.0161
3844.00,0.0161
3843.00,0.0160
3842.00,0.0159
3841.00,0.0158
3840.00,0.0158
3839.00,0.0158
3838.00,0.0158
3837.00,0.0158
3836.00,0.0158
3835.00,0.0159
3834.00,0.0160
3833.00,0.0161
3832.00,0.0162
3831.00,0.0162
3830.00,0.0162
3829.00,0.0162
3828.00,0.0161
3827.00,0.0161
3826.00,0.0161
3825.00,0.0160
3824.00,0.0159
3823.00,0.0159
3822.00,0.0160
3821.00,0.0159
3820.00,0.0157
3819.00,0.0155
3818.00,0.0155
3817.00,0.0157
3816.00,0.0160
3815.00,0.0162
3814.00,0.0163
3813.00,0.0163
3812.00,0.0163
3811.00,0.0162
3810.00,0.0161
3809.00,0.0160
3808.00,0.0160
3807.00,0.0160
3806.00,0.0160
3805.00,0.0159
3804.00,0.0159
3803.00,0.0160
3802.00,0.0161
3801.00,0.0161
3800.00,0.0160
3799.00,0.0159
3798.00,0.0159
3797.00,0.0160
3796.00,0.0160
3795.00,0.0161
3794.00,0.0161
3793.00,0.0161
3792.00,0.0162
3791.00,0.0162
3790.00,0.0163
3789.00,0.0163
3788.00,0.0163
3787.00,0.0163
3786.00,0.0164
3785.00,0.0164
3784.00,0.0164
3783.00,0.0163
3782.00,0.0162
3781.00,0.0162
3780.00,0.0161
3779.00,0.0161
3778.00,0.0160
3777.00,0.0160
3776.00,0.0160
3775.00,0.0161
3774.00,0.0160
3773.00,0.0160
3772.00,0.0159
3771.00,0.0158
3770.00,0.0158
3769.00,0.0157
3768.00,0.0156
3767.00,0.0157
3766.00,0.0158
3765.00,0.0158
3764.00,0.0158
3763.00,0.0158
3762.00,0.0159
3761.00,0.0159
3760.00,0.0159
3759.00,0.0158
3758.00,0.0157
3757.00,0.0156
3756.00,0.0154
3755.00,0.0153
3754.00,0.0151
3753.00,0.0150
3752.00,0.0151
3751.00,0.0152
3750.00,0.0152
3749.00,0.0152
3748.00,0.0151
3747.00,0.0151
3746.00,0.0152
3745.00,0.0152
3744.00,0.0151
3743.00,0.0149
3742.00,0.0149
3741.00,0.0151
3740.00,0.0153
3739.00,0.0154
3738.00,0.0154
3737.00,0.0153
3736.00,0.0153
3735.00,0.0151
3734.00,0.0149
3733.00,0.0148
3732.00,0.0148
3731.00,0.0150
3730.00,0.0151
3729.00,0.0153
3728.00,0.0154
3727.00,0.0155
3726.00,0.0155
3725.00,0.0154
3724.00,0.0154
3723.00,0.0154
3722.00,0.0154
3721.00,0.0156
3720.00,0.0157
3719.00,0.0159
3718.00,0.0159
3717.00,0.0159
3716.00,0.0158
3715.00,0.0157
3714.00,0.0157
3713.00,0.0159
3712.00,0.0161
3711.00,0.0162
3710.00,0.0162
3709.00,0.0162
3708.00,0.0163
3707.00,0.0165
3706.00,0.0168
3705.00,0.0171
3704.00,0.0172
3703.00,0.0173
3702.00,0.0174
3701.00,0.0176
3700.00,0.0177
3699.00,0.0179
3698.00,0.0180
3697.00,0.0181
3696.00,0.0182
3695.00,0.0182
3694.00,0.0181
3693.00,0.0179
3692.00,0.0178
3691.00,0.0178
3690.00,0.0179
3689.00,0.0179
3688.00,0.0178
3687.00,0.0177
3686.00,0.0177
3685.00,0.0177
3684.00,0.0177
3683.00,0.0176
3682.00,0.0175
3681.00,0.0173
3680.00,0.0170
3679.00,0.0167
3678.00,0.0164
3677.00,0.0162
3676.00,0.0162
3675.00,0.0162
3674.00,0.0161
3673.00,0.0160
3672.00,0.0162
3671.00,0.0165
3670.00,0.0169
3669.00,0.0170
3668.00,0.0170
3667.00,0.0170
3666.00,0.0171
3665.00,0.0173
3664.00,0.0175
3663.00,0.0176
3662.00,0.0177
3661.00,0.0178
3660.00,0.0179
3659.00,0.0180
3658.00,0.0181
3657.00,0.0182
3656.00,0.0182
3655.00,0.0182
3654.00,0.0181
3653.00,0.0180
3652.00,0.0179
3651.00,0.0177
3650.00,0.0178
3649.00,0.0179
3648.00,0.0180
3647.00,0.0181
3646.00,0.0183
3645.00,0.0185
3644.00,0.0187
3643.00,0.0189
3642.00,0.0191
3641.00,0.0192
3640.00,0.0192
3639.00,0.0193
3638.00,0.0193
3637.00,0.0194
3636.00,0.0194
3635.00,0.0195
3634.00,0.0194
3633.00,0.0193
3632.00,0.0192
3631.00,0.0191
3630.00,0.0193
3629.00,0.0196
3628.00,0.0198
3627.00,0.0198
3626.00,0.0199
3625.00,0.0201
3624.00,0.0204
3623.00,0.0205
3622.00,0.0207
3621.00,0.0208
3620.00,0.0210
3619.00,0.0211
3618.00,0.0210
3617.00,0.0209
3616.00,0.0208
3615.00,0.0208
3614.00,0.0208
3613.00,0.0207
3612.00,0.0206
3611.00,0.0206
3610.00,0.0207
3609.00,0.0209
3608.00,0.0211
3607.00,0.0212
3606.00,0.0212
3605.00,0.0212
3604.00,0.0212
3603.00,0.0213
3602.00,0.0215
3601.00,0.0217
3600.00,0.0217
3599.00,0.0217
3598.00,0.0216
3597.00,0.0216
3596.00,0.0216
3595.00,0.0217
3594.00,0.0217
3593.00,0.0216
3592.00,0.0216
3591.00,0.0215
3590.00,0.0215
3589.00,0.0216
3588.00,0.0217
3587.00,0.0218
3586.00,0.0219
3585.00,0.0220
3584.00,0.0221
3583.00,0.0223
3582.00,0.0224
3581.00,0.0225
3580.00,0.0225
3579.00,0.0226
3578.00,0.0226
3577.00,0.0227
3576.00,0.0228
3575.00,0.0229
3574.00,0.0230
3573.00,0.0230
3572.00,0.0230
3571.00,0.0229
3570.00,0.0228
3569.00,0.0227
3568.00,0.0229
3567.00,0.0231
3566.00,0.0231
3565.00,0.0231
3564.00,0.0230
3563.00,0.0231
3562.00,0.0233
3561.00,0.0235
3560.00,0.0236
3559.00,0.0237
3558.00,0.0238
3557.00,0.0239
3556.00,0.0240
3555.00,0.0241
3554.00,0.0242
3553.00,0.0243
3552.00,0.0244
3551.00,0.0244
3550.00,0.0244
3549.00,0.0245
3548.00,0.0245
3547.00,0.0246
3546.00,0.0247
3545.00,0.0247
3544.00,0.0248
3543.00,0.0248
3542.00,0.0249
3541.00,0.0249
3540.00,0.0249
3539.00,0.0249
3538.00,0.0249
3537.00,0.0249
3536.00,0.0250
3535.00,0.0251
3534.00,0.0252
3533.00,0.0253
3532.00,0.0254
3531.00,0.0254
3530.00,0.0254
3529.00,0.0254
3528.00,0.0253
3527.00,0.0253
3526.00,0.0254
3525.00,0.0256
3524.00,0.0258
3523.00,0.0260
3522.00,0.0260
3521.00,0.0260
3520.00,0.0259
3519.00,0.0259
3518.00,0.0259
3517.00,0.0258
3516.00,0.0259
3515.00,0.0259
3514.00,0.0261
3513.00,0.0262
3512.00,0.0263
3511.00,0.0264
3510.00,0.0264
3509.00,0.0264
3508.00,0.0264
3507.00,0.0265
3506.00,0.0265
3505.00,0.0266
3504.00,0.0267
3503.00,0.0268
3502.00,0.0269
3501.00,0.0269
3500.00,0.0269
3499.00,0.0270
3498.00,0.0271
3497.00,0.0272
3496.00,0.0273
3495.00,0.0273
3494.00,0.0273
3493.00,0.0274
3492.00,0.0274
3491.00,0.0274
3490.00,0.0274
3489.00,0.0274
3488.00,0.0274
3487.00,0.0275
3486.00,0.0275
3485.00,0.0275
3484.00,0.0275
3483.00,0.0276
3482.00,0.0277
3481.00,0.0278
3480.00,0.0278
3479.00,0.0279
3478.00,0.0279
3477.00,0.0280
3476.00,0.0281
3475.00,0.0281
3474.00,0.0282
3473.00,0.0282
3472.00,0.0283
3471.00,0.0283
3470.00,0.0284
3469.00,0.0285
3468.00,0.0285
3467.00,0.0286
3466.00,0.0286
3465.00,0.0287
3464.00,0.0287
3463.00,0.0287
3462.00,0.0286
3461.00,0.0285
3460.00,0.0286
3459.00,0.0287
3458.00,0.0289
3457.00,0.0290
3456.00,0.0290
3455.00,0.0289
3454.00,0.0290
3453.00,0.0291
3452.00,0.0292
3451.00,0.0293
3450.00,0.0293
3449.00,0.0293
3448.00,0.0293
3447.00,0.0294
3446.00,0.0295
3445.00,0.0295
3444.00,0.0296
3443.00,0.0296
3442.00,0.0296
3441.00,0.0295
3440.00,0.0294
3439.00,0.0294
3438.00,0.0294
3437.00,0.0295
3436.00,0.0295
3435.00,0.0296
3434.00,0.0296
3433.00,0.0297
3432.00,0.0298
3431.00,0.0299
3430.00,0.0300
3429.00,0.0300
3428.00,0.0300
3427.00,0.0300
3426.00,0.0300
3425.00,0.0301
3424.00,0.0302
3423.00,0.0303
3422.00,0.0303
3421.00,0.0304
3420.00,0.0304
3419.00,0.0305
3418.00,0.0305
3417.00,0.0305
3416.00,0.0305
3415.00,0.0305
3414.00,0.0305
3413.00,0.0306
3412.00,0.0307
3411.00,0.0307
3410.00,0.0308
3409.00,0.0309
3408.00,0.0309
3407.00,0.0310
3406.00,0.0310
3405.00,0.0310
3404.00,0.0310
3403.00,0.0310
3402.00,0.0310
3401.00,0.0311
3400.00,0.0311
3399.00,0.0311
3398.00,0.0312
3397.00,0.0312
3396.00,0.0312
3395.00,0.0312
3394.00,0.0312
3393.00,0.0313
3392.00,0.0314
3391.00,0.0314
3390.00,0.0315
3389.00,0.0315
3388.00,0.0315
3387.00,0.0314
3386.00,0.0314
3385.00,0.0314
3384.00,0.0315
3383.00,0.0316
3382.00,0.0316
3381.00,0.0317
3380.00,0.0317
3379.00,0.0318
3378.00,0.0318
3377.00,0.0318
3376.00,0.0318
3375.00,0.0318
3374.00,0.0318
3373.00,0.0318
3372.00,0.0318
3371.00,0.0318
3370.00,0.0318
3369.00,0.0318
3368.00,0.0319
3367.00,0.0319
3366.00,0.0319
3365.00,0.0319
3364.00,0.0319
3363.00,0.0320
3362.00,0.0321
3361.00,0.0322
3360.00,0.0323
3359.00,0.0323
3358.00,0.0323
3357.00,0.0323
3356.00,0.0323
3355.00,0.0323
3354.00,0.0324
3353.00,0.0324
3352.00,0.0324
3351.00,0.0325
3350.00,0.0325
3349.00,0.0325
3348.00,0.0325
3347.00,0.0325
3346.00,0.0325
3345.00,0.0325
3344.00,0.0324
3343.00,0.0324
3342.00,0.0324
3341.00,0.0325
3340.00,0.0326
3339.00,0.0326
3338.00,0.0327
3337.00,0.0326
3336.00,0.0326
3335.00,0.0326
3334.00,0.0326
3333.00,0.0326
3332.00,0.0326
3331.00,0.0325
3330.00,0.0325
3329.00,0.0325
3328.00,0.0325
3327.00,0.0326
3326.00,0.0326
3325.00,0.0328
3324.00,0.0328
3323.00,0.0329
3322.00,0.0329
3321.00,0.0328
3320.00,0.0328
3319.00,0.0328
3318.00,0.0328
3317.00,0.0328
3316.00,0.0328
3315.00,0.0327
3314.00,0.0327
3313.00,0.0327
3312.00,0.0327
3311.00,0.0327
3310.00,0.0328
3309.00,0.0329
3308.00,0.0330
3307.00,0.0330
3306.00,0.0330
3305.00,0.0329
3304.00,0.0329
3303.00,0.0329
3302.00,0.0330
3301.00,0.0330
3300.00,0.0330
3299.00,0.0330
3298.00,0.0329
3297.00,0.0330
3296.00,0.0331
3295.00,0.0331
3294.00,0.0331
3293.00,0.0331
3292.00,0.0331
3291.00,0.0330
3290.00,0.0330
3289.00,0.0330
3288.00,0.0331
3287.00,0.0331
3286.00,0.0331
3285.00,0.0332
3284.00,0.0332
3283.00,0.0332
3282.00,0.0331
3281.00,0.0331
3280.00,0.0331
3279.00,0.0331
3278.00,0.0331
3277.00,0.0331
3276.00,0.0331
3275.00,0.0331
3274.00,0.0332
3273.00,0.0332
3272.00,0.0332
3271.00,0.0332
3270.00,0.0333
3269.00,0.0333
3268.00,0.0333
3267.00,0.0333
3266.00,0.0333
3265.00,0.0332
3264.00,0.0331
3263.00,0.0331
3262.00,0.0331
3261.00,0.0331
3260.00,0.0332
3259.00,0.0332
3258.00,0.0332
3257.00,0.0332
3256.00,0.0331
3255.00,0.0331
3254.00,0.0331
3253.00,0.0331
3252.00,0.0331
3251.00,0.0331
3250.00,0.0330
3249.00,0.0330
3248.00,0.0330
3247.00,0.0331
3246.00,0.0331
3245.00,0.0331
3244.00,0.0331
3243.00,0.0330
3242.00,0.0330
3241.00,0.0330
3240.00,0.0330
3239.00,0.0330
3238.00,0.0330
3237.00,0.0331
3236.00,0.0332
3235.00,0.0333
3234.00,0.0333
3233.00,0.0333
3232.00,0.0333
3231.00,0.0332
3230.00,0.0331
3229.00,0.0330
3228.00,0.0329
3227.00,0.0329
3226.00,0.0329
3225.00,0.0330
3224.00,0.0330
3223.00,0.0330
3222.00,0.0330
3221.00,0.0329
3220.00,0.0329
3219.00,0.0328
3218.00,0.0328
3217.00,0.0329
3216.00,0.0329
3215.00,0.0330
3214.00,0.0330
3213.00,0.0329
3212.00,0.0328
3211.00,0.0328
3210.00,0.0327
3209.00,0.0327
3208.00,0.0327
3207.00,0.0327
3206.00,0.0328
3205.00,0.0328
3204.00,0.0329
3203.00,0.0329
3202.00,0.0329
3201.00,0.0329
3200.00,0.0329
3199.00,0.0328
3198.00,0.0328
3197.00,0.0328
3196.00,0.0328
3195.00,0.0328
3194.00,0.0327
3193.00,0.0327
3192.00,0.0327
3191.00,0.0326
3190.00,0.0326
3189.00,0.0325
3188.00,0.0325
3187.00,0.0324
3186.00,0.0324
3185.00,0.0324
3184.00,0.0324
3183.00,0.0325
3182.00,0.0326
3181.00,0.0326
3180.00,0.0325
3179.00,0.0324
3178.00,0.0323
3177.00,0.0322
3176.00,0.0322
3175.00,0.0322
3174.00,0.0323
3173.00,0.0323
3172.00,0.0323
3171.00,0.0322
3170.00,0.0322
3169.00,0.0321
3168.00,0.0321
3167.00,0.0321
3166.00,0.0321
3165.00,0.0322
3164.00,0.0323
3163.00,0.0323
3162.00,0.0322
3161.00,0.0321
3160.00,0.0320
3159.00,0.0319
3158.00,0.0318
3157.00,0.0317
3156.00,0.0318
3155.00,0.0318
3154.00,0.0319
3153.00,0.0319
3152.00,0.0319
3151.00,0.0318
3150.00,0.0318
3149.00,0.0317
3148.00,0.0317
3147.00,0.0317
3146.00,0.0317
3145.00,0.0317
3144.00,0.0317
3143.00,0.0317
3142.00,0.0317
3141.00,0.0316
3140.00,0.0316
3139.00,0.0315
3138.00,0.0315
3137.00,0.0315
3136.00,0.0315
3135.00,0.0315
3134.00,0.0315
3133.00,0.0314
3132.00,0.0314
3131.00,0.0314
3130.00,0.0314
3129.00,0.0314
3128.00,0.0313
3127.00,0.0313
3126.00,0.0312
3125.00,0.0312
3124.00,0.0312
3123.00,0.0312
3122.00,0.0312
3121.00,0.0311
3120.00,0.0311
3119.00,0.0311
3118.00,0.0312
3117.00,0.0311
3116.00,0.0311
3115.00,0.0311
3114.00,0.0311
3113.00,0.0311
3112.00,0.0310
3111.00,0.0310
3110.00,0.0309
3109.00,0.0308
3108.00,0.0308
3107.00,0.0308
3106.00,0.0309
3105.00,0.0309
3104.00,0.0309
3103.00,0.0308
3102.00,0.0308
3101.00,0.0308
3100.00,0.0307
3099.00,0.0307
3098.00,0.0307
3097.00,0.0307
3096.00,0.0307
3095.00,0.0308
3094.00,0.0309
3093.00,0.0309
3092.00,0.0308
3091.00,0.0308
3090.00,0.0307
3089.00,0.0305
3088.00,0.0305
3087.00,0.0304
3086.00,0.0305
3085.00,0.0306
3084.00,0.0306
3083.00,0.0306
3082.00,0.0305
3081.00,0.0305
3080.00,0.0305
3079.00,0.0305
3078.00,0.0304
3077.00,0.0304
3076.00,0.0304
3075.00,0.0304
3074.00,0.0305
3073.00,0.0304
3072.00,0.0304
3071.00,0.0304
3070.00,0.0304
3069.00,0.0304
3068.00,0.0304
3067.00,0.0304
3066.00,0.0303
3065.00,0.0302
3064.00,0.0301
3063.00,0.0301
3062.00,0.0301
3061.00,0.0301
3060.00,0.0301
3059.00,0.0301
3058.00,0.0301
3057.00,0.0301
3056.00,0.0301
3055.00,0.0301
3054.00,0.0300
3053.00,0.0300
3052.00,0.0299
3051.00,0.0300
3050.00,0.0300
3049.00,0.0300
3048.00,0.0300
3047.00,0.0300
3046.00,0.0299
3045.00,0.0299
3044.00,0.0298
3043.00,0.0297
3042.00,0.0296
3041.00,0.0295
3040.00,0.0295
3039.00,0.0295
3038.00,0.0295
3037.00,0.0295
3036.00,0.0295
3035.00,0.0295
3034.00,0.0295
3033.00,0.0295
3032.00,0.0295
3031.00,0.0294
3030.00,0.0293
3029.00,0.0292
3028.00,0.0291
3027.00,0.0291
3026.00,0.0291
3025.00,0.0291
3024.00,0.0291
3023.00,0.0291
3022.00,0.0290
3021.00,0.0290
3020.00,0.0289
3019.00,0.0288
3018.00,0.0287
3017.00,0.0287
3016.00,0.0286
3015.00,0.0286
3014.00,0.0285
3013.00,0.0285
3012.00,0.0284
3011.00,0.0283
3010.00,0.0283
3009.00,0.0281
3008.00,0.0280
3007.00,0.0278
3006.00,0.0277
3005.00,0.0276
3004.00,0.0275
3003.00,0.0274
3002.00,0.0272
3001.00,0.0271
3000.00,0.0269
2999.00,0.0268
2998.00,0.0267
2997.00,0.0266
2996.00,0.0265
2995.00,0.0265
2994.00,0.0264
2993.00,0.0263
2992.00,0.0263
2991.00,0.0262
2990.00,0.0261
2989.00,0.0260
2988.00,0.0259
2987.00,0.0258
2986.00,0.0255
2985.00,0.0252
2984.00,0.0249
2983.00,0.0247
2982.00,0.0245
2981.00,0.0245
2980.00,0.0246
2979.00,0.0248
2978.00,0.0250
2977.00,0.0252
2976.00,0.0253
2975.00,0.0254
2974.00,0.0254
2973.00,0.0254
2972.00,0.0253
2971.00,0.0254
2970.00,0.0255
2969.00,0.0257
2968.00,0.0258
2967.00,0.0260
2966.00,0.0260
2965.00,0.0261
2964.00,0.0262
2963.00,0.0263
2962.00,0.0264
2961.00,0.0265
2960.00,0.0265
2959.00,0.0265
2958.00,0.0266
2957.00,0.0266
2956.00,0.0267
2955.00,0.0268
2954.00,0.0269
2953.00,0.0270
2952.00,0.0271
2951.00,0.0272
2950.00,0.0273
2949.00,0.0273
2948.00,0.0274
2947.00,0.0274
2946.00,0.0274
2945.00,0.0274
2944.00,0.0275
2943.00,0.0276
2942.00,0.0278
2941.00,0.0278
2940.00,0.0279
2939.00,0.0279
2938.00,0.0279
2937.00,0.0279
2936.00,0.0280
2935.00,0.0280
2934.00,0.0280
2933.00,0.0280
2932.00,0.0281
2931.00,0.0281
2930.00,0.0282
2929.00,0.0282
2928.00,0.0283
2927.00,0.0283
2926.00,0.0282
2925.00,0.0281
2924.00,0.0281
2923.00,0.0281
2922.00,0.0281
2921.00,0.0280
2920.00,0.0279
2919.00,0.0278
2918.00,0.0276
2917.00,0.0275
2916.00,0.0274
2915.00,0.0274
2914.00,0.0274
2913.00,0.0273
2912.00,0.0273
2911.00,0.0273
2910.00,0.0272
2909.00,0.0272
2908.00,0.0271
2907.00,0.0271
2906.00,0.0270
2905.00,0.0269
2904.00,0.0269
2903.00,0.0268
2902.00,0.0268
2901.00,0.0268
2900.00,0.0268
2899.00,0.0268
2898.00,0.0267
2897.00,0.0266
2896.00,0.0266
2895.00,0.0265
2894.00,0.0265
2893.00,0.0264
2892.00,0.0264
2891.00,0.0263
2890.00,0.0263
2889.00,0.0262
2888.00,0.0262
2887.00,0.0262
2886.00,0.0262
2885.00,0.0261
2884.00,0.0260
2883.00,0.0260
2882.00,0.0260
2881.00,0.0261
2880.00,0.0261
2879.00,0.0262
2878.00,0.0263
2877.00,0.0263
2876.00,0.0263
2875.00,0.0263
2874.00,0.0263
2873.00,0.0262
2872.00,0.0262
2871.00,0.0262
2870.00,0.0262
2869.00,0.0262
2868.00,0.0262
2867.00,0.0263
2866.00,0.0263
2865.00,0.0263
2864.00,0.0264
2863.00,0.0264
2862.00,0.0264
2861.00,0.0265
2860.00,0.0265
2859.00,0.0266
2858.00,0.0267
2857.00,0.0268
2856.00,0.0268
2855.00,0.0267
2854.00,0.0267
2853.00,0.0266
2852.00,0.0266
2851.00,0.0266
2850.00,0.0266
2849.00,0.0266
2848.00,0.0265
2847.00,0.0265
2846.00,0.0264
2845.00,0.0263
2844.00,0.0263
2843.00,0.0262
2842.00,0.0261
2841.00,0.0260
2840.00,0.0259
2839.00,0.0258
2838.00,0.0257
2837.00,0.0257
2836.00,0.0258
2835.00,0.0258
2834.00,0.0258
2833.00,0.0257
2832.00,0.0256
2831.00,0.0255
2830.00,0.0255
2829.00,0.0255
2828.00,0.0255
2827.00,0.0255
2826.00,0.0255
2825.00,0.0255
2824.00,0.0255
2823.00,0.0255
2822.00,0.0254
2821.00,0.0254
2820.00,0.0253
2819.00,0.0252
2818.00,0.0252
2817.00,0.0252
2816.00,0.0252
2815.00,0.0251
2814.00,0.0251
2813.00,0.0251
2812.00,0.0251
2811.00,0.0251
2810.00,0.0250
2809.00,0.0250
2808.00,0.0250
2807.00,0.0250
2806.00,0.0250
2805.00,0.0250
2804.00,0.0250
2803.00,0.0249
2802.00,0.0249
2801.00,0.0249
2800.00,0.0249
2799.00,0.0249
2798.00,0.0249
2797.00,0.0249
2796.00,0.0249
2795.00,0.0248
2794.00,0.0248
2793.00,0.0248
2792.00,0.0248
2791.00,0.0248
2790.00,0.0247
2789.00,0.0247
2788.00,0.0247
2787.00,0.0247
2786.00,0.0246
2785.00,0.0246
2784.00,0.0246
2783.00,0.0246
2782.00,0.0245
2781.00,0.0244
2780.00,0.0243
2779.00,0.0243
2778.00,0.0244
2777.00,0.0244
2776.00,0.0244
2775.00,0.0244
2774.00,0.0244
2773.00,0.0244
2772.00,0.0243
2771.00,0.0243
2770.00,0.0242
2769.00,0.0242
2768.00,0.0241
2767.00,0.0241
2766.00,0.0241
2765.00,0.0241
2764.00,0.0241
2763.00,0.0241
2762.00,0.0241
2761.00,0.0241
2760.00,0.0241
2759.00,0.0241
2758.00,0.0241
2757.00,0.0240
2756.00,0.0240
2755.00,0.0240
2754.00,0.0240
2753.00,0.0240
2752.00,0.0240
2751.00,0.0240
2750.00,0.0240
2749.00,0.0240
2748.00,0.0240
2747.00,0.0240
2746.00,0.0240
2745.00,0.0240
2744.00,0.0240
2743.00,0.0240
2742.00,0.0239
2741.00,0.0239
2740.00,0.0239
2739.00,0.0238
2738.00,0.0238
2737.00,0.0238
2736.00,0.0237
2735.00,0.0237
2734.00,0.0237
2733.00,0.0238
2732.00,0.0238
2731.00,0.0238
2730.00,0.0237
2729.00,0.0237
2728.00,0.0236
2727.00,0.0236
2726.00,0.0236
2725.00,0.0236
2724.00,0.0236
2723.00,0.0236
2722.00,0.0236
2721.00,0.0235
2720.00,0.0235
2719.00,0.0235
2718.00,0.0235
2717.00,0.0235
2716.00,0.0235
2715.00,0.0235
2714.00,0.0235
2713.00,0.0235
2712.00,0.0235
2711.00,0.0235
2710.00,0.0235
2709.00,0.0234
2708.00,0.0234
2707.00,0.0234
2706.00,0.0233
2705.00,0.0233
2704.00,0.0233
2703.00,0.0233
2702.00,0.0232
2701.00,0.0232
2700.00,0.0233
2699.00,0.0233
2698.00,0.0233
2697.00,0.0232
2696.00,0.0232
2695.00,0.0232
2694.00,0.0232
2693.00,0.0232
2692.00,0.0232
2691.00,0.0232
2690.00,0.0232
2689.00,0.0231
2688.00,0.0231
2687.00,0.0231
2686.00,0.0231
2685.00,0.0231
2684.00,0.0231
2683.00,0.0231
2682.00,0.0231
2681.00,0.0230
2680.00,0.0230
2679.00,0.0229
2678.00,0.0229
2677.00,0.0228
2676.00,0.0228
2675.00,0.0228
2674.00,0.0229
2673.00,0.0229
2672.00,0.0229
2671.00,0.0228
2670.00,0.0228
2669.00,0.0228
2668.00,0.0228
2667.00,0.0228
2666.00,0.0228
2665.00,0.0229
2664.00,0.0229
2663.00,0.0230
2662.00,0.0230
2661.00,0.0231
2660.00,0.0231
2659.00,0.0231
2658.00,0.0231
2657.00,0.0231
2656.00,0.0231
2655.00,0.0230
2654.00,0.0230
2653.00,0.0231
2652.00,0.0231
2651.00,0.0231
2650.00,0.0231
2649.00,0.0231
2648.00,0.0231
2647.00,0.0230
2646.00,0.0230
2645.00,0.0230
2644.00,0.0230
2643.00,0.0230
2642.00,0.0231
2641.00,0.0231
2640.00,0.0231
2639.00,0.0231
2638.00,0.0231
2637.00,0.0231
2636.00,0.0230
2635.00,0.0230
2634.00,0.0230
2633.00,0.0230
2632.00,0.0230
2631.00,0.0230
2630.00,0.0229
2629.00,0.0229
2628.00,0.0228
2627.00,0.0228
2626.00,0.0228
2625.00,0.0229
2624.00,0.0229
2623.00,0.0230
2622.00,0.0230
2621.00,0.0231
2620.00,0.0231
2619.00,0.0230
2618.00,0.0230
2617.00,0.0230
2616.00,0.0229
2615.00,0.0229
2614.00,0.0229
2613.00,0.0229
2612.00,0.0229
2611.00,0.0230
2610.00,0.0229
2609.00,0.0229
2608.00,0.0228
2607.00,0.0228
2606.00,0.0229
2605.00,0.0229
2604.00,0.0229
2603.00,0.0229
2602.00,0.0229
2601.00,0.0228
2600.00,0.0228
2599.00,0.0227
2598.00,0.0227
2597.00,0.0227
2596.00,0.0226
2595.00,0.0226
2594.00,0.0226
2593.00,0.0227
2592.00,0.0227
2591.00,0.0228
2590.00,0.0228
2589.00,0.0228
2588.00,0.0228
2587.00,0.0227
2586.00,0.0226
2585.00,0.0225
2584.00,0.0225
2583.00,0.0225
2582.00,0.0226
2581.00,0.0227
2580.00,0.0227
2579.00,0.0227
2578.00,0.0227
2577.00,0.0226
2576.00,0.0225
2575.00,0.0224
2574.00,0.0224
2573.00,0.0225
2572.00,0.0225
2571.00,0.0224
2570.00,0.0224
2569.00,0.0224
2568.00,0.0224
2567.00,0.0226
2566.00,0.0226
2565.00,0.0226
2564.00,0.0226
2563.00,0.0226
2562.00,0.0226
2561.00,0.0226
2560.00,0.0226
2559.00,0.0226
2558.00,0.0225
2557.00,0.0226
2556.00,0.0226
2555.00,0.0226
2554.00,0.0225
2553.00,0.0224
2552.00,0.0223
2551.00,0.0222
2550.00,0.0221
2549.00,0.0220
2548.00,0.0219
2547.00,0.0219
2546.00,0.0220
2545.00,0.0221
2544.00,0.0221
2543.00,0.0221
2542.00,0.0221
2541.00,0.0220
2540.00,0.0219
2539.00,0.0218
2538.00,0.0218
2537.00,0.0217
2536.00,0.0217
2535.00,0.0218
2534.00,0.0219
2533.00,0.0220
2532.00,0.0221
2531.00,0.0220
2530.00,0.0219
2529.00,0.0218
2528.00,0.0218
2527.00,0.0217
2526.00,0.0217
2525.00,0.0217
2524.00,0.0217
2523.00,0.0217
2522.00,0.0217
2521.00,0.0217
2520.00,0.0218
2519.00,0.0219
2518.00,0.0220
2517.00,0.0220
2516.00,0.0221
2515.00,0.0220
2514.00,0.0218
2513.00,0.0217
2512.00,0.0217
2511.00,0.0217
2510.00,0.0218
2509.00,0.0219
2508.00,0.0220
2507.00,0.0219
2506.00,0.0219
2505.00,0.0218
2504.00,0.0217
2503.00,0.0217
2502.00,0.0218
2501.00,0.0218
2500.00,0.0218
2499.00,0.0218
2498.00,0.0218
2497.00,0.0218
2496.00,0.0218
2495.00,0.0219
2494.00,0.0219
2493.00,0.0220
2492.00,0.0220
2491.00,0.0220
2490.00,0.0220
2489.00,0.0220
2488.00,0.0219
2487.00,0.0219
2486.00,0.0218
2485.00,0.0216
2484.00,0.0216
2483.00,0.0215
2482.00,0.0215
2481.00,0.0216
2480.00,0.0217
2479.00,0.0217
2478.00,0.0216
2477.00,0.0215
2476.00,0.0215
2475.00,0.0215
2474.00,0.0215
2473.00,0.0215
2472.00,0.0215
2471.00,0.0215
2470.00,0.0214
2469.00,0.0214
2468.00,0.0213
2467.00,0.0213
2466.00,0.0213
2465.00,0.0214
2464.00,0.0214
2463.00,0.0214
2462.00,0.0214
2461.00,0.0214
2460.00,0.0214
2459.00,0.0215
2458.00,0.0215
2457.00,0.0215
2456.00,0.0215
2455.00,0.0216
2454.00,0.0217
2453.00,0.0217
2452.00,0.0217
2451.00,0.0217
2450.00,0.0216
2449.00,0.0215
2448.00,0.0214
2447.00,0.0214
2446.00,0.0213
2445.00,0.0213
2444.00,0.0212
2443.00,0.0212
2442.00,0.0212
2441.00,0.0212
2440.00,0.0213
2439.00,0.0213
2438.00,0.0213
2437.00,0.0213
2436.00,0.0212
2435.00,0.0211
2434.00,0.0211
2433.00,0.0210
2432.00,0.0210
2431.00,0.0210
2430.00,0.0211
2429.00,0.0211
2428.00,0.0211
2427.00,0.0211
2426.00,0.0211
2425.00,0.0210
2424.00,0.0210
2423.00,0.0210
2422.00,0.0209
2421.00,0.0209
2420.00,0.0209
2419.00,0.0209
2418.00,0.0209
2417.00,0.0209
2416.00,0.0208
2415.00,0.0208
2414.00,0.0208
2413.00,0.0208
2412.00,0.0209
2411.00,0.0209
2410.00,0.0209
2409.00,0.0209
2408.00,0.0208
2407.00,0.0208
2406.00,0.0207
2405.00,0.0207
2404.00,0.0207
2403.00,0.0206
2402.00,0.0205
2401.00,0.0205
2400.00,0.0205
2399.00,0.0205
2398.00,0.0205
2397.00,0.0205
2396.00,0.0204
2395.00,0.0204
2394.00,0.0204
2393.00,0.0204
2392.00,0.0204
2391.00,0.0204
2390.00,0.0204
2389.00,0.0204
2388.00,0.0203
2387.00,0.0203
2386.00,0.0203
2385.00,0.0202
2384.00,0.0201
2383.00,0.0201
2382.00,0.0200
2381.00,0.0200
2380.00,0.0200
2379.00,0.0200
2378.00,0.0200
2377.00,0.0199
2376.00,0.0199
2375.00,0.0198
2374.00,0.0198
2373.00,0.0198
2372.00,0.0198
2371.00,0.0198
2370.00,0.0197
2369.00,0.0195
2368.00,0.0193
2367.00,0.0193
2366.00,0.0194
2365.00,0.0196
2364.00,0.0197
2363.00,0.0197
2362.00,0.0196
2361.00,0.0197
2360.00,0.0199
2359.00,0.0200
2358.00,0.0200
2357.00,0.0199
2356.00,0.0196
2355.00,0.0194
2354.00,0.0192
2353.00,0.0193
2352.00,0.0196
2351.00,0.0197
2350.00,0.0196
2349.00,0.0194
2348.00,0.0190
2347.00,0.0188
2346.00,0.0187
2345.00,0.0190
2344.00,0.0193
2343.00,0.0197
2342.00,0.0200
2341.00,0.0202
2340.00,0.0202
2339.00,0.0200
2338.00,0.0198
2337.00,0.0196
2336.00,0.0195
2335.00,0.0196
2334.00,0.0198
2333.00,0.0200
2332.00,0.0200
2331.00,0.0199
2330.00,0.0199
2329.00,0.0200
2328.00,0.0202
2327.00,0.0205
2326.00,0.0208
2325.00,0.0209
2324.00,0.0208
2323.00,0.0206
2322.00,0.0205
2321.00,0.0204
2320.00,0.0204
2319.00,0.0204
2318.00,0.0204
2317.00,0.0204
2316.00,0.0203
2315.00,0.0202
2314.00,0.0202
2313.00,0.0202
2312.00,0.0202
2311.00,0.0202
2310.00,0.0203
2309.00,0.0204
2308.00,0.0205
2307.00,0.0204
2306.00,0.0204
2305.00,0.0203
2304.00,0.0202
2303.00,0.0201
2302.00,0.0200
2301.00,0.0200
2300.00,0.0201
2299.00,0.0202
2298.00,0.0202
2297.00,0.0203
2296.00,0.0203
2295.00,0.0204
2294.00,0.0204
2293.00,0.0206
2292.00,0.0207
2291.00,0.0208
2290.00,0.0207
2289.00,0.0207
2288.00,0.0207
2287.00,0.0208
2286.00,0.0209
2285.00,0.0210
2284.00,0.0211
2283.00,0.0211
2282.00,0.0210
2281.00,0.0210
2280.00,0.0209
2279.00,0.0209
2278.00,0.0210
2277.00,0.0209
2276.00,0.0208
2275.00,0.0206
2274.00,0.0204
2273.00,0.0203
2272.00,0.0203
2271.00,0.0203
2270.00,0.0203
2269.00,0.0203
2268.00,0.0203
2267.00,0.0203
2266.00,0.0203
2265.00,0.0203
2264.00,0.0204
2263.00,0.0205
2262.00,0.0205
2261.00,0.0206
2260.00,0.0206
2259.00,0.0206
2258.00,0.0204
2257.00,0.0201
2256.00,0.0199
2255.00,0.0198
2254.00,0.0198
2253.00,0.0200
2252.00,0.0201
2251.00,0.0201
2250.00,0.0202
2249.00,0.0202
2248.00,0.0202
2247.00,0.0202
2246.00,0.0203
2245.00,0.0204
2244.00,0.0203
2243.00,0.0203
2242.00,0.0203
2241.00,0.0203
2240.00,0.0202
2239.00,0.0202
2238.00,0.0201
2237.00,0.0200
2236.00,0.0200
2235.00,0.0200
2234.00,0.0201
2233.00,0.0202
2232.00,0.0202
2231.00,0.0201
2230.00,0.0200
2229.00,0.0199
2228.00,0.0200
2227.00,0.0200
2226.00,0.0200
2225.00,0.0201
2224.00,0.0200
2223.00,0.0199
2222.00,0.0198
2221.00,0.0198
2220.00,0.0198
2219.00,0.0199
2218.00,0.0200
2217.00,0.0200
2216.00,0.0200
2215.00,0.0201
2214.00,0.0202
2213.00,0.0202
2212.00,0.0201
2211.00,0.0200
2210.00,0.0199
2209.00,0.0199
2208.00,0.0200
2207.00,0.0200
2206.00,0.0201
2205.00,0.0200
2204.00,0.0200
2203.00,0.0199
2202.00,0.0198
2201.00,0.0197
2200.00,0.0196
2199.00,0.0195
2198.00,0.0196
2197.00,0.0196
2196.00,0.0196
2195.00,0.0196
2194.00,0.0196
2193.00,0.0196
2192.00,0.0195
2191.00,0.0194
2190.00,0.0192
2189.00,0.0191
2188.00,0.0192
2187.00,0.0196
2186.00,0.0200
2185.00,0.0201
2184.00,0.0200
2183.00,0.0197
2182.00,0.0194
2181.00,0.0194
2180.00,0.0196
2179.00,0.0198
2178.00,0.0200
2177.00,0.0200
2176.00,0.0200
2175.00,0.0198
2174.00,0.0197
2173.00,0.0197
2172.00,0.0199
2171.00,0.0202
2170.00,0.0205
2169.00,0.0208
2168.00,0.0209
2167.00,0.0208
2166.00,0.0208
2165.00,0.0210
2164.00,0.0213
2163.00,0.0214
2162.00,0.0214
2161.00,0.0208
2160.00,0.0199
2159.00,0.0187
2158.00,0.0179
2157.00,0.0176
2156.00,0.0177
2155.00,0.0179
2154.00,0.0182
2153.00,0.0185
2152.00,0.0186
2151.00,0.0185
2150.00,0.0182
2149.00,0.0179
2148.00,0.0179
2147.00,0.0181
2146.00,0.0184
2145.00,0.0188
2144.00,0.0190
2143.00,0.0190
2142.00,0.0190
2141.00,0.0190
2140.00,0.0189
2139.00,0.0187
2138.00,0.0184
2137.00,0.0182
2136.00,0.0179
2135.00,0.0178
2134.00,0.0177
2133.00,0.0178
2132.00,0.0180
2131.00,0.0182
2130.00,0.0184
2129.00,0.0186
2128.00,0.0189
2127.00,0.0190
2126.00,0.0189
2125.00,0.0188
2124.00,0.0187
2123.00,0.0187
2122.00,0.0187
2121.00,0.0186
2120.00,0.0186
2119.00,0.0187
2118.00,0.0187
2117.00,0.0187
2116.00,0.0187
2115.00,0.0186
2114.00,0.0185
2113.00,0.0185
2112.00,0.0187
2111.00,0.0189
2110.00,0.0191
2109.00,0.0192
2108.00,0.0193
2107.00,0.0194
2106.00,0.0194
2105.00,0.0193
2104.00,0.0192
2103.00,0.0192
2102.00,0.0192
2101.00,0.0191
2100.00,0.0189
2099.00,0.0187
2098.00,0.0185
2097.00,0.0184
2096.00,0.0185
2095.00,0.0186
2094.00,0.0187
2093.00,0.0187
2092.00,0.0186
2091.00,0.0185
2090.00,0.0185
2089.00,0.0185
2088.00,0.0186
2087.00,0.0187
2086.00,0.0189
2085.00,0.0190
2084.00,0.0191
2083.00,0.0191
2082.00,0.0190
2081.00,0.0189
2080.00,0.0190
2079.00,0.0190
2078.00,0.0190
2077.00,0.0190
2076.00,0.0190
2075.00,0.0190
2074.00,0.0190
2073.00,0.0190
2072.00,0.0190
2071.00,0.0191
2070.00,0.0190
2069.00,0.0189
2068.00,0.0186
2067.00,0.0184
2066.00,0.0184
2065.00,0.0185
2064.00,0.0187
2063.00,0.0189
2062.00,0.0190
2061.00,0.0190
2060.00,0.0189
2059.00,0.0188
2058.00,0.0188
2057.00,0.0189
2056.00,0.0189
2055.00,0.0189
2054.00,0.0190
2053.00,0.0192
2052.00,0.0194
2051.00,0.0194
2050.00,0.0192
2049.00,0.0190
2048.00,0.0188
2047.00,0.0188
2046.00,0.0190
2045.00,0.0191
2044.00,0.0193
2043.00,0.0193
2042.00,0.0192
2041.00,0.0190
2040.00,0.0187
2039.00,0.0186
2038.00,0.0187
2037.00,0.0190
2036.00,0.0192
2035.00,0.0191
2034.00,0.0188
2033.00,0.0187
2032.00,0.0189
2031.00,0.0193
2030.00,0.0194
2029.00,0.0192
2028.00,0.0188
2027.00,0.0184
2026.00,0.0182
2025.00,0.0181
2024.00,0.0180
2023.00,0.0178
2022.00,0.0177
2021.00,0.0175
2020.00,0.0173
2019.00,0.0172
2018.00,0.0172
2017.00,0.0172
2016.00,0.0174
2015.00,0.0177
2014.00,0.0179
2013.00,0.0180
2012.00,0.0180
2011.00,0.0179
2010.00,0.0179
2009.00,0.0180
2008.00,0.0180
2007.00,0.0179
2006.00,0.0178
2005.00,0.0177
2004.00,0.0177
2003.00,0.0180
2002.00,0.0184
2001.00,0.0187
2000.00,0.0186
1999.00,0.0183
1998.00,0.0181
1997.00,0.0182
1996.00,0.0184
1995.00,0.0188
1994.00,0.0190
1993.00,0.0190
1992.00,0.0189
1991.00,0.0186
1990.00,0.0183
1989.00,0.0181
1988.00,0.0180
1987.00,0.0181
1986.00,0.0182
1985.00,0.0184
1984.00,0.0186
1983.00,0.0187
1982.00,0.0187
1981.00,0.0186
1980.00,0.0183
1979.00,0.0178
1978.00,0.0171
1977.00,0.0167
1976.00,0.0166
1975.00,0.0169
1974.00,0.0173
1973.00,0.0174
1972.00,0.0172
1971.00,0.0169
1970.00,0.0168
1969.00,0.0169
1968.00,0.0170
1967.00,0.0169
1966.00,0.0167
1965.00,0.0166
1964.00,0.0167
1963.00,0.0168
1962.00,0.0169
1961.00,0.0170
1960.00,0.0170
1959.00,0.0170
1958.00,0.0170
1957.00,0.0169
1956.00,0.0168
1955.00,0.0168
1954.00,0.0169
1953.00,0.0170
1952.00,0.0171
1951.00,0.0169
1950.00,0.0167
1949.00,0.0166
1948.00,0.0165
1947.00,0.0166
1946.00,0.0166
1945.00,0.0165
1944.00,0.0163
1943.00,0.0160
1942.00,0.0159
1941.00,0.0159
1940.00,0.0159
1939.00,0.0158
1938.00,0.0159
1937.00,0.0160
1936.00,0.0160
1935.00,0.0160
1934.00,0.0158
1933.00,0.0157
1932.00,0.0157
1931.00,0.0159
1930.00,0.0161
1929.00,0.0163
1928.00,0.0164
1927.00,0.0164
1926.00,0.0164
1925.00,0.0163
1924.00,0.0163
1923.00,0.0162
1922.00,0.0161
1921.00,0.0160
1920.00,0.0159
1919.00,0.0158
1918.00,0.0157
1917.00,0.0157
1916.00,0.0158
1915.00,0.0159
1914.00,0.0159
1913.00,0.0160
1912.00,0.0159
1911.00,0.0158
1910.00,0.0157
1909.00,0.0155
1908.00,0.0153
1907.00,0.0153
1906.00,0.0153
1905.00,0.0154
1904.00,0.0155
1903.00,0.0156
1902.00,0.0155
1901.00,0.0155
1900.00,0.0154
1899.00,0.0154
1898.00,0.0155
1897.00,0.0154
1896.00,0.0152
1895.00,0.0150
1894.00,0.0149
1893.00,0.0150
1892.00,0.0151
1891.00,0.0152
1890.00,0.0152
1889.00,0.0151
1888.00,0.0150
1887.00,0.0149
1886.00,0.0149
1885.00,0.0149
1884.00,0.0149
1883.00,0.0149
1882.00,0.0149
1881.00,0.0148
1880.00,0.0148
1879.00,0.0148
1878.00,0.0147
1877.00,0.0146
1876.00,0.0146
1875.00,0.0147
1874.00,0.0147
1873.00,0.0148
1872.00,0.0149
1871.00,0.0149
1870.00,0.0148
1869.00,0.0147
1868.00,0.0145
1867.00,0.0144
1866.00,0.0144
1865.00,0.0144
1864.00,0.0144
1863.00,0.0143
1862.00,0.0143
1861.00,0.0142
1860.00,0.0141
1859.00,0.0141
1858.00,0.0141
1857.00,0.0142
1856.00,0.0142
1855.00,0.0142
1854.00,0.0142
1853.00,0.0141
1852.00,0.0140
1851.00,0.0140
1850.00,0.0140
1849.00,0.0139
1848.00,0.0139
1847.00,0.0139
1846.00,0.0140
1845.00,0.0140
1844.00,0.0139
1843.00,0.0137
1842.00,0.0137
1841.00,0.0137
1840.00,0.0137
1839.00,0.0137
1838.00,0.0136
1837.00,0.0136
1836.00,0.0136
1835.00,0.0136
1834.00,0.0136
1833.00,0.0136
1832.00,0.0137
1831.00,0.0137
1830.00,0.0136
1829.00,0.0134
1828.00,0.0133
1827.00,0.0133
1826.00,0.0134
1825.00,0.0134
1824.00,0.0132
1823.00,0.0131
1822.00,0.0131
1821.00,0.0131
1820.00,0.0130
1819.00,0.0129
1818.00,0.0128
1817.00,0.0128
1816.00,0.0127
1815.00,0.0127
1814.00,0.0127
1813.00,0.0127
1812.00,0.0127
1811.00,0.0127
1810.00,0.0126
1809.00,0.0126
1808.00,0.0127
1807.00,0.0127
1806.00,0.0128
1805.00,0.0128
1804.00,0.0129
1803.00,0.0129
1802.00,0.0128
1801.00,0.0127
1800.00,0.0127
1799.00,0.0127
1798.00,0.0127
1797.00,0.0128
1796.00,0.0128
1795.00,0.0129
1794.00,0.0129
1793.00,0.0129
1792.00,0.0129
1791.00,0.0129
1790.00,0.0129
1789.00,0.0130
1788.00,0.0131
1787.00,0.0132
1786.00,0.0133
1785.00,0.0134
1784.00,0.0134
1783.00,0.0135
1782.00,0.0135
1781.00,0.0135
1780.00,0.0135
1779.00,0.0135
1778.00,0.0136
1777.00,0.0138
1776.00,0.0139
1775.00,0.0140
1774.00,0.0141
1773.00,0.0141
1772.00,0.0140
1771.00,0.0140
1770.00,0.0142
1769.00,0.0145
1768.00,0.0147
1767.00,0.0148
1766.00,0.0149
1765.00,0.0150
1764.00,0.0152
1763.00,0.0152
1762.00,0.0152
1761.00,0.0152
1760.00,0.0153
1759.00,0.0154
1758.00,0.0155
1757.00,0.0156
1756.00,0.0157
1755.00,0.0159
1754.00,0.0160
1753.00,0.0161
1752.00,0.0162
1751.00,0.0162
1750.00,0.0162
1749.00,0.0162
1748.00,0.0164
1747.00,0.0165
1746.00,0.0167
1745.00,0.0169
1744.00,0.0171
1743.00,0.0173
1742.00,0.0174
1741.00,0.0176
1740.00,0.0178
1739.00,0.0179
1738.00,0.0180
1737.00,0.0182
1736.00,0.0184
1735.00,0.0187
1734.00,0.0188
1733.00,0.0189
1732.00,0.0190
1731.00,0.0192
1730.00,0.0195
1729.00,0.0197
1728.00,0.0199
1727.00,0.0200
1726.00,0.0202
1725.00,0.0204
1724.00,0.0206
1723.00,0.0208
1722.00,0.0209
1721.00,0.0210
1720.00,0.0210
1719.00,0.0211
1718.00,0.0211
1717.00,0.0213
1716.00,0.0215
1715.00,0.0218
1714.00,0.0220
1713.00,0.0223
1712.00,0.0225
1711.00,0.0226
1710.00,0.0227
1709.00,0.0228
1708.00,0.0228
1707.00,0.0229
1706.00,0.0230
1705.00,0.0230
1704.00,0.0231
1703.00,0.0233
1702.00,0.0235
1701.00,0.0238
1700.00,0.0237
1699.00,0.0236
1698.00,0.0237
1697.00,0.0239
1696.00,0.0240
1695.00,0.0240
1694.00,0.0241
1693.00,0.0242
1692.00,0.0243
1691.00,0.0244
1690.00,0.0244
1689.00,0.0245
1688.00,0.0246
1687.00,0.0246
1686.00,0.0245
1685.00,0.0246
1684.00,0.0247
1683.00,0.0247
1682.00,0.0249
1681.00,0.0252
1680.00,0.0253
1679.00,0.0254
1678.00,0.0256
1677.00,0.0259
1676.00,0.0263
1675.00,0.0265
1674.00,0.0265
1673.00,0.0266
1672.00,0.0266
1671.00,0.0266
1670.00,0.0268
1669.00,0.0270
1668.00,0.0272
1667.00,0.0274
1666.00,0.0275
1665.00,0.0276
1664.00,0.0278
1663.00,0.0279
1662.00,0.0281
1661.00,0.0283
1660.00,0.0286
1659.00,0.0289
1658.00,0.0290
1657.00,0.0290
1656.00,0.0290
1655.00,0.0289
1654.00,0.0291
1653.00,0.0296
1652.00,0.0297
1651.00,0.0299
1650.00,0.0301
1649.00,0.0301
1648.00,0.0302
1647.00,0.0304
1646.00,0.0307
1645.00,0.0311
1644.00,0.0314
1643.00,0.0316
1642.00,0.0317
1641.00,0.0318
1640.00,0.0318
1639.00,0.0319
1638.00,0.0319
1637.00,0.0320
1636.00,0.0324
1635.00,0.0329
1634.00,0.0331
1633.00,0.0332
1632.00,0.0333
1631.00,0.0333
1630.00,0.0333
1629.00,0.0334
1628.00,0.0336
1627.00,0.0337
1626.00,0.0340
1625.00,0.0342
1624.00,0.0345
1623.00,0.0347
1622.00,0.0348
1621.00,0.0350
1620.00,0.0351
1619.00,0.0351
1618.00,0.0352
1617.00,0.0354
1616.00,0.0356
1615.00,0.0358
1614.00,0.0361
1613.00,0.0363
1612.00,0.0364
1611.00,0.0365
1610.00,0.0366
1609.00,0.0367
1608.00,0.0368
1607.00,0.0370
1606.00,0.0373
1605.00,0.0375
1604.00,0.0377
1603.00,0.0378
1602.00,0.0379
1601.00,0.0380
1600.00,0.0381
1599.00,0.0383
1598.00,0.0385
1597.00,0.0387
1596.00,0.0390
1595.00,0.0392
1594.00,0.0394
1593.00,0.0395
1592.00,0.0396
1591.00,0.0397
1590.00,0.0399
1589.00,0.0400
1588.00,0.0402
1587.00,0.0405
1586.00,0.0407
1585.00,0.0408
1584.00,0.0410
1583.00,0.0412
1582.00,0.0413
1581.00,0.0413
1580.00,0.0414
1579.00,0.0414
1578.00,0.0415
1577.00,0.0418
1576.00,0.0420
1575.00,0.0421
1574.00,0.0421
1573.00,0.0421
1572.00,0.0421
1571.00,0.0422
1570.00,0.0423
1569.00,0.0425
1568.00,0.0426
1567.00,0.0427
1566.00,0.0427
1565.00,0.0427
1564.00,0.0425
1563.00,0.0424
1562.00,0.0423
1561.00,0.0421
1560.00,0.0423
1559.00,0.0430
1558.00,0.0429
1557.00,0.0429
1556.00,0.0429
1555.00,0.0430
1554.00,0.0429
1553.00,0.0429
1552.00,0.0428
1551.00,0.0427
1550.00,0.0426
1549.00,0.0424
1548.00,0.0423
1547.00,0.0421
1546.00,0.0419
1545.00,0.0417
1544.00,0.0415
1543.00,0.0412
1542.00,0.0408
1541.00,0.0406
1540.00,0.0405
1539.00,0.0403
1538.00,0.0402
1537.00,0.0401
1536.00,0.0399
1535.00,0.0397
1534.00,0.0395
1533.00,0.0392
1532.00,0.0390
1531.00,0.0388
1530.00,0.0386
1529.00,0.0384
1528.00,0.0381
1527.00,0.0378
1526.00,0.0375
1525.00,0.0371
1524.00,0.0368
1523.00,0.0365
1522.00,0.0363
1521.00,0.0362
1520.00,0.0362
1519.00,0.0362
1518.00,0.0360
1517.00,0.0357
1516.00,0.0355
1515.00,0.0354
1514.00,0.0353
1513.00,0.0351
1512.00,0.0349
1511.00,0.0346
1510.00,0.0343
1509.00,0.0340
1508.00,0.0338
1507.00,0.0338
1506.00,0.0336
1505.00,0.0335
1504.00,0.0335
1503.00,0.0334
1502.00,0.0331
1501.00,0.0329
1500.00,0.0327
1499.00,0.0326
1498.00,0.0326
1497.00,0.0326
1496.00,0.0326
1495.00,0.0324
1494.00,0.0322
1493.00,0.0320
1492.00,0.0317
1491.00,0.0316
1490.00,0.0315
1489.00,0.0314
1488.00,0.0314
1487.00,0.0314
1486.00,0.0314
1485.00,0.0313
1484.00,0.0312
1483.00,0.0311
1482.00,0.0311
1481.00,0.0310
1480.00,0.0310
1479.00,0.0310
1478.00,0.0310
1477.00,0.0310
1476.00,0.0311
1475.00,0.0311
1474.00,0.0312
1473.00,0.0314
1472.00,0.0316
1471.00,0.0318
1470.00,0.0319
1469.00,0.0320
1468.00,0.0321
1467.00,0.0321
1466.00,0.0321
1465.00,0.0321
1464.00,0.0321
1463.00,0.0321
1462.00,0.0321
1461.00,0.0320
1460.00,0.0320
1459.00,0.0320
1458.00,0.0323
1457.00,0.0326
1456.00,0.0329
1455.00,0.0329
1454.00,0.0330
1453.00,0.0330
1452.00,0.0331
1451.00,0.0332
1450.00,0.0333
1449.00,0.0335
1448.00,0.0338
1447.00,0.0340
1446.00,0.0341
1445.00,0.0342
1444.00,0.0342
1443.00,0.0342
1442.00,0.0342
1441.00,0.0343
1440.00,0.0344
1439.00,0.0345
1438.00,0.0348
1437.00,0.0351
1436.00,0.0353
1435.00,0.0354
1434.00,0.0353
1433.00,0.0352
1432.00,0.0352
1431.00,0.0353
1430.00,0.0354
1429.00,0.0354
1428.00,0.0355
1427.00,0.0356
1426.00,0.0357
1425.00,0.0358
1424.00,0.0359
1423.00,0.0360
1422.00,0.0360
1421.00,0.0361
1420.00,0.0364
1419.00,0.0367
1418.00,0.0369
1417.00,0.0370
1416.00,0.0371
1415.00,0.0372
1414.00,0.0371
1413.00,0.0370
1412.00,0.0370
1411.00,0.0371
1410.00,0.0371
1409.00,0.0372
1408.00,0.0373
1407.00,0.0373
1406.00,0.0373
1405.00,0.0374
1404.00,0.0374
1403.00,0.0374
1402.00,0.0374
1401.00,0.0374
1400.00,0.0374
1399.00,0.0374
1398.00,0.0374
1397.00,0.0375
1396.00,0.0377
1395.00,0.0378
1394.00,0.0379
1393.00,0.0380
1392.00,0.0380
1391.00,0.0380
1390.00,0.0381
1389.00,0.0381
1388.00,0.0382
1387.00,0.0384
1386.00,0.0384
1385.00,0.0384
1384.00,0.0384
1383.00,0.0385
1382.00,0.0385
1381.00,0.0387
1380.00,0.0388
1379.00,0.0389
1378.00,0.0389
1377.00,0.0390
1376.00,0.0391
1375.00,0.0391
1374.00,0.0392
1373.00,0.0394
1372.00,0.0394
1371.00,0.0395
1370.00,0.0395
1369.00,0.0395
1368.00,0.0395
1367.00,0.0395
1366.00,0.0395
1365.00,0.0394
1364.00,0.0394
1363.00,0.0394
1362.00,0.0395
1361.00,0.0396
1360.00,0.0396
1359.00,0.0396
1358.00,0.0395
1357.00,0.0395
1356.00,0.0395
1355.00,0.0395
1354.00,0.0395
1353.00,0.0394
1352.00,0.0394
1351.00,0.0392
1350.00,0.0391
1349.00,0.0390
1348.00,0.0389
1347.00,0.0389
1346.00,0.0389
1345.00,0.0388
1344.00,0.0387
1343.00,0.0386
1342.00,0.0386
1341.00,0.0386
1340.00,0.0386
1339.00,0.0387
1338.00,0.0387
1337.00,0.0387
1336.00,0.0387
1335.00,0.0386
1334.00,0.0385
1333.00,0.0384
1332.00,0.0383
1331.00,0.0382
1330.00,0.0381
1329.00,0.0381
1328.00,0.0381
1327.00,0.0380
1326.00,0.0380
1325.00,0.0380
1324.00,0.0380
1323.00,0.0380
1322.00,0.0381
1321.00,0.0381
1320.00,0.0381
1319.00,0.0380
1318.00,0.0379
1317.00,0.0378
1316.00,0.0376
1315.00,0.0376
1314.00,0.0376
1313.00,0.0377
1312.00,0.0377
1311.00,0.0378
1310.00,0.0378
1309.00,0.0377
1308.00,0.0376
1307.00,0.0375
1306.00,0.0375
1305.00,0.0375
1304.00,0.0375
1303.00,0.0376
1302.00,0.0376
1301.00,0.0376
1300.00,0.0375
1299.00,0.0374
1298.00,0.0373
1297.00,0.0372
1296.00,0.0372
1295.00,0.0372
1294.00,0.0373
1293.00,0.0373
1292.00,0.0374
1291.00,0.0375
1290.00,0.0375
1289.00,0.0375
1288.00,0.0374
1287.00,0.0374
1286.00,0.0374
1285.00,0.0374
1284.00,0.0375
1283.00,0.0375
1282.00,0.0375
1281.00,0.0374
1280.00,0.0374
1279.00,0.0373
1278.00,0.0373
1277.00,0.0372
1276.00,0.0372
1275.00,0.0372
1274.00,0.0372
1273.00,0.0372
1272.00,0.0372
1271.00,0.0371
1270.00,0.0371
1269.00,0.0371
1268.00,0.0372
1267.00,0.0372
1266.00,0.0373
1265.00,0.0374
1264.00,0.0374
1263.00,0.0373
1262.00,0.0372
1261.00,0.0372
1260.00,0.0373
1259.00,0.0374
1258.00,0.0375
1257.00,0.0375
1256.00,0.0375
1255.00,0.0374
1254.00,0.0374
1253.00,0.0375
1252.00,0.0376
1251.00,0.0376
1250.00,0.0376
1249.00,0.0376
1248.00,0.0377
1247.00,0.0378
1246.00,0.0379
1245.00,0.0381
1244.00,0.0381
1243.00,0.0381
1242.00,0.0381
1241.00,0.0380
1240.00,0.0379
1239.00,0.0380
1238.00,0.0381
1237.00,0.0382
1236.00,0.0383
1235.00,0.0383
1234.00,0.0383
1233.00,0.0383
1232.00,0.0383
1231.00,0.0382
1230.00,0.0382
1229.00,0.0382
1228.00,0.0382
1227.00,0.0383
1226.00,0.0383
1225.00,0.0383
1224.00,0.0382
1223.00,0.0381
1222.00,0.0381
1221.00,0.0382
1220.00,0.0383
1219.00,0.0383
1218.00,0.0383
1217.00,0.0382
1216.00,0.0382
1215.00,0.0382
1214.00,0.0382
1213.00,0.0381
1212.00,0.0382
1211.00,0.0382
1210.00,0.0383
1209.00,0.0383
1208.00,0.0383
1207.00,0.0383
1206.00,0.0383
1205.00,0.0382
1204.00,0.0381
1203.00,0.0381
1202.00,0.0381
1201.00,0.0381
1200.00,0.0382
1199.00,0.0382
1198.00,0.0382
1197.00,0.0382
1196.00,0.0381
1195.00,0.0381
1194.00,0.0381
1193.00,0.0380
1192.00,0.0380
1191.00,0.0380
1190.00,0.0379
1189.00,0.0378
1188.00,0.0377
1187.00,0.0377
1186.00,0.0377
1185.00,0.0377
1184.00,0.0377
1183.00,0.0377
1182.00,0.0375
1181.00,0.0374
1180.00,0.0373
1179.00,0.0373
1178.00,0.0373
1177.00,0.0373
1176.00,0.0374
1175.00,0.0375
1174.00,0.0375
1173.00,0.0375
1172.00,0.0375
1171.00,0.0375
1170.00,0.0374
1169.00,0.0374
1168.00,0.0374
1167.00,0.0374
1166.00,0.0374
1165.00,0.0375
1164.00,0.0375
1163.00,0.0374
1162.00,0.0374
1161.00,0.0374
1160.00,0.0374
1159.00,0.0374
1158.00,0.0373
1157.00,0.0373
1156.00,0.0373
1155.00,0.0374
1154.00,0.0374
1153.00,0.0373
1152.00,0.0372
1151.00,0.0371
1150.00,0.0371
1149.00,0.0370
1148.00,0.0370
1147.00,0.0370
1146.00,0.0371
1145.00,0.0372
1144.00,0.0373
1143.00,0.0375
1142.00,0.0376
1141.00,0.0377
1140.00,0.0377
1139.00,0.0377
1138.00,0.0377
1137.00,0.0377
1136.00,0.0379
1135.00,0.0381
1134.00,0.0383
1133.00,0.0385
1132.00,0.0386
1131.00,0.0387
1130.00,0.0388
1129.00,0.0391
1128.00,0.0394
1127.00,0.0395
1126.00,0.0394
1125.00,0.0394
1124.00,0.0396
1123.00,0.0400
1122.00,0.0406
1121.00,0.0411
1120.00,0.0416
1119.00,0.0418
1118.00,0.0420
1117.00,0.0422
1116.00,0.0424
1115.00,0.0427
1114.00,0.0429
1113.00,0.0430
1112.00,0.0430
1111.00,0.0431
1110.00,0.0433
1109.00,0.0435
1108.00,0.0438
1107.00,0.0439
1106.00,0.0439
1105.00,0.0439
1104.00,0.0440
1103.00,0.0443
1102.00,0.0445
1101.00,0.0448
1100.00,0.0449
1099.00,0.0451
1098.00,0.0452
1097.00,0.0452
1096.00,0.0452
1095.00,0.0452
1094.00,0.0452
1093.00,0.0453
1092.00,0.0455
1091.00,0.0456
1090.00,0.0455
1089.00,0.0453
1088.00,0.0452
1087.00,0.0452
1086.00,0.0453
1085.00,0.0455
1084.00,0.0457
1083.00,0.0459
1082.00,0.0460
1081.00,0.0461
1080.00,0.0462
1079.00,0.0464
1078.00,0.0467
1077.00,0.0469
1076.00,0.0469
1075.00,0.0467
1074.00,0.0464
1073.00,0.0463
1072.00,0.0463
1071.00,0.0463
1070.00,0.0462
1069.00,0.0461
1068.00,0.0461
1067.00,0.0463
1066.00,0.0466
1065.00,0.0470
1064.00,0.0473
1063.00,0.0476
1062.00,0.0476
1061.00,0.0474
1060.00,0.0472
1059.00,0.0472
1058.00,0.0474
1057.00,0.0477
1056.00,0.0480
1055.00,0.0482
1054.00,0.0483
1053.00,0.0485
1052.00,0.0487
1051.00,0.0488
1050.00,0.0489
1049.00,0.0492
1048.00,0.0495
1047.00,0.0497
1046.00,0.0498
1045.00,0.0500
1044.00,0.0502
1043.00,0.0504
1042.00,0.0505
1041.00,0.0505
1040.00,0.0506
1039.00,0.0509
1038.00,0.0512
1037.00,0.0514
1036.00,0.0516
1035.00,0.0517
1034.00,0.0518
1033.00,0.0519
1032.00,0.0519
1031.00,0.0518
1030.00,0.0515
1029.00,0.0512
1028.00,0.0509
1027.00,0.0506
1026.00,0.0505
1025.00,0.0504
1024.00,0.0503
1023.00,0.0502
1022.00,0.0500
1021.00,0.0498
1020.00,0.0496
1019.00,0.0495
1018.00,0.0494
1017.00,0.0494
1016.00,0.0496
1015.00,0.0498
1014.00,0.0500
1013.00,0.0500
1012.00,0.0501
1011.00,0.0501
1010.00,0.0502
1009.00,0.0502
1008.00,0.0502
1007.00,0.0501
1006.00,0.0500
1005.00,0.0500
1004.00,0.0500
1003.00,0.0499
1002.00,0.0498
1001.00,0.0495
1000.00,0.0490
999.00,0.0485
998.00,0.0479
997.00,0.0476
996.00,0.0474
995.00,0.0472
994.00,0.0469
993.00,0.0465
992.00,0.0461
991.00,0.0457
990.00,0.0454
989.00,0.0452
988.00,0.0450
987.00,0.0449
986.00,0.0448
985.00,0.0446
984.00,0.0444
983.00,0.0440
982.00,0.0437
981.00,0.0434
980.00,0.0432
979.00,0.0430
978.00,0.0427
977.00,0.0424
976.00,0.0421
975.00,0.0419
974.00,0.0417
973.00,0.0417
972.00,0.0415
971.00,0.0413
970.00,0.0409
969.00,0.0406
968.00,0.0403
967.00,0.0401
966.00,0.0399
965.00,0.0397
964.00,0.0396
963.00,0.0396
962.00,0.0396
961.00,0.0396
960.00,0.0394
959.00,0.0392
958.00,0.0391
957.00,0.0390
956.00,0.0390
955.00,0.0389
954.00,0.0388
953.00,0.0386
952.00,0.0386
951.00,0.0386
950.00,0.0387
949.00,0.0388
948.00,0.0389
947.00,0.0388
946.00,0.0386
945.00,0.0385
944.00,0.0384
943.00,0.0384
942.00,0.0385
941.00,0.0386
940.00,0.0387
939.00,0.0389
938.00,0.0390
937.00,0.0389
936.00,0.0388
935.00,0.0386
934.00,0.0386
933.00,0.0388
932.00,0.0390
931.00,0.0393
930.00,0.0394
929.00,0.0394
928.00,0.0394
927.00,0.0395
926.00,0.0396
925.00,0.0397
924.00,0.0398
923.00,0.0399
922.00,0.0400
921.00,0.0400
920.00,0.0401
919.00,0.0402
918.00,0.0404
917.00,0.0407
916.00,0.0410
915.00,0.0413
914.00,0.0414
913.00,0.0414
912.00,0.0414
911.00,0.0413
910.00,0.0410
909.00,0.0406
908.00,0.0402
907.00,0.0399
906.00,0.0398
905.00,0.0400
904.00,0.0403
903.00,0.0405
902.00,0.0406
901.00,0.0404
900.00,0.0402
899.00,0.0400
898.00,0.0400
897.00,0.0401
896.00,0.0400
895.00,0.0397
894.00,0.0394
893.00,0.0392
892.00,0.0389
891.00,0.0388
890.00,0.0387
889.00,0.0387
888.00,0.0388
887.00,0.0386
886.00,0.0384
885.00,0.0382
884.00,0.0382
883.00,0.0384
882.00,0.0386
881.00,0.0387
880.00,0.0386
879.00,0.0384
878.00,0.0381
877.00,0.0377
876.00,0.0374
875.00,0.0372
874.00,0.0371
873.00,0.0371
872.00,0.0372
871.00,0.0373
870.00,0.0374
869.00,0.0373
868.00,0.0372
867.00,0.0370
866.00,0.0368
865.00,0.0368
864.00,0.0369
863.00,0.0369
862.00,0.0370
861.00,0.0371
860.00,0.0371
859.00,0.0369
858.00,0.0367
857.00,0.0365
856.00,0.0365
855.00,0.0367
854.00,0.0370
853.00,0.0371
852.00,0.0371
851.00,0.0371
850.00,0.0371
849.00,0.0372
848.00,0.0373
847.00,0.0375
846.00,0.0377
845.00,0.0380
844.00,0.0382
843.00,0.0383
842.00,0.0383
841.00,0.0382
840.00,0.0380
839.00,0.0379
838.00,0.0378
837.00,0.0378
836.00,0.0379
835.00,0.0380
834.00,0.0380
833.00,0.0381
832.00,0.0382
831.00,0.0384
830.00,0.0386
829.00,0.0386
828.00,0.0387
827.00,0.0387
826.00,0.0389
825.00,0.0390
824.00,0.0393
823.00,0.0395
822.00,0.0397
821.00,0.0399
820.00,0.0401
819.00,0.0402
818.00,0.0402
817.00,0.0399
816.00,0.0397
815.00,0.0396
814.00,0.0399
813.00,0.0402
812.00,0.0405
811.00,0.0407
810.00,0.0407
809.00,0.0407
808.00,0.0408
807.00,0.0409
806.00,0.0409
805.00,0.0409
804.00,0.0410
803.00,0.0412
802.00,0.0415
801.00,0.0420
800.00,0.0424
799.00,0.0427
798.00,0.0427
797.00,0.0426
796.00,0.0425
795.00,0.0424
794.00,0.0423
793.00,0.0423
792.00,0.0424
791.00,0.0426
790.00,0.0428
789.00,0.0428
788.00,0.0428
787.00,0.0427
786.00,0.0428
785.00,0.0430
784.00,0.0433
783.00,0.0435
782.00,0.0436
781.00,0.0436
780.00,0.0434
779.00,0.0433
778.00,0.0433
777.00,0.0435
776.00,0.0437
775.00,0.0436
774.00,0.0433
773.00,0.0431
772.00,0.0430
771.00,0.0430
770.00,0.0432
769.00,0.0434
768.00,0.0435
767.00,0.0435
766.00,0.0434
765.00,0.0433
764.00,0.0433
763.00,0.0433
762.00,0.0432
761.00,0.0430
760.00,0.0430
759.00,0.0433
758.00,0.0438
757.00,0.0441
756.00,0.0443
755.00,0.0442
754.00,0.0441
753.00,0.0440
752.00,0.0441
751.00,0.0443
750.00,0.0445
749.00,0.0447
748.00,0.0447
747.00,0.0447
746.00,0.0447
745.00,0.0446
744.00,0.0445
743.00,0.0444
742.00,0.0443
741.00,0.0442
740.00,0.0440
739.00,0.0438
738.00,0.0437
737.00,0.0436
736.00,0.0435
735.00,0.0435
734.00,0.0433
733.00,0.0433
732.00,0.0433
731.00,0.0434
730.00,0.0437
729.00,0.0441
728.00,0.0446
727.00,0.0449
726.00,0.0451
725.00,0.0451
724.00,0.0449
723.00,0.0448
722.00,0.0448
721.00,0.0450
720.00,0.0452
719.00,0.0454
718.00,0.0454
717.00,0.0453
716.00,0.0452
715.00,0.0450
714.00,0.0449
713.00,0.0450
712.00,0.0453
711.00,0.0454
710.00,0.0455
709.00,0.0455
708.00,0.0456
707.00,0.0458
706.00,0.0461
705.00,0.0463
704.00,0.0467
703.00,0.0470
702.00,0.0471
701.00,0.0471
700.00,0.0471
699.00,0.0472
698.00,0.0475
697.00,0.0477
696.00,0.0479
695.00,0.0481
694.00,0.0483
693.00,0.0487
692.00,0.0490
691.00,0.0491
690.00,0.0490
689.00,0.0490
688.00,0.0491
687.00,0.0491
686.00,0.0489
685.00,0.0486
684.00,0.0484
683.00,0.0481
682.00,0.0479
681.00,0.0479
680.00,0.0481
679.00,0.0484
678.00,0.0486
677.00,0.0488
676.00,0.0490
675.00,0.0492
674.00,0.0492
673.00,0.0493
672.00,0.0495
671.00,0.0495
670.00,0.0493
669.00,0.0491
668.00,0.0495
667.00,0.0502
666.00,0.0505
665.00,0.0504
664.00,0.0503
663.00,0.0500
662.00,0.0496
661.00,0.0491
660.00,0.0485
659.00,0.0482
658.00,0.0484
657.00,0.0492
656.00,0.0501
655.00,0.0505
654.00,0.0503
653.00,0.0496
652.00,0.0488
651.00,0.0484
650.00,0.0484
