Created as New Dataset,Monday, April 03 2023
cm-1,A
4000.00,0.0257
3999.00,0.0258
3998.00,0.0258
3997.00,0.0257
3996.00,0.0257
3995.00,0.0257
3994.00,0.0257
3993.00,0.0257
3992.00,0.0256
3991.00,0.0256
3990.00,0.0256
3989.00,0.0256
3988.00,0.0256
3987.00,0.0256
3986.00,0.0256
3985.00,0.0256
3984.00,0.0257
3983.00,0.0257
3982.00,0.0256
3981.00,0.0256
3980.00,0.0256
3979.00,0.0256
3978.00,0.0256
3977.00,0.0255
3976.00,0.0255
3975.00,0.0255
3974.00,0.0255
3973.00,0.0255
3972.00,0.0255
3971.00,0.0256
3970.00,0.0256
3969.00,0.0256
3968.00,0.0256
3967.00,0.0255
3966.00,0.0255
3965.00,0.0254
3964.00,0.0255
3963.00,0.0255
3962.00,0.0256
3961.00,0.0256
3960.00,0.0256
3959.00,0.0255
3958.00,0.0255
3957.00,0.0254
3956.00,0.0254
3955.00,0.0254
3954.00,0.0253
3953.00,0.0253
3952.00,0.0253
3951.00,0.0254
3950.00,0.0255
3949.00,0.0256
3948.00,0.0257
3947.00,0.0257
3946.00,0.0257
3945.00,0.0257
3944.00,0.0255
3943.00,0.0254
3942.00,0.0253
3941.00,0.0253
3940.00,0.0254
3939.00,0.0254
3938.00,0.0254
3937.00,0.0254
3936.00,0.0254
3935.00,0.0254
3934.00,0.0253
3933.00,0.0253
3932.00,0.0253
3931.00,0.0254
3930.00,0.0254
3929.00,0.0255
3928.00,0.0255
3927.00,0.0255
3926.00,0.0254
3925.00,0.0254
3924.00,0.0254
3923.00,0.0255
3922.00,0.0255
3921.00,0.0255
3920.00,0.0255
3919.00,0.0254
3918.00,0.0254
3917.00,0.0254
3916.00,0.0254
3915.00,0.0254
3914.00,0.0254
3913.00,0.0253
3912.00,0.0252
3911.00,0.0252
3910.00,0.0252
3909.00,0.0252
3908.00,0.0253
3907.00,0.0254
3906.00,0.0254
3905.00,0.0254
3904.00,0.0255
3903.00,0.0257
3902.00,0.0259
3901.00,0.0260
3900.00,0.0259
3899.00,0.0257
3898.00,0.0255
3897.00,0.0254
3896.00,0.0253
3895.00,0.0253
3894.00,0.0253
3893.00,0.0253
3892.00,0.0252
3891.00,0.0251
3890.00,0.0251
3889.00,0.0252
3888.00,0.0253
3887.00,0.0252
3886.00,0.0250
3885.00,0.0250
3884.00,0.0251
3883.00,0.0253
3882.00,0.0254
3881.00,0.0253
3880.00,0.0251
3879.00,0.0251
3878.00,0.0253
3877.00,0.0254
3876.00,0.0254
3875.00,0.0252
3874.00,0.0251
3873.00,0.0252
3872.00,0.0254
3871.00,0.0254
3870.00,0.0252
3869.00,0.0252
3868.00,0.0253
3867.00,0.0254
3866.00,0.0254
3865.00,0.0252
3864.00,0.0252
3863.00,0.0253
3862.00,0.0253
3861.00,0.0252
3860.00,0.0251
3859.00,0.0250
3858.00,0.0249
3857.00,0.0249
3856.00,0.0250
3855.00,0.0249
3854.00,0.0249
3853.00,0.0250
3852.00,0.0251
3851.00,0.0251
3850.00,0.0250
3849.00,0.0248
3848.00,0.0247
3847.00,0.0247
3846.00,0.0247
3845.00,0.0247
3844.00,0.0247
3843.00,0.0247
3842.00,0.0248
3841.00,0.0249
3840.00,0.0250
3839.00,0.0250
3838.00,0.0251
3837.00,0.0251
3836.00,0.0251
3835.00,0.0251
3834.00,0.0251
3833.00,0.0251
3832.00,0.0250
3831.00,0.0249
3830.00,0.0249
3829.00,0.0248
3828.00,0.0247
3827.00,0.0245
3826.00,0.0245
3825.00,0.0246
3824.00,0.0249
3823.00,0.0251
3822.00,0.0250
3821.00,0.0248
3820.00,0.0248
3819.00,0.0249
3818.00,0.0249
3817.00,0.0248
3816.00,0.0246
3815.00,0.0246
3814.00,0.0247
3813.00,0.0247
3812.00,0.0246
3811.00,0.0244
3810.00,0.0244
3809.00,0.0244
3808.00,0.0243
3807.00,0.0243
3806.00,0.0244
3805.00,0.0247
3804.00,0.0249
3803.00,0.0249
3802.00,0.0247
3801.00,0.0246
3800.00,0.0247
3799.00,0.0248
3798.00,0.0247
3797.00,0.0245
3796.00,0.0244
3795.00,0.0244
3794.00,0.0244
3793.00,0.0244
3792.00,0.0244
3791.00,0.0243
3790.00,0.0243
3789.00,0.0243
3788.00,0.0243
3787.00,0.0243
3786.00,0.0244
3785.00,0.0244
3784.00,0.0244
3783.00,0.0244
3782.00,0.0245
3781.00,0.0244
3780.00,0.0243
3779.00,0.0242
3778.00,0.0243
3777.00,0.0243
3776.00,0.0243
3775.00,0.0242
3774.00,0.0242
3773.00,0.0242
3772.00,0.0242
3771.00,0.0241
3770.00,0.0241
3769.00,0.0241
3768.00,0.0242
3767.00,0.0242
3766.00,0.0242
3765.00,0.0241
3764.00,0.0241
3763.00,0.0242
3762.00,0.0243
3761.00,0.0242
3760.00,0.0242
3759.00,0.0241
3758.00,0.0241
3757.00,0.0240
3756.00,0.0240
3755.00,0.0240
3754.00,0.0239
3753.00,0.0238
3752.00,0.0238
3751.00,0.0239
3750.00,0.0241
3749.00,0.0242
3748.00,0.0245
3747.00,0.0248
3746.00,0.0249
3745.00,0.0247
3744.00,0.0244
3743.00,0.0242
3742.00,0.0242
3741.00,0.0242
3740.00,0.0242
3739.00,0.0243
3738.00,0.0244
3737.00,0.0244
3736.00,0.0244
3735.00,0.0244
3734.00,0.0244
3733.00,0.0243
3732.00,0.0241
3731.00,0.0239
3730.00,0.0239
3729.00,0.0239
3728.00,0.0239
3727.00,0.0238
3726.00,0.0238
3725.00,0.0238
3724.00,0.0238
3723.00,0.0238
3722.00,0.0238
3721.00,0.0239
3720.00,0.0239
3719.00,0.0238
3718.00,0.0237
3717.00,0.0236
3716.00,0.0236
3715.00,0.0236
3714.00,0.0237
3713.00,0.0238
3712.00,0.0239
3711.00,0.0239
3710.00,0.0239
3709.00,0.0238
3708.00,0.0238
3707.00,0.0238
3706.00,0.0238
3705.00,0.0239
3704.00,0.0239
3703.00,0.0238
3702.00,0.0237
3701.00,0.0237
3700.00,0.0238
3699.00,0.0238
3698.00,0.0237
3697.00,0.0236
3696.00,0.0235
3695.00,0.0234
3694.00,0.0235
3693.00,0.0235
3692.00,0.0236
3691.00,0.0238
3690.00,0.0240
3689.00,0.0241
3688.00,0.0241
3687.00,0.0240
3686.00,0.0239
3685.00,0.0237
3684.00,0.0236
3683.00,0.0235
3682.00,0.0235
3681.00,0.0234
3680.00,0.0233
3679.00,0.0233
3678.00,0.0234
3677.00,0.0235
3676.00,0.0234
3675.00,0.0235
3674.00,0.0236
3673.00,0.0238
3672.00,0.0239
3671.00,0.0239
3670.00,0.0239
3669.00,0.0240
3668.00,0.0240
3667.00,0.0240
3666.00,0.0239
3665.00,0.0238
3664.00,0.0237
3663.00,0.0237
3662.00,0.0238
3661.00,0.0239
3660.00,0.0241
3659.00,0.0244
3658.00,0.0245
3657.00,0.0246
3656.00,0.0246
3655.00,0.0248
3654.00,0.0251
3653.00,0.0254
3652.00,0.0255
3651.00,0.0254
3650.00,0.0254
3649.00,0.0256
3648.00,0.0259
3647.00,0.0259
3646.00,0.0259
3645.00,0.0259
3644.00,0.0259
3643.00,0.0259
3642.00,0.0259
3641.00,0.0259
3640.00,0.0261
3639.00,0.0262
3638.00,0.0263
3637.00,0.0264
3636.00,0.0265
3635.00,0.0266
3634.00,0.0267
3633.00,0.0269
3632.00,0.0271
3631.00,0.0274
3630.00,0.0276
3629.00,0.0278
3628.00,0.0280
3627.00,0.0281
3626.00,0.0280
3625.00,0.0279
3624.00,0.0278
3623.00,0.0278
3622.00,0.0280
3621.00,0.0282
3620.00,0.0284
3619.00,0.0286
3618.00,0.0288
3617.00,0.0289
3616.00,0.0290
3615.00,0.0290
3614.00,0.0290
3613.00,0.0290
3612.00,0.0291
3611.00,0.0292
3610.00,0.0293
3609.00,0.0295
3608.00,0.0296
3607.00,0.0296
3606.00,0.0296
3605.00,0.0296
3604.00,0.0295
3603.00,0.0295
3602.00,0.0297
3601.00,0.0298
3600.00,0.0300
3599.00,0.0301
3598.00,0.0301
3597.00,0.0301
3596.00,0.0302
3595.00,0.0302
3594.00,0.0302
3593.00,0.0303
3592.00,0.0304
3591.00,0.0305
3590.00,0.0305
3589.00,0.0306
3588.00,0.0308
3587.00,0.0311
3586.00,0.0312
3585.00,0.0313
3584.00,0.0313
3583.00,0.0312
3582.00,0.0311
3581.00,0.0311
3580.00,0.0311
3579.00,0.0311
3578.00,0.0312
3577.00,0.0313
3576.00,0.0314
3575.00,0.0315
3574.00,0.0316
3573.00,0.0317
3572.00,0.0318
3571.00,0.0319
3570.00,0.0319
3569.00,0.0320
3568.00,0.0322
3567.00,0.0325
3566.00,0.0327
3565.00,0.0328
3564.00,0.0327
3563.00,0.0326
3562.00,0.0325
3561.00,0.0326
3560.00,0.0326
3559.00,0.0327
3558.00,0.0328
3557.00,0.0329
3556.00,0.0330
3555.00,0.0331
3554.00,0.0332
3553.00,0.0333
3552.00,0.0334
3551.00,0.0335
3550.00,0.0336
3549.00,0.0337
3548.00,0.0337
3547.00,0.0338
3546.00,0.0340
3545.00,0.0341
3544.00,0.0342
3543.00,0.0343
3542.00,0.0343
3541.00,0.0342
3540.00,0.0342
3539.00,0.0341
3538.00,0.0340
3537.00,0.0341
3536.00,0.0342
3535.00,0.0343
3534.00,0.0345
3533.00,0.0346
3532.00,0.0347
3531.00,0.0347
3530.00,0.0347
3529.00,0.0347
3528.00,0.0347
3527.00,0.0347
3526.00,0.0349
3525.00,0.0351
3524.00,0.0353
3523.00,0.0355
3522.00,0.0356
3521.00,0.0355
3520.00,0.0354
3519.00,0.0353
3518.00,0.0352
3517.00,0.0352
3516.00,0.0353
3515.00,0.0353
3514.00,0.0355
3513.00,0.0356
3512.00,0.0358
3511.00,0.0359
3510.00,0.0359
3509.00,0.0360
3508.00,0.0360
3507.00,0.0360
3506.00,0.0361
3505.00,0.0362
3504.00,0.0363
3503.00,0.0365
3502.00,0.0366
3501.00,0.0367
3500.00,0.0367
3499.00,0.0368
3498.00,0.0368
3497.00,0.0369
3496.00,0.0369
3495.00,0.0369
3494.00,0.0369
3493.00,0.0369
3492.00,0.0369
3491.00,0.0369
3490.00,0.0369
3489.00,0.0370
3488.00,0.0371
3487.00,0.0371
3486.00,0.0372
3485.00,0.0372
3484.00,0.0372
3483.00,0.0373
3482.00,0.0374
3481.00,0.0375
3480.00,0.0376
3479.00,0.0376
3478.00,0.0377
3477.00,0.0377
3476.00,0.0378
3475.00,0.0379
3474.00,0.0379
3473.00,0.0380
3472.00,0.0380
3471.00,0.0381
3470.00,0.0382
3469.00,0.0382
3468.00,0.0383
3467.00,0.0384
3466.00,0.0385
3465.00,0.0386
3464.00,0.0387
3463.00,0.0386
3462.00,0.0385
3461.00,0.0385
3460.00,0.0386
3459.00,0.0387
3458.00,0.0388
3457.00,0.0389
3456.00,0.0388
3455.00,0.0388
3454.00,0.0388
3453.00,0.0389
3452.00,0.0390
3451.00,0.0391
3450.00,0.0392
3449.00,0.0393
3448.00,0.0393
3447.00,0.0393
3446.00,0.0394
3445.00,0.0395
3444.00,0.0396
3443.00,0.0396
3442.00,0.0395
3441.00,0.0394
3440.00,0.0394
3439.00,0.0394
3438.00,0.0395
3437.00,0.0395
3436.00,0.0396
3435.00,0.0396
3434.00,0.0396
3433.00,0.0397
3432.00,0.0398
3431.00,0.0399
3430.00,0.0400
3429.00,0.0400
3428.00,0.0399
3427.00,0.0400
3426.00,0.0401
3425.00,0.0402
3424.00,0.0404
3423.00,0.0405
3422.00,0.0405
3421.00,0.0406
3420.00,0.0406
3419.00,0.0406
3418.00,0.0407
3417.00,0.0406
3416.00,0.0406
3415.00,0.0405
3414.00,0.0405
3413.00,0.0406
3412.00,0.0407
3411.00,0.0408
3410.00,0.0409
3409.00,0.0409
3408.00,0.0410
3407.00,0.0410
3406.00,0.0410
3405.00,0.0410
3404.00,0.0410
3403.00,0.0410
3402.00,0.0410
3401.00,0.0411
3400.00,0.0412
3399.00,0.0412
3398.00,0.0412
3397.00,0.0412
3396.00,0.0412
3395.00,0.0412
3394.00,0.0413
3393.00,0.0414
3392.00,0.0415
3391.00,0.0416
3390.00,0.0416
3389.00,0.0417
3388.00,0.0417
3387.00,0.0416
3386.00,0.0416
3385.00,0.0416
3384.00,0.0417
3383.00,0.0418
3382.00,0.0418
3381.00,0.0419
3380.00,0.0419
3379.00,0.0420
3378.00,0.0420
3377.00,0.0420
3376.00,0.0419
3375.00,0.0419
3374.00,0.0419
3373.00,0.0419
3372.00,0.0419
3371.00,0.0419
3370.00,0.0419
3369.00,0.0419
3368.00,0.0420
3367.00,0.0420
3366.00,0.0420
3365.00,0.0420
3364.00,0.0420
3363.00,0.0420
3362.00,0.0422
3361.00,0.0423
3360.00,0.0424
3359.00,0.0425
3358.00,0.0425
3357.00,0.0424
3356.00,0.0424
3355.00,0.0424
3354.00,0.0424
3353.00,0.0425
3352.00,0.0425
3351.00,0.0425
3350.00,0.0425
3349.00,0.0426
3348.00,0.0426
3347.00,0.0426
3346.00,0.0426
3345.00,0.0426
3344.00,0.0426
3343.00,0.0425
3342.00,0.0425
3341.00,0.0426
3340.00,0.0426
3339.00,0.0427
3338.00,0.0428
3337.00,0.0428
3336.00,0.0427
3335.00,0.0427
3334.00,0.0427
3333.00,0.0427
3332.00,0.0427
3331.00,0.0426
3330.00,0.0426
3329.00,0.0426
3328.00,0.0426
3327.00,0.0426
3326.00,0.0427
3325.00,0.0428
3324.00,0.0429
3323.00,0.0429
3322.00,0.0429
3321.00,0.0428
3320.00,0.0428
3319.00,0.0428
3318.00,0.0428
3317.00,0.0428
3316.00,0.0428
3315.00,0.0428
3314.00,0.0427
3313.00,0.0427
3312.00,0.0427
3311.00,0.0427
3310.00,0.0428
3309.00,0.0429
3308.00,0.0430
3307.00,0.0430
3306.00,0.0430
3305.00,0.0430
3304.00,0.0430
3303.00,0.0429
3302.00,0.0429
3301.00,0.0430
3300.00,0.0430
3299.00,0.0430
3298.00,0.0430
3297.00,0.0431
3296.00,0.0431
3295.00,0.0432
3294.00,0.0432
3293.00,0.0431
3292.00,0.0431
3291.00,0.0431
3290.00,0.0431
3289.00,0.0431
3288.00,0.0431
3287.00,0.0431
3286.00,0.0432
3285.00,0.0432
3284.00,0.0433
3283.00,0.0433
3282.00,0.0433
3281.00,0.0432
3280.00,0.0432
3279.00,0.0432
3278.00,0.0432
3277.00,0.0432
3276.00,0.0432
3275.00,0.0432
3274.00,0.0432
3273.00,0.0432
3272.00,0.0432
3271.00,0.0433
3270.00,0.0434
3269.00,0.0434
3268.00,0.0435
3267.00,0.0435
3266.00,0.0434
3265.00,0.0434
3264.00,0.0433
3263.00,0.0433
3262.00,0.0433
3261.00,0.0433
3260.00,0.0433
3259.00,0.0434
3258.00,0.0434
3257.00,0.0434
3256.00,0.0434
3255.00,0.0434
3254.00,0.0434
3253.00,0.0434
3252.00,0.0435
3251.00,0.0434
3250.00,0.0434
3249.00,0.0434
3248.00,0.0433
3247.00,0.0433
3246.00,0.0433
3245.00,0.0434
3244.00,0.0434
3243.00,0.0434
3242.00,0.0434
3241.00,0.0435
3240.00,0.0435
3239.00,0.0435
3238.00,0.0436
3237.00,0.0437
3236.00,0.0438
3235.00,0.0439
3234.00,0.0439
3233.00,0.0438
3232.00,0.0438
3231.00,0.0437
3230.00,0.0437
3229.00,0.0436
3228.00,0.0436
3227.00,0.0436
3226.00,0.0436
3225.00,0.0436
3224.00,0.0436
3223.00,0.0436
3222.00,0.0436
3221.00,0.0436
3220.00,0.0436
3219.00,0.0435
3218.00,0.0435
3217.00,0.0436
3216.00,0.0437
3215.00,0.0438
3214.00,0.0438
3213.00,0.0438
3212.00,0.0437
3211.00,0.0436
3210.00,0.0435
3209.00,0.0435
3208.00,0.0436
3207.00,0.0436
3206.00,0.0436
3205.00,0.0437
3204.00,0.0437
3203.00,0.0437
3202.00,0.0437
3201.00,0.0437
3200.00,0.0437
3199.00,0.0437
3198.00,0.0438
3197.00,0.0438
3196.00,0.0438
3195.00,0.0438
3194.00,0.0437
3193.00,0.0437
3192.00,0.0436
3191.00,0.0436
3190.00,0.0435
3189.00,0.0435
3188.00,0.0434
3187.00,0.0433
3186.00,0.0433
3185.00,0.0434
3184.00,0.0434
3183.00,0.0435
3182.00,0.0436
3181.00,0.0436
3180.00,0.0436
3179.00,0.0435
3178.00,0.0434
3177.00,0.0433
3176.00,0.0432
3175.00,0.0432
3174.00,0.0433
3173.00,0.0433
3172.00,0.0433
3171.00,0.0433
3170.00,0.0432
3169.00,0.0432
3168.00,0.0432
3167.00,0.0432
3166.00,0.0432
3165.00,0.0433
3164.00,0.0434
3163.00,0.0434
3162.00,0.0433
3161.00,0.0432
3160.00,0.0431
3159.00,0.0430
3158.00,0.0429
3157.00,0.0429
3156.00,0.0429
3155.00,0.0430
3154.00,0.0430
3153.00,0.0430
3152.00,0.0430
3151.00,0.0430
3150.00,0.0429
3149.00,0.0428
3148.00,0.0428
3147.00,0.0428
3146.00,0.0427
3145.00,0.0428
3144.00,0.0428
3143.00,0.0429
3142.00,0.0429
3141.00,0.0428
3140.00,0.0428
3139.00,0.0427
3138.00,0.0427
3137.00,0.0427
3136.00,0.0427
3135.00,0.0427
3134.00,0.0426
3133.00,0.0426
3132.00,0.0425
3131.00,0.0426
3130.00,0.0426
3129.00,0.0425
3128.00,0.0425
3127.00,0.0424
3126.00,0.0424
3125.00,0.0424
3124.00,0.0424
3123.00,0.0423
3122.00,0.0423
3121.00,0.0423
3120.00,0.0423
3119.00,0.0423
3118.00,0.0424
3117.00,0.0423
3116.00,0.0423
3115.00,0.0422
3114.00,0.0422
3113.00,0.0422
3112.00,0.0421
3111.00,0.0421
3110.00,0.0421
3109.00,0.0421
3108.00,0.0420
3107.00,0.0421
3106.00,0.0421
3105.00,0.0421
3104.00,0.0421
3103.00,0.0421
3102.00,0.0420
3101.00,0.0419
3100.00,0.0419
3099.00,0.0418
3098.00,0.0418
3097.00,0.0418
3096.00,0.0419
3095.00,0.0419
3094.00,0.0420
3093.00,0.0420
3092.00,0.0420
3091.00,0.0419
3090.00,0.0417
3089.00,0.0416
3088.00,0.0415
3087.00,0.0415
3086.00,0.0416
3085.00,0.0416
3084.00,0.0417
3083.00,0.0417
3082.00,0.0416
3081.00,0.0416
3080.00,0.0416
3079.00,0.0416
3078.00,0.0415
3077.00,0.0415
3076.00,0.0415
3075.00,0.0415
3074.00,0.0415
3073.00,0.0415
3072.00,0.0414
3071.00,0.0414
3070.00,0.0414
3069.00,0.0414
3068.00,0.0414
3067.00,0.0414
3066.00,0.0414
3065.00,0.0413
3064.00,0.0412
3063.00,0.0411
3062.00,0.0411
3061.00,0.0411
3060.00,0.0411
3059.00,0.0411
3058.00,0.0410
3057.00,0.0410
3056.00,0.0410
3055.00,0.0410
3054.00,0.0409
3053.00,0.0409
3052.00,0.0409
3051.00,0.0409
3050.00,0.0409
3049.00,0.0409
3048.00,0.0409
3047.00,0.0409
3046.00,0.0409
3045.00,0.0408
3044.00,0.0407
3043.00,0.0406
3042.00,0.0405
3041.00,0.0404
3040.00,0.0404
3039.00,0.0404
3038.00,0.0404
3037.00,0.0404
3036.00,0.0404
3035.00,0.0404
3034.00,0.0404
3033.00,0.0403
3032.00,0.0403
3031.00,0.0402
3030.00,0.0402
3029.00,0.0401
3028.00,0.0400
3027.00,0.0400
3026.00,0.0400
3025.00,0.0399
3024.00,0.0399
3023.00,0.0399
3022.00,0.0399
3021.00,0.0398
3020.00,0.0397
3019.00,0.0396
3018.00,0.0396
3017.00,0.0395
3016.00,0.0395
3015.00,0.0395
3014.00,0.0394
3013.00,0.0394
3012.00,0.0393
3011.00,0.0392
3010.00,0.0391
3009.00,0.0390
3008.00,0.0388
3007.00,0.0386
3006.00,0.0385
3005.00,0.0384
3004.00,0.0382
3003.00,0.0381
3002.00,0.0379
3001.00,0.0377
3000.00,0.0376
2999.00,0.0374
2998.00,0.0372
2997.00,0.0371
2996.00,0.0370
2995.00,0.0369
2994.00,0.0368
2993.00,0.0368
2992.00,0.0367
2991.00,0.0366
2990.00,0.0365
2989.00,0.0365
2988.00,0.0364
2987.00,0.0362
2986.00,0.0359
2985.00,0.0356
2984.00,0.0352
2983.00,0.0348
2982.00,0.0347
2981.00,0.0347
2980.00,0.0348
2979.00,0.0350
2978.00,0.0352
2977.00,0.0355
2976.00,0.0357
2975.00,0.0357
2974.00,0.0357
2973.00,0.0356
2972.00,0.0355
2971.00,0.0356
2970.00,0.0358
2969.00,0.0361
2968.00,0.0363
2967.00,0.0365
2966.00,0.0366
2965.00,0.0367
2964.00,0.0368
2963.00,0.0370
2962.00,0.0372
2961.00,0.0373
2960.00,0.0373
2959.00,0.0373
2958.00,0.0374
2957.00,0.0375
2956.00,0.0376
2955.00,0.0377
2954.00,0.0378
2953.00,0.0379
2952.00,0.0380
2951.00,0.0380
2950.00,0.0381
2949.00,0.0381
2948.00,0.0381
2947.00,0.0381
2946.00,0.0382
2945.00,0.0383
2944.00,0.0384
2943.00,0.0385
2942.00,0.0387
2941.00,0.0388
2940.00,0.0389
2939.00,0.0391
2938.00,0.0392
2937.00,0.0394
2936.00,0.0396
2935.00,0.0398
2934.00,0.0399
2933.00,0.0401
2932.00,0.0403
2931.00,0.0405
2930.00,0.0407
2929.00,0.0409
2928.00,0.0411
2927.00,0.0412
2926.00,0.0413
2925.00,0.0413
2924.00,0.0413
2923.00,0.0413
2922.00,0.0412
2921.00,0.0410
2920.00,0.0407
2919.00,0.0404
2918.00,0.0402
2917.00,0.0399
2916.00,0.0397
2915.00,0.0395
2914.00,0.0393
2913.00,0.0392
2912.00,0.0390
2911.00,0.0389
2910.00,0.0388
2909.00,0.0386
2908.00,0.0385
2907.00,0.0384
2906.00,0.0382
2905.00,0.0381
2904.00,0.0380
2903.00,0.0379
2902.00,0.0378
2901.00,0.0377
2900.00,0.0376
2899.00,0.0375
2898.00,0.0374
2897.00,0.0373
2896.00,0.0372
2895.00,0.0371
2894.00,0.0370
2893.00,0.0369
2892.00,0.0369
2891.00,0.0368
2890.00,0.0367
2889.00,0.0366
2888.00,0.0366
2887.00,0.0365
2886.00,0.0365
2885.00,0.0364
2884.00,0.0363
2883.00,0.0363
2882.00,0.0362
2881.00,0.0362
2880.00,0.0363
2879.00,0.0363
2878.00,0.0364
2877.00,0.0365
2876.00,0.0365
2875.00,0.0365
2874.00,0.0365
2873.00,0.0364
2872.00,0.0364
2871.00,0.0364
2870.00,0.0364
2869.00,0.0365
2868.00,0.0365
2867.00,0.0365
2866.00,0.0366
2865.00,0.0367
2864.00,0.0368
2863.00,0.0369
2862.00,0.0371
2861.00,0.0373
2860.00,0.0375
2859.00,0.0377
2858.00,0.0380
2857.00,0.0382
2856.00,0.0383
2855.00,0.0384
2854.00,0.0384
2853.00,0.0383
2852.00,0.0382
2851.00,0.0381
2850.00,0.0380
2849.00,0.0378
2848.00,0.0375
2847.00,0.0373
2846.00,0.0371
2845.00,0.0369
2844.00,0.0368
2843.00,0.0366
2842.00,0.0365
2841.00,0.0363
2840.00,0.0362
2839.00,0.0360
2838.00,0.0359
2837.00,0.0358
2836.00,0.0358
2835.00,0.0358
2834.00,0.0358
2833.00,0.0357
2832.00,0.0356
2831.00,0.0355
2830.00,0.0354
2829.00,0.0353
2828.00,0.0353
2827.00,0.0352
2826.00,0.0352
2825.00,0.0352
2824.00,0.0352
2823.00,0.0352
2822.00,0.0351
2821.00,0.0351
2820.00,0.0350
2819.00,0.0349
2818.00,0.0349
2817.00,0.0348
2816.00,0.0348
2815.00,0.0347
2814.00,0.0347
2813.00,0.0347
2812.00,0.0347
2811.00,0.0346
2810.00,0.0346
2809.00,0.0346
2808.00,0.0345
2807.00,0.0345
2806.00,0.0345
2805.00,0.0345
2804.00,0.0345
2803.00,0.0345
2802.00,0.0344
2801.00,0.0344
2800.00,0.0344
2799.00,0.0344
2798.00,0.0344
2797.00,0.0344
2796.00,0.0344
2795.00,0.0343
2794.00,0.0343
2793.00,0.0343
2792.00,0.0343
2791.00,0.0343
2790.00,0.0343
2789.00,0.0342
2788.00,0.0342
2787.00,0.0341
2786.00,0.0341
2785.00,0.0341
2784.00,0.0340
2783.00,0.0340
2782.00,0.0339
2781.00,0.0338
2780.00,0.0337
2779.00,0.0337
2778.00,0.0337
2777.00,0.0338
2776.00,0.0338
2775.00,0.0338
2774.00,0.0338
2773.00,0.0338
2772.00,0.0338
2771.00,0.0337
2770.00,0.0336
2769.00,0.0335
2768.00,0.0335
2767.00,0.0335
2766.00,0.0335
2765.00,0.0335
2764.00,0.0335
2763.00,0.0335
2762.00,0.0334
2761.00,0.0334
2760.00,0.0334
2759.00,0.0334
2758.00,0.0334
2757.00,0.0333
2756.00,0.0333
2755.00,0.0333
2754.00,0.0333
2753.00,0.0333
2752.00,0.0333
2751.00,0.0333
2750.00,0.0333
2749.00,0.0333
2748.00,0.0333
2747.00,0.0333
2746.00,0.0333
2745.00,0.0333
2744.00,0.0333
2743.00,0.0332
2742.00,0.0332
2741.00,0.0332
2740.00,0.0331
2739.00,0.0331
2738.00,0.0330
2737.00,0.0329
2736.00,0.0329
2735.00,0.0329
2734.00,0.0329
2733.00,0.0330
2732.00,0.0330
2731.00,0.0330
2730.00,0.0329
2729.00,0.0329
2728.00,0.0329
2727.00,0.0329
2726.00,0.0329
2725.00,0.0328
2724.00,0.0328
2723.00,0.0328
2722.00,0.0327
2721.00,0.0327
2720.00,0.0327
2719.00,0.0327
2718.00,0.0327
2717.00,0.0327
2716.00,0.0327
2715.00,0.0327
2714.00,0.0327
2713.00,0.0327
2712.00,0.0327
2711.00,0.0327
2710.00,0.0326
2709.00,0.0326
2708.00,0.0326
2707.00,0.0325
2706.00,0.0325
2705.00,0.0325
2704.00,0.0325
2703.00,0.0324
2702.00,0.0324
2701.00,0.0324
2700.00,0.0324
2699.00,0.0324
2698.00,0.0323
2697.00,0.0323
2696.00,0.0323
2695.00,0.0323
2694.00,0.0323
2693.00,0.0323
2692.00,0.0323
2691.00,0.0323
2690.00,0.0323
2689.00,0.0323
2688.00,0.0322
2687.00,0.0322
2686.00,0.0322
2685.00,0.0322
2684.00,0.0322
2683.00,0.0322
2682.00,0.0321
2681.00,0.0321
2680.00,0.0321
2679.00,0.0320
2678.00,0.0319
2677.00,0.0319
2676.00,0.0319
2675.00,0.0319
2674.00,0.0319
2673.00,0.0319
2672.00,0.0319
2671.00,0.0319
2670.00,0.0318
2669.00,0.0318
2668.00,0.0318
2667.00,0.0318
2666.00,0.0319
2665.00,0.0319
2664.00,0.0319
2663.00,0.0320
2662.00,0.0320
2661.00,0.0320
2660.00,0.0320
2659.00,0.0320
2658.00,0.0320
2657.00,0.0320
2656.00,0.0319
2655.00,0.0319
2654.00,0.0319
2653.00,0.0319
2652.00,0.0320
2651.00,0.0320
2650.00,0.0320
2649.00,0.0320
2648.00,0.0320
2647.00,0.0319
2646.00,0.0319
2645.00,0.0319
2644.00,0.0319
2643.00,0.0319
2642.00,0.0320
2641.00,0.0320
2640.00,0.0320
2639.00,0.0320
2638.00,0.0320
2637.00,0.0320
2636.00,0.0319
2635.00,0.0319
2634.00,0.0319
2633.00,0.0319
2632.00,0.0319
2631.00,0.0319
2630.00,0.0319
2629.00,0.0318
2628.00,0.0317
2627.00,0.0317
2626.00,0.0317
2625.00,0.0318
2624.00,0.0318
2623.00,0.0319
2622.00,0.0319
2621.00,0.0319
2620.00,0.0319
2619.00,0.0318
2618.00,0.0318
2617.00,0.0318
2616.00,0.0318
2615.00,0.0318
2614.00,0.0317
2613.00,0.0318
2612.00,0.0318
2611.00,0.0319
2610.00,0.0319
2609.00,0.0318
2608.00,0.0317
2607.00,0.0317
2606.00,0.0318
2605.00,0.0318
2604.00,0.0319
2603.00,0.0319
2602.00,0.0320
2601.00,0.0319
2600.00,0.0318
2599.00,0.0318
2598.00,0.0317
2597.00,0.0316
2596.00,0.0315
2595.00,0.0315
2594.00,0.0315
2593.00,0.0316
2592.00,0.0317
2591.00,0.0317
2590.00,0.0317
2589.00,0.0317
2588.00,0.0317
2587.00,0.0317
2586.00,0.0316
2585.00,0.0316
2584.00,0.0315
2583.00,0.0315
2582.00,0.0315
2581.00,0.0315
2580.00,0.0315
2579.00,0.0316
2578.00,0.0316
2577.00,0.0315
2576.00,0.0314
2575.00,0.0314
2574.00,0.0314
2573.00,0.0314
2572.00,0.0314
2571.00,0.0314
2570.00,0.0313
2569.00,0.0313
2568.00,0.0313
2567.00,0.0315
2566.00,0.0316
2565.00,0.0316
2564.00,0.0316
2563.00,0.0316
2562.00,0.0316
2561.00,0.0316
2560.00,0.0315
2559.00,0.0315
2558.00,0.0315
2557.00,0.0315
2556.00,0.0315
2555.00,0.0315
2554.00,0.0315
2553.00,0.0314
2552.00,0.0313
2551.00,0.0312
2550.00,0.0311
2549.00,0.0310
2548.00,0.0309
2547.00,0.0309
2546.00,0.0309
2545.00,0.0310
2544.00,0.0311
2543.00,0.0311
2542.00,0.0310
2541.00,0.0309
2540.00,0.0308
2539.00,0.0307
2538.00,0.0307
2537.00,0.0307
2536.00,0.0307
2535.00,0.0307
2534.00,0.0308
2533.00,0.0309
2532.00,0.0310
2531.00,0.0309
2530.00,0.0308
2529.00,0.0308
2528.00,0.0307
2527.00,0.0307
2526.00,0.0306
2525.00,0.0306
2524.00,0.0306
2523.00,0.0305
2522.00,0.0306
2521.00,0.0306
2520.00,0.0306
2519.00,0.0306
2518.00,0.0307
2517.00,0.0308
2516.00,0.0308
2515.00,0.0308
2514.00,0.0307
2513.00,0.0307
2512.00,0.0306
2511.00,0.0307
2510.00,0.0307
2509.00,0.0308
2508.00,0.0308
2507.00,0.0308
2506.00,0.0307
2505.00,0.0306
2504.00,0.0306
2503.00,0.0306
2502.00,0.0307
2501.00,0.0307
2500.00,0.0308
2499.00,0.0308
2498.00,0.0307
2497.00,0.0306
2496.00,0.0306
2495.00,0.0306
2494.00,0.0307
2493.00,0.0307
2492.00,0.0307
2491.00,0.0307
2490.00,0.0306
2489.00,0.0306
2488.00,0.0306
2487.00,0.0306
2486.00,0.0305
2485.00,0.0304
2484.00,0.0303
2483.00,0.0303
2482.00,0.0304
2481.00,0.0304
2480.00,0.0305
2479.00,0.0305
2478.00,0.0304
2477.00,0.0304
2476.00,0.0303
2475.00,0.0303
2474.00,0.0303
2473.00,0.0303
2472.00,0.0303
2471.00,0.0303
2470.00,0.0303
2469.00,0.0303
2468.00,0.0302
2467.00,0.0302
2466.00,0.0301
2465.00,0.0301
2464.00,0.0300
2463.00,0.0300
2462.00,0.0300
2461.00,0.0300
2460.00,0.0300
2459.00,0.0301
2458.00,0.0301
2457.00,0.0302
2456.00,0.0302
2455.00,0.0303
2454.00,0.0303
2453.00,0.0304
2452.00,0.0304
2451.00,0.0303
2450.00,0.0302
2449.00,0.0301
2448.00,0.0301
2447.00,0.0300
2446.00,0.0300
2445.00,0.0299
2444.00,0.0299
2443.00,0.0298
2442.00,0.0298
2441.00,0.0298
2440.00,0.0299
2439.00,0.0299
2438.00,0.0299
2437.00,0.0299
2436.00,0.0298
2435.00,0.0298
2434.00,0.0297
2433.00,0.0297
2432.00,0.0297
2431.00,0.0297
2430.00,0.0297
2429.00,0.0297
2428.00,0.0297
2427.00,0.0297
2426.00,0.0297
2425.00,0.0297
2424.00,0.0297
2423.00,0.0297
2422.00,0.0297
2421.00,0.0297
2420.00,0.0296
2419.00,0.0296
2418.00,0.0295
2417.00,0.0295
2416.00,0.0294
2415.00,0.0294
2414.00,0.0294
2413.00,0.0295
2412.00,0.0295
2411.00,0.0295
2410.00,0.0295
2409.00,0.0295
2408.00,0.0295
2407.00,0.0295
2406.00,0.0294
2405.00,0.0293
2404.00,0.0293
2403.00,0.0292
2402.00,0.0292
2401.00,0.0291
2400.00,0.0291
2399.00,0.0291
2398.00,0.0291
2397.00,0.0291
2396.00,0.0291
2395.00,0.0290
2394.00,0.0290
2393.00,0.0289
2392.00,0.0289
2391.00,0.0289
2390.00,0.0289
2389.00,0.0289
2388.00,0.0289
2387.00,0.0288
2386.00,0.0288
2385.00,0.0287
2384.00,0.0286
2383.00,0.0285
2382.00,0.0285
2381.00,0.0286
2380.00,0.0287
2379.00,0.0287
2378.00,0.0287
2377.00,0.0286
2376.00,0.0285
2375.00,0.0284
2374.00,0.0284
2373.00,0.0285
2372.00,0.0285
2371.00,0.0284
2370.00,0.0281
2369.00,0.0278
2368.00,0.0276
2367.00,0.0278
2366.00,0.0282
2365.00,0.0286
2364.00,0.0287
2363.00,0.0285
2362.00,0.0283
2361.00,0.0284
2360.00,0.0285
2359.00,0.0286
2358.00,0.0286
2357.00,0.0284
2356.00,0.0282
2355.00,0.0281
2354.00,0.0280
2353.00,0.0281
2352.00,0.0283
2351.00,0.0284
2350.00,0.0285
2349.00,0.0284
2348.00,0.0282
2347.00,0.0279
2346.00,0.0278
2345.00,0.0279
2344.00,0.0281
2343.00,0.0283
2342.00,0.0285
2341.00,0.0286
2340.00,0.0285
2339.00,0.0283
2338.00,0.0281
2337.00,0.0280
2336.00,0.0281
2335.00,0.0282
2334.00,0.0282
2333.00,0.0282
2332.00,0.0281
2331.00,0.0280
2330.00,0.0279
2329.00,0.0280
2328.00,0.0281
2327.00,0.0282
2326.00,0.0283
2325.00,0.0284
2324.00,0.0283
2323.00,0.0282
2322.00,0.0281
2321.00,0.0281
2320.00,0.0281
2319.00,0.0281
2318.00,0.0281
2317.00,0.0280
2316.00,0.0280
2315.00,0.0280
2314.00,0.0280
2313.00,0.0280
2312.00,0.0281
2311.00,0.0282
2310.00,0.0283
2309.00,0.0284
2308.00,0.0284
2307.00,0.0284
2306.00,0.0283
2305.00,0.0283
2304.00,0.0282
2303.00,0.0280
2302.00,0.0279
2301.00,0.0278
2300.00,0.0279
2299.00,0.0280
2298.00,0.0281
2297.00,0.0282
2296.00,0.0283
2295.00,0.0283
2294.00,0.0284
2293.00,0.0285
2292.00,0.0287
2291.00,0.0287
2290.00,0.0287
2289.00,0.0286
2288.00,0.0285
2287.00,0.0286
2286.00,0.0287
2285.00,0.0289
2284.00,0.0290
2283.00,0.0291
2282.00,0.0291
2281.00,0.0290
2280.00,0.0289
2279.00,0.0288
2278.00,0.0288
2277.00,0.0288
2276.00,0.0287
2275.00,0.0286
2274.00,0.0285
2273.00,0.0284
2272.00,0.0284
2271.00,0.0284
2270.00,0.0284
2269.00,0.0284
2268.00,0.0284
2267.00,0.0285
2266.00,0.0285
2265.00,0.0286
2264.00,0.0286
2263.00,0.0287
2262.00,0.0286
2261.00,0.0286
2260.00,0.0287
2259.00,0.0286
2258.00,0.0285
2257.00,0.0283
2256.00,0.0281
2255.00,0.0280
2254.00,0.0281
2253.00,0.0281
2252.00,0.0282
2251.00,0.0283
2250.00,0.0284
2249.00,0.0284
2248.00,0.0284
2247.00,0.0284
2246.00,0.0284
2245.00,0.0284
2244.00,0.0284
2243.00,0.0284
2242.00,0.0283
2241.00,0.0283
2240.00,0.0282
2239.00,0.0282
2238.00,0.0281
2237.00,0.0281
2236.00,0.0281
2235.00,0.0282
2234.00,0.0284
2233.00,0.0285
2232.00,0.0285
2231.00,0.0283
2230.00,0.0280
2229.00,0.0280
2228.00,0.0280
2227.00,0.0281
2226.00,0.0282
2225.00,0.0282
2224.00,0.0281
2223.00,0.0280
2222.00,0.0279
2221.00,0.0279
2220.00,0.0280
2219.00,0.0280
2218.00,0.0281
2217.00,0.0281
2216.00,0.0282
2215.00,0.0283
2214.00,0.0284
2213.00,0.0284
2212.00,0.0283
2211.00,0.0280
2210.00,0.0279
2209.00,0.0278
2208.00,0.0279
2207.00,0.0280
2206.00,0.0281
2205.00,0.0281
2204.00,0.0281
2203.00,0.0280
2202.00,0.0279
2201.00,0.0278
2200.00,0.0277
2199.00,0.0277
2198.00,0.0277
2197.00,0.0278
2196.00,0.0279
2195.00,0.0279
2194.00,0.0278
2193.00,0.0276
2192.00,0.0275
2191.00,0.0273
2190.00,0.0272
2189.00,0.0271
2188.00,0.0273
2187.00,0.0276
2186.00,0.0280
2185.00,0.0281
2184.00,0.0279
2183.00,0.0276
2182.00,0.0274
2181.00,0.0273
2180.00,0.0274
2179.00,0.0275
2178.00,0.0276
2177.00,0.0277
2176.00,0.0278
2175.00,0.0278
2174.00,0.0278
2173.00,0.0277
2172.00,0.0277
2171.00,0.0278
2170.00,0.0280
2169.00,0.0283
2168.00,0.0285
2167.00,0.0285
2166.00,0.0285
2165.00,0.0286
2164.00,0.0289
2163.00,0.0291
2162.00,0.0291
2161.00,0.0288
2160.00,0.0280
2159.00,0.0270
2158.00,0.0263
2157.00,0.0260
2156.00,0.0260
2155.00,0.0263
2154.00,0.0267
2153.00,0.0270
2152.00,0.0271
2151.00,0.0268
2150.00,0.0264
2149.00,0.0262
2148.00,0.0262
2147.00,0.0265
2146.00,0.0267
2145.00,0.0269
2144.00,0.0269
2143.00,0.0268
2142.00,0.0268
2141.00,0.0269
2140.00,0.0269
2139.00,0.0268
2138.00,0.0267
2137.00,0.0265
2136.00,0.0263
2135.00,0.0261
2134.00,0.0260
2133.00,0.0261
2132.00,0.0261
2131.00,0.0262
2130.00,0.0262
2129.00,0.0264
2128.00,0.0266
2127.00,0.0267
2126.00,0.0267
2125.00,0.0267
2124.00,0.0266
2123.00,0.0266
2122.00,0.0266
2121.00,0.0266
2120.00,0.0266
2119.00,0.0265
2118.00,0.0265
2117.00,0.0264
2116.00,0.0263
2115.00,0.0262
2114.00,0.0261
2113.00,0.0260
2112.00,0.0261
2111.00,0.0263
2110.00,0.0264
2109.00,0.0266
2108.00,0.0268
2107.00,0.0269
2106.00,0.0269
2105.00,0.0269
2104.00,0.0268
2103.00,0.0267
2102.00,0.0267
2101.00,0.0266
2100.00,0.0265
2099.00,0.0262
2098.00,0.0260
2097.00,0.0260
2096.00,0.0260
2095.00,0.0260
2094.00,0.0261
2093.00,0.0261
2092.00,0.0261
2091.00,0.0261
2090.00,0.0260
2089.00,0.0259
2088.00,0.0259
2087.00,0.0259
2086.00,0.0260
2085.00,0.0262
2084.00,0.0264
2083.00,0.0265
2082.00,0.0264
2081.00,0.0264
2080.00,0.0263
2079.00,0.0262
2078.00,0.0262
2077.00,0.0261
2076.00,0.0262
2075.00,0.0263
2074.00,0.0264
2073.00,0.0264
2072.00,0.0265
2071.00,0.0265
2070.00,0.0265
2069.00,0.0263
2068.00,0.0261
2067.00,0.0258
2066.00,0.0258
2065.00,0.0258
2064.00,0.0259
2063.00,0.0260
2062.00,0.0260
2061.00,0.0260
2060.00,0.0259
2059.00,0.0258
2058.00,0.0258
2057.00,0.0259
2056.00,0.0260
2055.00,0.0260
2054.00,0.0262
2053.00,0.0264
2052.00,0.0266
2051.00,0.0265
2050.00,0.0262
2049.00,0.0260
2048.00,0.0259
2047.00,0.0259
2046.00,0.0261
2045.00,0.0263
2044.00,0.0265
2043.00,0.0267
2042.00,0.0266
2041.00,0.0264
2040.00,0.0261
2039.00,0.0260
2038.00,0.0261
2037.00,0.0264
2036.00,0.0267
2035.00,0.0266
2034.00,0.0263
2033.00,0.0263
2032.00,0.0264
2031.00,0.0267
2030.00,0.0267
2029.00,0.0266
2028.00,0.0263
2027.00,0.0261
2026.00,0.0259
2025.00,0.0255
2024.00,0.0251
2023.00,0.0247
2022.00,0.0246
2021.00,0.0245
2020.00,0.0245
2019.00,0.0245
2018.00,0.0245
2017.00,0.0244
2016.00,0.0244
2015.00,0.0245
2014.00,0.0247
2013.00,0.0248
2012.00,0.0248
2011.00,0.0248
2010.00,0.0248
2009.00,0.0249
2008.00,0.0249
2007.00,0.0250
2006.00,0.0249
2005.00,0.0249
2004.00,0.0249
2003.00,0.0250
2002.00,0.0253
2001.00,0.0256
2000.00,0.0256
1999.00,0.0254
1998.00,0.0252
1997.00,0.0252
1996.00,0.0254
1995.00,0.0256
1994.00,0.0258
1993.00,0.0259
1992.00,0.0258
1991.00,0.0256
1990.00,0.0253
1989.00,0.0251
1988.00,0.0249
1987.00,0.0249
1986.00,0.0249
1985.00,0.0250
1984.00,0.0251
1983.00,0.0253
1982.00,0.0254
1981.00,0.0253
1980.00,0.0250
1979.00,0.0245
1978.00,0.0239
1977.00,0.0235
1976.00,0.0235
1975.00,0.0239
1974.00,0.0243
1973.00,0.0244
1972.00,0.0243
1971.00,0.0241
1970.00,0.0240
1969.00,0.0242
1968.00,0.0243
1967.00,0.0243
1966.00,0.0241
1965.00,0.0240
1964.00,0.0240
1963.00,0.0241
1962.00,0.0242
1961.00,0.0242
1960.00,0.0241
1959.00,0.0241
1958.00,0.0241
1957.00,0.0240
1956.00,0.0239
1955.00,0.0238
1954.00,0.0239
1953.00,0.0240
1952.00,0.0240
1951.00,0.0239
1950.00,0.0237
1949.00,0.0236
1948.00,0.0235
1947.00,0.0236
1946.00,0.0236
1945.00,0.0235
1944.00,0.0232
1943.00,0.0230
1942.00,0.0229
1941.00,0.0228
1940.00,0.0227
1939.00,0.0226
1938.00,0.0225
1937.00,0.0226
1936.00,0.0227
1935.00,0.0227
1934.00,0.0226
1933.00,0.0225
1932.00,0.0225
1931.00,0.0226
1930.00,0.0228
1929.00,0.0229
1928.00,0.0231
1927.00,0.0232
1926.00,0.0232
1925.00,0.0231
1924.00,0.0230
1923.00,0.0229
1922.00,0.0228
1921.00,0.0228
1920.00,0.0227
1919.00,0.0225
1918.00,0.0224
1917.00,0.0223
1916.00,0.0224
1915.00,0.0225
1914.00,0.0226
1913.00,0.0225
1912.00,0.0225
1911.00,0.0224
1910.00,0.0223
1909.00,0.0221
1908.00,0.0220
1907.00,0.0219
1906.00,0.0219
1905.00,0.0220
1904.00,0.0220
1903.00,0.0220
1902.00,0.0219
1901.00,0.0218
1900.00,0.0218
1899.00,0.0219
1898.00,0.0220
1897.00,0.0220
1896.00,0.0218
1895.00,0.0216
1894.00,0.0215
1893.00,0.0215
1892.00,0.0215
1891.00,0.0216
1890.00,0.0215
1889.00,0.0214
1888.00,0.0213
1887.00,0.0212
1886.00,0.0212
1885.00,0.0212
1884.00,0.0213
1883.00,0.0213
1882.00,0.0212
1881.00,0.0211
1880.00,0.0211
1879.00,0.0210
1878.00,0.0209
1877.00,0.0208
1876.00,0.0207
1875.00,0.0208
1874.00,0.0209
1873.00,0.0210
1872.00,0.0211
1871.00,0.0211
1870.00,0.0210
1869.00,0.0208
1868.00,0.0206
1867.00,0.0205
1866.00,0.0205
1865.00,0.0205
1864.00,0.0205
1863.00,0.0204
1862.00,0.0203
1861.00,0.0202
1860.00,0.0201
1859.00,0.0201
1858.00,0.0201
1857.00,0.0202
1856.00,0.0202
1855.00,0.0202
1854.00,0.0201
1853.00,0.0201
1852.00,0.0200
1851.00,0.0200
1850.00,0.0200
1849.00,0.0200
1848.00,0.0200
1847.00,0.0200
1846.00,0.0200
1845.00,0.0199
1844.00,0.0197
1843.00,0.0195
1842.00,0.0194
1841.00,0.0195
1840.00,0.0195
1839.00,0.0195
1838.00,0.0195
1837.00,0.0195
1836.00,0.0195
1835.00,0.0194
1834.00,0.0194
1833.00,0.0195
1832.00,0.0196
1831.00,0.0195
1830.00,0.0193
1829.00,0.0191
1828.00,0.0191
1827.00,0.0191
1826.00,0.0191
1825.00,0.0190
1824.00,0.0189
1823.00,0.0188
1822.00,0.0188
1821.00,0.0188
1820.00,0.0188
1819.00,0.0186
1818.00,0.0185
1817.00,0.0184
1816.00,0.0183
1815.00,0.0183
1814.00,0.0183
1813.00,0.0183
1812.00,0.0183
1811.00,0.0183
1810.00,0.0182
1809.00,0.0182
1808.00,0.0183
1807.00,0.0183
1806.00,0.0183
1805.00,0.0183
1804.00,0.0184
1803.00,0.0184
1802.00,0.0183
1801.00,0.0182
1800.00,0.0182
1799.00,0.0181
1798.00,0.0182
1797.00,0.0182
1796.00,0.0183
1795.00,0.0183
1794.00,0.0183
1793.00,0.0182
1792.00,0.0182
1791.00,0.0182
1790.00,0.0183
1789.00,0.0184
1788.00,0.0185
1787.00,0.0186
1786.00,0.0187
1785.00,0.0188
1784.00,0.0189
1783.00,0.0191
1782.00,0.0192
1781.00,0.0193
1780.00,0.0193
1779.00,0.0193
1778.00,0.0195
1777.00,0.0197
1776.00,0.0199
1775.00,0.0201
1774.00,0.0202
1773.00,0.0202
1772.00,0.0201
1771.00,0.0202
1770.00,0.0204
1769.00,0.0207
1768.00,0.0209
1767.00,0.0209
1766.00,0.0211
1765.00,0.0213
1764.00,0.0216
1763.00,0.0217
1762.00,0.0217
1761.00,0.0217
1760.00,0.0219
1759.00,0.0221
1758.00,0.0223
1757.00,0.0223
1756.00,0.0225
1755.00,0.0228
1754.00,0.0231
1753.00,0.0234
1752.00,0.0236
1751.00,0.0237
1750.00,0.0238
1749.00,0.0241
1748.00,0.0243
1747.00,0.0246
1746.00,0.0248
1745.00,0.0250
1744.00,0.0253
1743.00,0.0254
1742.00,0.0256
1741.00,0.0258
1740.00,0.0259
1739.00,0.0260
1738.00,0.0262
1737.00,0.0264
1736.00,0.0267
1735.00,0.0268
1734.00,0.0268
1733.00,0.0270
1732.00,0.0273
1731.00,0.0276
1730.00,0.0279
1729.00,0.0281
1728.00,0.0283
1727.00,0.0285
1726.00,0.0288
1725.00,0.0290
1724.00,0.0293
1723.00,0.0296
1722.00,0.0298
1721.00,0.0301
1720.00,0.0303
1719.00,0.0304
1718.00,0.0305
1717.00,0.0308
1716.00,0.0311
1715.00,0.0314
1714.00,0.0317
1713.00,0.0320
1712.00,0.0323
1711.00,0.0325
1710.00,0.0326
1709.00,0.0327
1708.00,0.0328
1707.00,0.0328
1706.00,0.0328
1705.00,0.0328
1704.00,0.0328
1703.00,0.0330
1702.00,0.0330
1701.00,0.0327
1700.00,0.0324
1699.00,0.0324
1698.00,0.0327
1697.00,0.0330
1696.00,0.0331
1695.00,0.0330
1694.00,0.0329
1693.00,0.0330
1692.00,0.0332
1691.00,0.0333
1690.00,0.0333
1689.00,0.0334
1688.00,0.0335
1687.00,0.0335
1686.00,0.0335
1685.00,0.0334
1684.00,0.0335
1683.00,0.0336
1682.00,0.0338
1681.00,0.0339
1680.00,0.0339
1679.00,0.0340
1678.00,0.0342
1677.00,0.0344
1676.00,0.0346
1675.00,0.0347
1674.00,0.0348
1673.00,0.0350
1672.00,0.0351
1671.00,0.0353
1670.00,0.0354
1669.00,0.0356
1668.00,0.0358
1667.00,0.0359
1666.00,0.0360
1665.00,0.0362
1664.00,0.0363
1663.00,0.0364
1662.00,0.0366
1661.00,0.0369
1660.00,0.0372
1659.00,0.0375
1658.00,0.0377
1657.00,0.0378
1656.00,0.0379
1655.00,0.0378
1654.00,0.0377
1653.00,0.0381
1652.00,0.0385
1651.00,0.0388
1650.00,0.0390
1649.00,0.0392
1648.00,0.0394
1647.00,0.0396
1646.00,0.0399
1645.00,0.0403
1644.00,0.0405
1643.00,0.0407
1642.00,0.0409
1641.00,0.0411
1640.00,0.0413
1639.00,0.0414
1638.00,0.0415
1637.00,0.0418
1636.00,0.0422
1635.00,0.0427
1634.00,0.0429
1633.00,0.0430
1632.00,0.0431
1631.00,0.0433
1630.00,0.0435
1629.00,0.0438
1628.00,0.0441
1627.00,0.0443
1626.00,0.0446
1625.00,0.0450
1624.00,0.0453
1623.00,0.0456
1622.00,0.0459
1621.00,0.0462
1620.00,0.0464
1619.00,0.0465
1618.00,0.0467
1617.00,0.0470
1616.00,0.0474
1615.00,0.0478
1614.00,0.0481
1613.00,0.0483
1612.00,0.0485
1611.00,0.0488
1610.00,0.0491
1609.00,0.0494
1608.00,0.0497
1607.00,0.0500
1606.00,0.0503
1605.00,0.0506
1604.00,0.0509
1603.00,0.0512
1602.00,0.0514
1601.00,0.0516
1600.00,0.0518
1599.00,0.0521
1598.00,0.0524
1597.00,0.0527
1596.00,0.0530
1595.00,0.0533
1594.00,0.0536
1593.00,0.0539
1592.00,0.0541
1591.00,0.0543
1590.00,0.0545
1589.00,0.0548
1588.00,0.0551
1587.00,0.0554
1586.00,0.0556
1585.00,0.0558
1584.00,0.0560
1583.00,0.0562
1582.00,0.0565
1581.00,0.0566
1580.00,0.0567
1579.00,0.0569
1578.00,0.0571
1577.00,0.0573
1576.00,0.0576
1575.00,0.0578
1574.00,0.0579
1573.00,0.0578
1572.00,0.0579
1571.00,0.0580
1570.00,0.0582
1569.00,0.0584
1568.00,0.0585
1567.00,0.0586
1566.00,0.0586
1565.00,0.0585
1564.00,0.0584
1563.00,0.0583
1562.00,0.0581
1561.00,0.0579
1560.00,0.0579
1559.00,0.0583
1558.00,0.0586
1557.00,0.0583
1556.00,0.0581
1555.00,0.0579
1554.00,0.0579
1553.00,0.0579
1552.00,0.0578
1551.00,0.0577
1550.00,0.0575
1549.00,0.0572
1548.00,0.0568
1547.00,0.0565
1546.00,0.0561
1545.00,0.0557
1544.00,0.0553
1543.00,0.0548
1542.00,0.0543
1541.00,0.0540
1540.00,0.0539
1539.00,0.0538
1538.00,0.0535
1537.00,0.0532
1536.00,0.0530
1535.00,0.0528
1534.00,0.0525
1533.00,0.0523
1532.00,0.0521
1531.00,0.0518
1530.00,0.0514
1529.00,0.0511
1528.00,0.0508
1527.00,0.0504
1526.00,0.0499
1525.00,0.0495
1524.00,0.0492
1523.00,0.0488
1522.00,0.0486
1521.00,0.0485
1520.00,0.0484
1519.00,0.0484
1518.00,0.0481
1517.00,0.0478
1516.00,0.0475
1515.00,0.0472
1514.00,0.0469
1513.00,0.0467
1512.00,0.0465
1511.00,0.0463
1510.00,0.0461
1509.00,0.0459
1508.00,0.0456
1507.00,0.0454
1506.00,0.0452
1505.00,0.0450
1504.00,0.0448
1503.00,0.0446
1502.00,0.0444
1501.00,0.0442
1500.00,0.0440
1499.00,0.0439
1498.00,0.0438
1497.00,0.0437
1496.00,0.0437
1495.00,0.0435
1494.00,0.0433
1493.00,0.0432
1492.00,0.0431
1491.00,0.0430
1490.00,0.0430
1489.00,0.0430
1488.00,0.0429
1487.00,0.0428
1486.00,0.0427
1485.00,0.0425
1484.00,0.0425
1483.00,0.0424
1482.00,0.0424
1481.00,0.0424
1480.00,0.0424
1479.00,0.0423
1478.00,0.0423
1477.00,0.0423
1476.00,0.0422
1475.00,0.0422
1474.00,0.0422
1473.00,0.0424
1472.00,0.0427
1471.00,0.0430
1470.00,0.0432
1469.00,0.0434
1468.00,0.0436
1467.00,0.0437
1466.00,0.0437
1465.00,0.0437
1464.00,0.0437
1463.00,0.0438
1462.00,0.0438
1461.00,0.0438
1460.00,0.0438
1459.00,0.0439
1458.00,0.0441
1457.00,0.0443
1456.00,0.0446
1455.00,0.0447
1454.00,0.0447
1453.00,0.0449
1452.00,0.0450
1451.00,0.0452
1450.00,0.0454
1449.00,0.0456
1448.00,0.0459
1447.00,0.0461
1446.00,0.0462
1445.00,0.0463
1444.00,0.0464
1443.00,0.0465
1442.00,0.0465
1441.00,0.0466
1440.00,0.0467
1439.00,0.0469
1438.00,0.0471
1437.00,0.0474
1436.00,0.0476
1435.00,0.0477
1434.00,0.0477
1433.00,0.0478
1432.00,0.0479
1431.00,0.0480
1430.00,0.0481
1429.00,0.0482
1428.00,0.0483
1427.00,0.0484
1426.00,0.0486
1425.00,0.0487
1424.00,0.0488
1423.00,0.0489
1422.00,0.0490
1421.00,0.0491
1420.00,0.0493
1419.00,0.0497
1418.00,0.0500
1417.00,0.0502
1416.00,0.0503
1415.00,0.0504
1414.00,0.0504
1413.00,0.0503
1412.00,0.0504
1411.00,0.0504
1410.00,0.0505
1409.00,0.0506
1408.00,0.0507
1407.00,0.0508
1406.00,0.0509
1405.00,0.0510
1404.00,0.0511
1403.00,0.0511
1402.00,0.0510
1401.00,0.0511
1400.00,0.0511
1399.00,0.0513
1398.00,0.0514
1397.00,0.0515
1396.00,0.0517
1395.00,0.0519
1394.00,0.0520
1393.00,0.0521
1392.00,0.0522
1391.00,0.0523
1390.00,0.0524
1389.00,0.0524
1388.00,0.0526
1387.00,0.0527
1386.00,0.0528
1385.00,0.0528
1384.00,0.0528
1383.00,0.0529
1382.00,0.0530
1381.00,0.0531
1380.00,0.0532
1379.00,0.0533
1378.00,0.0534
1377.00,0.0535
1376.00,0.0536
1375.00,0.0537
1374.00,0.0538
1373.00,0.0538
1372.00,0.0539
1371.00,0.0539
1370.00,0.0539
1369.00,0.0539
1368.00,0.0539
1367.00,0.0539
1366.00,0.0539
1365.00,0.0538
1364.00,0.0537
1363.00,0.0538
1362.00,0.0538
1361.00,0.0539
1360.00,0.0538
1359.00,0.0537
1358.00,0.0537
1357.00,0.0537
1356.00,0.0537
1355.00,0.0536
1354.00,0.0536
1353.00,0.0535
1352.00,0.0534
1351.00,0.0532
1350.00,0.0530
1349.00,0.0529
1348.00,0.0529
1347.00,0.0528
1346.00,0.0527
1345.00,0.0526
1344.00,0.0524
1343.00,0.0523
1342.00,0.0522
1341.00,0.0523
1340.00,0.0524
1339.00,0.0524
1338.00,0.0523
1337.00,0.0522
1336.00,0.0520
1335.00,0.0518
1334.00,0.0517
1333.00,0.0516
1332.00,0.0515
1331.00,0.0514
1330.00,0.0513
1329.00,0.0513
1328.00,0.0512
1327.00,0.0511
1326.00,0.0510
1325.00,0.0510
1324.00,0.0510
1323.00,0.0510
1322.00,0.0510
1321.00,0.0510
1320.00,0.0511
1319.00,0.0510
1318.00,0.0509
1317.00,0.0507
1316.00,0.0505
1315.00,0.0504
1314.00,0.0504
1313.00,0.0505
1312.00,0.0506
1311.00,0.0506
1310.00,0.0506
1309.00,0.0506
1308.00,0.0505
1307.00,0.0505
1306.00,0.0504
1305.00,0.0504
1304.00,0.0504
1303.00,0.0504
1302.00,0.0505
1301.00,0.0504
1300.00,0.0504
1299.00,0.0504
1298.00,0.0503
1297.00,0.0502
1296.00,0.0502
1295.00,0.0502
1294.00,0.0502
1293.00,0.0503
1292.00,0.0504
1291.00,0.0504
1290.00,0.0505
1289.00,0.0506
1288.00,0.0506
1287.00,0.0506
1286.00,0.0506
1285.00,0.0506
1284.00,0.0507
1283.00,0.0507
1282.00,0.0507
1281.00,0.0506
1280.00,0.0506
1279.00,0.0505
1278.00,0.0505
1277.00,0.0505
1276.00,0.0505
1275.00,0.0505
1274.00,0.0505
1273.00,0.0505
1272.00,0.0504
1271.00,0.0504
1270.00,0.0504
1269.00,0.0505
1268.00,0.0505
1267.00,0.0505
1266.00,0.0505
1265.00,0.0505
1264.00,0.0505
1263.00,0.0504
1262.00,0.0504
1261.00,0.0503
1260.00,0.0504
1259.00,0.0504
1258.00,0.0505
1257.00,0.0504
1256.00,0.0504
1255.00,0.0503
1254.00,0.0503
1253.00,0.0504
1252.00,0.0505
1251.00,0.0504
1250.00,0.0503
1249.00,0.0503
1248.00,0.0503
1247.00,0.0504
1246.00,0.0505
1245.00,0.0506
1244.00,0.0506
1243.00,0.0506
1242.00,0.0505
1241.00,0.0503
1240.00,0.0502
1239.00,0.0502
1238.00,0.0502
1237.00,0.0502
1236.00,0.0503
1235.00,0.0503
1234.00,0.0502
1233.00,0.0502
1232.00,0.0501
1231.00,0.0501
1230.00,0.0500
1229.00,0.0500
1228.00,0.0500
1227.00,0.0500
1226.00,0.0500
1225.00,0.0499
1224.00,0.0497
1223.00,0.0497
1222.00,0.0497
1221.00,0.0497
1220.00,0.0498
1219.00,0.0497
1218.00,0.0497
1217.00,0.0496
1216.00,0.0496
1215.00,0.0495
1214.00,0.0494
1213.00,0.0493
1212.00,0.0493
1211.00,0.0493
1210.00,0.0493
1209.00,0.0492
1208.00,0.0492
1207.00,0.0491
1206.00,0.0490
1205.00,0.0489
1204.00,0.0489
1203.00,0.0488
1202.00,0.0487
1201.00,0.0487
1200.00,0.0486
1199.00,0.0486
1198.00,0.0486
1197.00,0.0485
1196.00,0.0484
1195.00,0.0482
1194.00,0.0482
1193.00,0.0482
1192.00,0.0482
1191.00,0.0482
1190.00,0.0481
1189.00,0.0479
1188.00,0.0478
1187.00,0.0477
1186.00,0.0476
1185.00,0.0475
1184.00,0.0474
1183.00,0.0473
1182.00,0.0472
1181.00,0.0470
1180.00,0.0469
1179.00,0.0468
1178.00,0.0467
1177.00,0.0466
1176.00,0.0466
1175.00,0.0466
1174.00,0.0466
1173.00,0.0465
1172.00,0.0464
1171.00,0.0462
1170.00,0.0461
1169.00,0.0459
1168.00,0.0458
1167.00,0.0457
1166.00,0.0456
1165.00,0.0455
1164.00,0.0455
1163.00,0.0454
1162.00,0.0453
1161.00,0.0452
1160.00,0.0451
1159.00,0.0450
1158.00,0.0448
1157.00,0.0448
1156.00,0.0448
1155.00,0.0448
1154.00,0.0448
1153.00,0.0447
1152.00,0.0446
1151.00,0.0444
1150.00,0.0442
1149.00,0.0440
1148.00,0.0439
1147.00,0.0439
1146.00,0.0439
1145.00,0.0440
1144.00,0.0440
1143.00,0.0441
1142.00,0.0442
1141.00,0.0442
1140.00,0.0442
1139.00,0.0440
1138.00,0.0439
1137.00,0.0438
1136.00,0.0438
1135.00,0.0439
1134.00,0.0441
1133.00,0.0442
1132.00,0.0442
1131.00,0.0442
1130.00,0.0441
1129.00,0.0442
1128.00,0.0442
1127.00,0.0442
1126.00,0.0441
1125.00,0.0439
1124.00,0.0439
1123.00,0.0441
1122.00,0.0444
1121.00,0.0447
1120.00,0.0449
1119.00,0.0450
1118.00,0.0449
1117.00,0.0449
1116.00,0.0449
1115.00,0.0450
1114.00,0.0451
1113.00,0.0450
1112.00,0.0449
1111.00,0.0449
1110.00,0.0450
1109.00,0.0451
1108.00,0.0451
1107.00,0.0450
1106.00,0.0448
1105.00,0.0447
1104.00,0.0447
1103.00,0.0448
1102.00,0.0450
1101.00,0.0450
1100.00,0.0450
1099.00,0.0449
1098.00,0.0449
1097.00,0.0449
1096.00,0.0448
1095.00,0.0447
1094.00,0.0446
1093.00,0.0445
1092.00,0.0446
1091.00,0.0446
1090.00,0.0444
1089.00,0.0441
1088.00,0.0439
1087.00,0.0438
1086.00,0.0438
1085.00,0.0439
1084.00,0.0440
1083.00,0.0441
1082.00,0.0441
1081.00,0.0442
1080.00,0.0442
1079.00,0.0443
1078.00,0.0445
1077.00,0.0446
1076.00,0.0445
1075.00,0.0443
1074.00,0.0440
1073.00,0.0438
1072.00,0.0437
1071.00,0.0437
1070.00,0.0436
1069.00,0.0434
1068.00,0.0434
1067.00,0.0435
1066.00,0.0437
1065.00,0.0439
1064.00,0.0441
1063.00,0.0442
1062.00,0.0442
1061.00,0.0440
1060.00,0.0436
1059.00,0.0434
1058.00,0.0434
1057.00,0.0435
1056.00,0.0437
1055.00,0.0438
1054.00,0.0440
1053.00,0.0442
1052.00,0.0444
1051.00,0.0444
1050.00,0.0444
1049.00,0.0446
1048.00,0.0447
1047.00,0.0448
1046.00,0.0447
1045.00,0.0447
1044.00,0.0448
1043.00,0.0448
1042.00,0.0447
1041.00,0.0446
1040.00,0.0446
1039.00,0.0447
1038.00,0.0448
1037.00,0.0448
1036.00,0.0449
1035.00,0.0449
1034.00,0.0448
1033.00,0.0448
1032.00,0.0448
1031.00,0.0447
1030.00,0.0445
1029.00,0.0443
1028.00,0.0442
1027.00,0.0442
1026.00,0.0442
1025.00,0.0442
1024.00,0.0442
1023.00,0.0441
1022.00,0.0439
1021.00,0.0438
1020.00,0.0437
1019.00,0.0436
1018.00,0.0435
1017.00,0.0435
1016.00,0.0436
1015.00,0.0437
1014.00,0.0438
1013.00,0.0439
1012.00,0.0439
1011.00,0.0439
1010.00,0.0439
1009.00,0.0439
1008.00,0.0439
1007.00,0.0437
1006.00,0.0435
1005.00,0.0435
1004.00,0.0434
1003.00,0.0434
1002.00,0.0434
1001.00,0.0432
1000.00,0.0430
999.00,0.0427
998.00,0.0424
997.00,0.0423
996.00,0.0423
995.00,0.0424
994.00,0.0423
993.00,0.0421
992.00,0.0419
991.00,0.0417
990.00,0.0417
989.00,0.0416
988.00,0.0416
987.00,0.0417
986.00,0.0418
985.00,0.0418
984.00,0.0417
983.00,0.0415
982.00,0.0413
981.00,0.0413
980.00,0.0413
979.00,0.0412
978.00,0.0410
977.00,0.0408
976.00,0.0406
975.00,0.0404
974.00,0.0404
973.00,0.0404
972.00,0.0404
971.00,0.0403
970.00,0.0401
969.00,0.0400
968.00,0.0399
967.00,0.0398
966.00,0.0397
965.00,0.0395
964.00,0.0394
963.00,0.0394
962.00,0.0394
961.00,0.0395
960.00,0.0394
959.00,0.0393
958.00,0.0392
957.00,0.0392
956.00,0.0391
955.00,0.0391
954.00,0.0390
953.00,0.0390
952.00,0.0390
951.00,0.0390
950.00,0.0391
949.00,0.0392
948.00,0.0392
947.00,0.0391
946.00,0.0391
945.00,0.0390
944.00,0.0390
943.00,0.0390
942.00,0.0389
941.00,0.0390
940.00,0.0392
939.00,0.0394
938.00,0.0396
937.00,0.0396
936.00,0.0395
935.00,0.0394
934.00,0.0394
933.00,0.0397
932.00,0.0400
931.00,0.0404
930.00,0.0405
929.00,0.0406
928.00,0.0407
927.00,0.0408
926.00,0.0408
925.00,0.0408
924.00,0.0409
923.00,0.0409
922.00,0.0410
921.00,0.0410
920.00,0.0410
919.00,0.0410
918.00,0.0411
917.00,0.0413
916.00,0.0415
915.00,0.0417
914.00,0.0418
913.00,0.0418
912.00,0.0418
911.00,0.0418
910.00,0.0417
909.00,0.0415
908.00,0.0413
907.00,0.0412
906.00,0.0414
905.00,0.0417
904.00,0.0421
903.00,0.0425
902.00,0.0427
901.00,0.0426
900.00,0.0424
899.00,0.0423
898.00,0.0424
897.00,0.0425
896.00,0.0426
895.00,0.0426
894.00,0.0426
893.00,0.0425
892.00,0.0423
891.00,0.0422
890.00,0.0422
889.00,0.0423
888.00,0.0424
887.00,0.0424
886.00,0.0422
885.00,0.0420
884.00,0.0421
883.00,0.0423
882.00,0.0425
881.00,0.0425
880.00,0.0424
879.00,0.0422
878.00,0.0421
877.00,0.0420
876.00,0.0419
875.00,0.0418
874.00,0.0418
873.00,0.0419
872.00,0.0419
871.00,0.0420
870.00,0.0421
869.00,0.0421
868.00,0.0421
867.00,0.0420
866.00,0.0421
865.00,0.0422
864.00,0.0422
863.00,0.0423
862.00,0.0424
861.00,0.0425
860.00,0.0427
859.00,0.0426
858.00,0.0425
857.00,0.0423
856.00,0.0423
855.00,0.0425
854.00,0.0428
853.00,0.0429
852.00,0.0429
851.00,0.0429
850.00,0.0430
849.00,0.0432
848.00,0.0434
847.00,0.0437
846.00,0.0440
845.00,0.0444
844.00,0.0446
843.00,0.0446
842.00,0.0445
841.00,0.0445
840.00,0.0445
839.00,0.0444
838.00,0.0445
837.00,0.0446
836.00,0.0448
835.00,0.0449
834.00,0.0450
833.00,0.0451
832.00,0.0452
831.00,0.0453
830.00,0.0453
829.00,0.0453
828.00,0.0454
827.00,0.0456
826.00,0.0460
825.00,0.0464
824.00,0.0467
823.00,0.0468
822.00,0.0468
821.00,0.0468
820.00,0.0469
819.00,0.0471
818.00,0.0473
817.00,0.0472
816.00,0.0469
815.00,0.0468
814.00,0.0468
813.00,0.0471
812.00,0.0474
811.00,0.0477
810.00,0.0478
809.00,0.0479
808.00,0.0479
807.00,0.0477
806.00,0.0476
805.00,0.0477
804.00,0.0478
803.00,0.0480
802.00,0.0482
801.00,0.0484
800.00,0.0487
799.00,0.0489
798.00,0.0489
797.00,0.0489
796.00,0.0490
795.00,0.0491
794.00,0.0492
793.00,0.0492
792.00,0.0493
791.00,0.0495
790.00,0.0496
789.00,0.0497
788.00,0.0496
787.00,0.0496
786.00,0.0497
785.00,0.0501
784.00,0.0504
783.00,0.0506
782.00,0.0508
781.00,0.0508
780.00,0.0507
779.00,0.0506
778.00,0.0506
777.00,0.0509
776.00,0.0512
775.00,0.0515
774.00,0.0515
773.00,0.0513
772.00,0.0512
771.00,0.0511
770.00,0.0513
769.00,0.0515
768.00,0.0517
767.00,0.0516
766.00,0.0515
765.00,0.0514
764.00,0.0514
763.00,0.0514
762.00,0.0514
761.00,0.0513
760.00,0.0513
759.00,0.0514
758.00,0.0517
757.00,0.0520
756.00,0.0522
755.00,0.0523
754.00,0.0524
753.00,0.0526
752.00,0.0528
751.00,0.0529
750.00,0.0529
749.00,0.0530
748.00,0.0531
747.00,0.0532
746.00,0.0533
745.00,0.0533
744.00,0.0533
743.00,0.0534
742.00,0.0535
741.00,0.0535
740.00,0.0532
739.00,0.0530
738.00,0.0528
737.00,0.0527
736.00,0.0527
735.00,0.0526
734.00,0.0526
733.00,0.0527
732.00,0.0527
731.00,0.0528
730.00,0.0530
729.00,0.0533
728.00,0.0538
727.00,0.0542
726.00,0.0545
725.00,0.0546
724.00,0.0547
723.00,0.0548
722.00,0.0548
721.00,0.0548
720.00,0.0548
719.00,0.0547
718.00,0.0547
717.00,0.0547
716.00,0.0548
715.00,0.0548
714.00,0.0548
713.00,0.0550
712.00,0.0552
711.00,0.0554
710.00,0.0554
709.00,0.0553
708.00,0.0554
707.00,0.0555
706.00,0.0556
705.00,0.0557
704.00,0.0560
703.00,0.0563
702.00,0.0565
701.00,0.0565
700.00,0.0563
699.00,0.0561
698.00,0.0559
697.00,0.0558
696.00,0.0558
695.00,0.0559
694.00,0.0562
693.00,0.0565
692.00,0.0569
691.00,0.0572
690.00,0.0577
689.00,0.0580
688.00,0.0580
687.00,0.0575
686.00,0.0571
685.00,0.0569
684.00,0.0570
683.00,0.0571
682.00,0.0572
681.00,0.0574
680.00,0.0577
679.00,0.0579
678.00,0.0580
677.00,0.0581
676.00,0.0583
675.00,0.0582
674.00,0.0580
673.00,0.0579
672.00,0.0581
671.00,0.0583
670.00,0.0585
669.00,0.0588
668.00,0.0591
667.00,0.0592
666.00,0.0594
665.00,0.0595
664.00,0.0598
663.00,0.0599
662.00,0.0597
661.00,0.0593
660.00,0.0587
659.00,0.0585
658.00,0.0587
657.00,0.0592
656.00,0.0597
655.00,0.0598
654.00,0.0595
653.00,0.0589
652.00,0.0585
651.00,0.0582
650.00,0.0583
