Created as New Dataset,Monday, April 03 2023
cm-1,A
4000.00,0.0212
3999.00,0.0212
3998.00,0.0212
3997.00,0.0212
3996.00,0.0212
3995.00,0.0212
3994.00,0.0211
3993.00,0.0211
3992.00,0.0211
3991.00,0.0211
3990.00,0.0211
3989.00,0.0211
3988.00,0.0210
3987.00,0.0210
3986.00,0.0209
3985.00,0.0210
3984.00,0.0210
3983.00,0.0211
3982.00,0.0211
3981.00,0.0211
3980.00,0.0210
3979.00,0.0210
3978.00,0.0210
3977.00,0.0210
3976.00,0.0210
3975.00,0.0210
3974.00,0.0210
3973.00,0.0210
3972.00,0.0210
3971.00,0.0211
3970.00,0.0211
3969.00,0.0211
3968.00,0.0210
3967.00,0.0209
3966.00,0.0209
3965.00,0.0209
3964.00,0.0209
3963.00,0.0210
3962.00,0.0211
3961.00,0.0211
3960.00,0.0211
3959.00,0.0210
3958.00,0.0209
3957.00,0.0209
3956.00,0.0209
3955.00,0.0208
3954.00,0.0208
3953.00,0.0209
3952.00,0.0209
3951.00,0.0210
3950.00,0.0211
3949.00,0.0211
3948.00,0.0212
3947.00,0.0212
3946.00,0.0212
3945.00,0.0211
3944.00,0.0210
3943.00,0.0209
3942.00,0.0208
3941.00,0.0208
3940.00,0.0208
3939.00,0.0208
3938.00,0.0208
3937.00,0.0208
3936.00,0.0208
3935.00,0.0209
3934.00,0.0209
3933.00,0.0208
3932.00,0.0208
3931.00,0.0209
3930.00,0.0209
3929.00,0.0210
3928.00,0.0210
3927.00,0.0210
3926.00,0.0210
3925.00,0.0209
3924.00,0.0209
3923.00,0.0210
3922.00,0.0210
3921.00,0.0210
3920.00,0.0210
3919.00,0.0210
3918.00,0.0210
3917.00,0.0209
3916.00,0.0209
3915.00,0.0208
3914.00,0.0207
3913.00,0.0206
3912.00,0.0205
3911.00,0.0205
3910.00,0.0206
3909.00,0.0207
3908.00,0.0208
3907.00,0.0209
3906.00,0.0210
3905.00,0.0210
3904.00,0.0211
3903.00,0.0213
3902.00,0.0214
3901.00,0.0214
3900.00,0.0213
3899.00,0.0211
3898.00,0.0210
3897.00,0.0209
3896.00,0.0208
3895.00,0.0207
3894.00,0.0207
3893.00,0.0206
3892.00,0.0206
3891.00,0.0206
3890.00,0.0206
3889.00,0.0208
3888.00,0.0208
3887.00,0.0207
3886.00,0.0205
3885.00,0.0206
3884.00,0.0208
3883.00,0.0209
3882.00,0.0208
3881.00,0.0206
3880.00,0.0204
3879.00,0.0205
3878.00,0.0207
3877.00,0.0208
3876.00,0.0208
3875.00,0.0207
3874.00,0.0207
3873.00,0.0208
3872.00,0.0209
3871.00,0.0209
3870.00,0.0208
3869.00,0.0207
3868.00,0.0208
3867.00,0.0208
3866.00,0.0207
3865.00,0.0206
3864.00,0.0207
3863.00,0.0207
3862.00,0.0208
3861.00,0.0207
3860.00,0.0207
3859.00,0.0206
3858.00,0.0207
3857.00,0.0208
3856.00,0.0208
3855.00,0.0206
3854.00,0.0205
3853.00,0.0207
3852.00,0.0208
3851.00,0.0207
3850.00,0.0206
3849.00,0.0203
3848.00,0.0202
3847.00,0.0201
3846.00,0.0201
3845.00,0.0201
3844.00,0.0202
3843.00,0.0203
3842.00,0.0205
3841.00,0.0207
3840.00,0.0208
3839.00,0.0208
3838.00,0.0207
3837.00,0.0206
3836.00,0.0205
3835.00,0.0205
3834.00,0.0205
3833.00,0.0204
3832.00,0.0203
3831.00,0.0202
3830.00,0.0202
3829.00,0.0202
3828.00,0.0201
3827.00,0.0200
3826.00,0.0200
3825.00,0.0202
3824.00,0.0204
3823.00,0.0205
3822.00,0.0203
3821.00,0.0203
3820.00,0.0203
3819.00,0.0205
3818.00,0.0205
3817.00,0.0202
3816.00,0.0200
3815.00,0.0200
3814.00,0.0201
3813.00,0.0201
3812.00,0.0199
3811.00,0.0198
3810.00,0.0197
3809.00,0.0197
3808.00,0.0197
3807.00,0.0198
3806.00,0.0200
3805.00,0.0203
3804.00,0.0205
3803.00,0.0204
3802.00,0.0203
3801.00,0.0202
3800.00,0.0203
3799.00,0.0203
3798.00,0.0201
3797.00,0.0198
3796.00,0.0197
3795.00,0.0196
3794.00,0.0197
3793.00,0.0196
3792.00,0.0196
3791.00,0.0195
3790.00,0.0195
3789.00,0.0196
3788.00,0.0197
3787.00,0.0197
3786.00,0.0198
3785.00,0.0198
3784.00,0.0198
3783.00,0.0198
3782.00,0.0198
3781.00,0.0196
3780.00,0.0195
3779.00,0.0194
3778.00,0.0194
3777.00,0.0195
3776.00,0.0195
3775.00,0.0195
3774.00,0.0195
3773.00,0.0195
3772.00,0.0196
3771.00,0.0195
3770.00,0.0195
3769.00,0.0195
3768.00,0.0195
3767.00,0.0195
3766.00,0.0194
3765.00,0.0194
3764.00,0.0195
3763.00,0.0196
3762.00,0.0197
3761.00,0.0197
3760.00,0.0196
3759.00,0.0196
3758.00,0.0197
3757.00,0.0197
3756.00,0.0197
3755.00,0.0198
3754.00,0.0198
3753.00,0.0197
3752.00,0.0196
3751.00,0.0198
3750.00,0.0200
3749.00,0.0202
3748.00,0.0204
3747.00,0.0206
3746.00,0.0205
3745.00,0.0201
3744.00,0.0199
3743.00,0.0198
3742.00,0.0198
3741.00,0.0198
3740.00,0.0198
3739.00,0.0199
3738.00,0.0201
3737.00,0.0201
3736.00,0.0201
3735.00,0.0201
3734.00,0.0200
3733.00,0.0198
3732.00,0.0196
3731.00,0.0194
3730.00,0.0194
3729.00,0.0194
3728.00,0.0194
3727.00,0.0194
3726.00,0.0194
3725.00,0.0194
3724.00,0.0194
3723.00,0.0193
3722.00,0.0192
3721.00,0.0192
3720.00,0.0193
3719.00,0.0193
3718.00,0.0193
3717.00,0.0193
3716.00,0.0193
3715.00,0.0194
3714.00,0.0195
3713.00,0.0196
3712.00,0.0197
3711.00,0.0198
3710.00,0.0198
3709.00,0.0197
3708.00,0.0197
3707.00,0.0197
3706.00,0.0198
3705.00,0.0200
3704.00,0.0200
3703.00,0.0199
3702.00,0.0199
3701.00,0.0199
3700.00,0.0200
3699.00,0.0200
3698.00,0.0200
3697.00,0.0199
3696.00,0.0198
3695.00,0.0198
3694.00,0.0198
3693.00,0.0199
3692.00,0.0200
3691.00,0.0202
3690.00,0.0203
3689.00,0.0204
3688.00,0.0202
3687.00,0.0201
3686.00,0.0199
3685.00,0.0197
3684.00,0.0195
3683.00,0.0194
3682.00,0.0194
3681.00,0.0194
3680.00,0.0195
3679.00,0.0196
3678.00,0.0197
3677.00,0.0196
3676.00,0.0196
3675.00,0.0197
3674.00,0.0200
3673.00,0.0202
3672.00,0.0202
3671.00,0.0202
3670.00,0.0202
3669.00,0.0204
3668.00,0.0204
3667.00,0.0204
3666.00,0.0203
3665.00,0.0203
3664.00,0.0203
3663.00,0.0204
3662.00,0.0205
3661.00,0.0208
3660.00,0.0210
3659.00,0.0213
3658.00,0.0215
3657.00,0.0217
3656.00,0.0219
3655.00,0.0222
3654.00,0.0225
3653.00,0.0228
3652.00,0.0230
3651.00,0.0232
3650.00,0.0235
3649.00,0.0239
3648.00,0.0242
3647.00,0.0242
3646.00,0.0240
3645.00,0.0239
3644.00,0.0238
3643.00,0.0238
3642.00,0.0238
3641.00,0.0238
3640.00,0.0240
3639.00,0.0241
3638.00,0.0242
3637.00,0.0244
3636.00,0.0246
3635.00,0.0248
3634.00,0.0250
3633.00,0.0252
3632.00,0.0254
3631.00,0.0256
3630.00,0.0258
3629.00,0.0262
3628.00,0.0266
3627.00,0.0268
3626.00,0.0267
3625.00,0.0266
3624.00,0.0266
3623.00,0.0267
3622.00,0.0270
3621.00,0.0273
3620.00,0.0276
3619.00,0.0279
3618.00,0.0281
3617.00,0.0281
3616.00,0.0281
3615.00,0.0280
3614.00,0.0280
3613.00,0.0280
3612.00,0.0281
3611.00,0.0282
3610.00,0.0284
3609.00,0.0285
3608.00,0.0287
3607.00,0.0288
3606.00,0.0287
3605.00,0.0286
3604.00,0.0285
3603.00,0.0285
3602.00,0.0286
3601.00,0.0289
3600.00,0.0291
3599.00,0.0291
3598.00,0.0292
3597.00,0.0292
3596.00,0.0292
3595.00,0.0293
3594.00,0.0294
3593.00,0.0295
3592.00,0.0295
3591.00,0.0296
3590.00,0.0297
3589.00,0.0298
3588.00,0.0300
3587.00,0.0303
3586.00,0.0305
3585.00,0.0306
3584.00,0.0305
3583.00,0.0304
3582.00,0.0304
3581.00,0.0303
3580.00,0.0304
3579.00,0.0304
3578.00,0.0305
3577.00,0.0306
3576.00,0.0307
3575.00,0.0308
3574.00,0.0309
3573.00,0.0310
3572.00,0.0311
3571.00,0.0311
3570.00,0.0312
3569.00,0.0314
3568.00,0.0318
3567.00,0.0322
3566.00,0.0325
3565.00,0.0325
3564.00,0.0323
3563.00,0.0321
3562.00,0.0321
3561.00,0.0321
3560.00,0.0322
3559.00,0.0323
3558.00,0.0323
3557.00,0.0324
3556.00,0.0325
3555.00,0.0326
3554.00,0.0328
3553.00,0.0329
3552.00,0.0331
3551.00,0.0333
3550.00,0.0334
3549.00,0.0335
3548.00,0.0336
3547.00,0.0338
3546.00,0.0339
3545.00,0.0341
3544.00,0.0341
3543.00,0.0342
3542.00,0.0341
3541.00,0.0340
3540.00,0.0340
3539.00,0.0339
3538.00,0.0339
3537.00,0.0339
3536.00,0.0341
3535.00,0.0342
3534.00,0.0344
3533.00,0.0346
3532.00,0.0347
3531.00,0.0348
3530.00,0.0349
3529.00,0.0349
3528.00,0.0349
3527.00,0.0350
3526.00,0.0352
3525.00,0.0354
3524.00,0.0357
3523.00,0.0358
3522.00,0.0358
3521.00,0.0358
3520.00,0.0357
3519.00,0.0356
3518.00,0.0355
3517.00,0.0355
3516.00,0.0356
3515.00,0.0356
3514.00,0.0358
3513.00,0.0359
3512.00,0.0361
3511.00,0.0363
3510.00,0.0364
3509.00,0.0364
3508.00,0.0365
3507.00,0.0365
3506.00,0.0365
3505.00,0.0366
3504.00,0.0368
3503.00,0.0371
3502.00,0.0372
3501.00,0.0373
3500.00,0.0373
3499.00,0.0373
3498.00,0.0373
3497.00,0.0374
3496.00,0.0374
3495.00,0.0375
3494.00,0.0375
3493.00,0.0375
3492.00,0.0375
3491.00,0.0376
3490.00,0.0376
3489.00,0.0376
3488.00,0.0377
3487.00,0.0378
3486.00,0.0379
3485.00,0.0379
3484.00,0.0380
3483.00,0.0381
3482.00,0.0382
3481.00,0.0382
3480.00,0.0383
3479.00,0.0383
3478.00,0.0383
3477.00,0.0384
3476.00,0.0385
3475.00,0.0386
3474.00,0.0387
3473.00,0.0388
3472.00,0.0389
3471.00,0.0390
3470.00,0.0391
3469.00,0.0391
3468.00,0.0391
3467.00,0.0392
3466.00,0.0392
3465.00,0.0393
3464.00,0.0394
3463.00,0.0393
3462.00,0.0393
3461.00,0.0394
3460.00,0.0395
3459.00,0.0396
3458.00,0.0398
3457.00,0.0398
3456.00,0.0397
3455.00,0.0397
3454.00,0.0397
3453.00,0.0397
3452.00,0.0399
3451.00,0.0400
3450.00,0.0400
3449.00,0.0401
3448.00,0.0402
3447.00,0.0403
3446.00,0.0404
3445.00,0.0404
3444.00,0.0405
3443.00,0.0405
3442.00,0.0405
3441.00,0.0405
3440.00,0.0404
3439.00,0.0404
3438.00,0.0404
3437.00,0.0405
3436.00,0.0406
3435.00,0.0406
3434.00,0.0406
3433.00,0.0406
3432.00,0.0407
3431.00,0.0407
3430.00,0.0408
3429.00,0.0408
3428.00,0.0408
3427.00,0.0408
3426.00,0.0409
3425.00,0.0411
3424.00,0.0412
3423.00,0.0414
3422.00,0.0415
3421.00,0.0415
3420.00,0.0416
3419.00,0.0416
3418.00,0.0417
3417.00,0.0417
3416.00,0.0416
3415.00,0.0415
3414.00,0.0415
3413.00,0.0416
3412.00,0.0416
3411.00,0.0417
3410.00,0.0418
3409.00,0.0419
3408.00,0.0419
3407.00,0.0420
3406.00,0.0420
3405.00,0.0420
3404.00,0.0420
3403.00,0.0420
3402.00,0.0420
3401.00,0.0421
3400.00,0.0421
3399.00,0.0422
3398.00,0.0422
3397.00,0.0422
3396.00,0.0422
3395.00,0.0422
3394.00,0.0422
3393.00,0.0422
3392.00,0.0422
3391.00,0.0423
3390.00,0.0424
3389.00,0.0424
3388.00,0.0424
3387.00,0.0424
3386.00,0.0424
3385.00,0.0424
3384.00,0.0425
3383.00,0.0426
3382.00,0.0426
3381.00,0.0427
3380.00,0.0427
3379.00,0.0427
3378.00,0.0427
3377.00,0.0427
3376.00,0.0427
3375.00,0.0427
3374.00,0.0427
3373.00,0.0427
3372.00,0.0426
3371.00,0.0426
3370.00,0.0426
3369.00,0.0427
3368.00,0.0427
3367.00,0.0427
3366.00,0.0427
3365.00,0.0427
3364.00,0.0427
3363.00,0.0428
3362.00,0.0429
3361.00,0.0430
3360.00,0.0431
3359.00,0.0431
3358.00,0.0431
3357.00,0.0430
3356.00,0.0429
3355.00,0.0429
3354.00,0.0429
3353.00,0.0429
3352.00,0.0430
3351.00,0.0430
3350.00,0.0431
3349.00,0.0431
3348.00,0.0430
3347.00,0.0430
3346.00,0.0429
3345.00,0.0429
3344.00,0.0428
3343.00,0.0428
3342.00,0.0428
3341.00,0.0429
3340.00,0.0429
3339.00,0.0429
3338.00,0.0429
3337.00,0.0429
3336.00,0.0429
3335.00,0.0429
3334.00,0.0429
3333.00,0.0429
3332.00,0.0429
3331.00,0.0429
3330.00,0.0428
3329.00,0.0427
3328.00,0.0427
3327.00,0.0427
3326.00,0.0428
3325.00,0.0429
3324.00,0.0430
3323.00,0.0430
3322.00,0.0430
3321.00,0.0429
3320.00,0.0429
3319.00,0.0429
3318.00,0.0429
3317.00,0.0428
3316.00,0.0428
3315.00,0.0427
3314.00,0.0427
3313.00,0.0427
3312.00,0.0427
3311.00,0.0427
3310.00,0.0428
3309.00,0.0429
3308.00,0.0429
3307.00,0.0430
3306.00,0.0429
3305.00,0.0428
3304.00,0.0427
3303.00,0.0427
3302.00,0.0427
3301.00,0.0427
3300.00,0.0427
3299.00,0.0427
3298.00,0.0427
3297.00,0.0428
3296.00,0.0428
3295.00,0.0429
3294.00,0.0429
3293.00,0.0429
3292.00,0.0428
3291.00,0.0427
3290.00,0.0427
3289.00,0.0427
3288.00,0.0427
3287.00,0.0428
3286.00,0.0428
3285.00,0.0429
3284.00,0.0429
3283.00,0.0429
3282.00,0.0429
3281.00,0.0429
3280.00,0.0428
3279.00,0.0428
3278.00,0.0428
3277.00,0.0428
3276.00,0.0428
3275.00,0.0428
3274.00,0.0429
3273.00,0.0429
3272.00,0.0429
3271.00,0.0430
3270.00,0.0430
3269.00,0.0430
3268.00,0.0430
3267.00,0.0430
3266.00,0.0429
3265.00,0.0429
3264.00,0.0428
3263.00,0.0428
3262.00,0.0428
3261.00,0.0428
3260.00,0.0429
3259.00,0.0429
3258.00,0.0429
3257.00,0.0428
3256.00,0.0428
3255.00,0.0428
3254.00,0.0428
3253.00,0.0429
3252.00,0.0429
3251.00,0.0429
3250.00,0.0429
3249.00,0.0429
3248.00,0.0428
3247.00,0.0428
3246.00,0.0428
3245.00,0.0429
3244.00,0.0429
3243.00,0.0429
3242.00,0.0429
3241.00,0.0429
3240.00,0.0429
3239.00,0.0429
3238.00,0.0429
3237.00,0.0430
3236.00,0.0431
3235.00,0.0432
3234.00,0.0432
3233.00,0.0432
3232.00,0.0431
3231.00,0.0431
3230.00,0.0431
3229.00,0.0430
3228.00,0.0430
3227.00,0.0430
3226.00,0.0430
3225.00,0.0430
3224.00,0.0429
3223.00,0.0429
3222.00,0.0429
3221.00,0.0429
3220.00,0.0429
3219.00,0.0428
3218.00,0.0428
3217.00,0.0429
3216.00,0.0430
3215.00,0.0431
3214.00,0.0431
3213.00,0.0430
3212.00,0.0429
3211.00,0.0428
3210.00,0.0428
3209.00,0.0428
3208.00,0.0428
3207.00,0.0428
3206.00,0.0429
3205.00,0.0430
3204.00,0.0430
3203.00,0.0430
3202.00,0.0430
3201.00,0.0429
3200.00,0.0429
3199.00,0.0429
3198.00,0.0430
3197.00,0.0430
3196.00,0.0429
3195.00,0.0429
3194.00,0.0429
3193.00,0.0428
3192.00,0.0428
3191.00,0.0427
3190.00,0.0426
3189.00,0.0426
3188.00,0.0425
3187.00,0.0425
3186.00,0.0425
3185.00,0.0425
3184.00,0.0426
3183.00,0.0426
3182.00,0.0426
3181.00,0.0426
3180.00,0.0426
3179.00,0.0425
3178.00,0.0425
3177.00,0.0424
3176.00,0.0423
3175.00,0.0422
3174.00,0.0422
3173.00,0.0422
3172.00,0.0423
3171.00,0.0423
3170.00,0.0423
3169.00,0.0423
3168.00,0.0422
3167.00,0.0423
3166.00,0.0423
3165.00,0.0424
3164.00,0.0424
3163.00,0.0424
3162.00,0.0424
3161.00,0.0422
3160.00,0.0421
3159.00,0.0419
3158.00,0.0418
3157.00,0.0418
3156.00,0.0418
3155.00,0.0419
3154.00,0.0419
3153.00,0.0420
3152.00,0.0419
3151.00,0.0419
3150.00,0.0418
3149.00,0.0418
3148.00,0.0418
3147.00,0.0418
3146.00,0.0418
3145.00,0.0418
3144.00,0.0418
3143.00,0.0417
3142.00,0.0417
3141.00,0.0417
3140.00,0.0416
3139.00,0.0416
3138.00,0.0416
3137.00,0.0416
3136.00,0.0416
3135.00,0.0415
3134.00,0.0415
3133.00,0.0415
3132.00,0.0415
3131.00,0.0415
3130.00,0.0415
3129.00,0.0414
3128.00,0.0414
3127.00,0.0413
3126.00,0.0413
3125.00,0.0413
3124.00,0.0413
3123.00,0.0413
3122.00,0.0412
3121.00,0.0412
3120.00,0.0412
3119.00,0.0412
3118.00,0.0412
3117.00,0.0412
3116.00,0.0411
3115.00,0.0411
3114.00,0.0411
3113.00,0.0411
3112.00,0.0411
3111.00,0.0410
3110.00,0.0410
3109.00,0.0409
3108.00,0.0409
3107.00,0.0410
3106.00,0.0410
3105.00,0.0410
3104.00,0.0410
3103.00,0.0409
3102.00,0.0409
3101.00,0.0408
3100.00,0.0407
3099.00,0.0407
3098.00,0.0406
3097.00,0.0406
3096.00,0.0407
3095.00,0.0408
3094.00,0.0408
3093.00,0.0409
3092.00,0.0408
3091.00,0.0408
3090.00,0.0407
3089.00,0.0405
3088.00,0.0405
3087.00,0.0404
3086.00,0.0405
3085.00,0.0405
3084.00,0.0405
3083.00,0.0405
3082.00,0.0404
3081.00,0.0404
3080.00,0.0404
3079.00,0.0404
3078.00,0.0404
3077.00,0.0403
3076.00,0.0403
3075.00,0.0403
3074.00,0.0403
3073.00,0.0403
3072.00,0.0403
3071.00,0.0403
3070.00,0.0402
3069.00,0.0402
3068.00,0.0402
3067.00,0.0402
3066.00,0.0401
3065.00,0.0400
3064.00,0.0400
3063.00,0.0399
3062.00,0.0399
3061.00,0.0399
3060.00,0.0399
3059.00,0.0398
3058.00,0.0398
3057.00,0.0398
3056.00,0.0398
3055.00,0.0397
3054.00,0.0396
3053.00,0.0396
3052.00,0.0395
3051.00,0.0395
3050.00,0.0396
3049.00,0.0396
3048.00,0.0396
3047.00,0.0396
3046.00,0.0395
3045.00,0.0395
3044.00,0.0394
3043.00,0.0392
3042.00,0.0391
3041.00,0.0390
3040.00,0.0390
3039.00,0.0390
3038.00,0.0390
3037.00,0.0390
3036.00,0.0390
3035.00,0.0390
3034.00,0.0390
3033.00,0.0389
3032.00,0.0389
3031.00,0.0388
3030.00,0.0388
3029.00,0.0387
3028.00,0.0386
3027.00,0.0386
3026.00,0.0385
3025.00,0.0385
3024.00,0.0385
3023.00,0.0385
3022.00,0.0385
3021.00,0.0384
3020.00,0.0384
3019.00,0.0383
3018.00,0.0382
3017.00,0.0381
3016.00,0.0381
3015.00,0.0381
3014.00,0.0380
3013.00,0.0380
3012.00,0.0379
3011.00,0.0379
3010.00,0.0378
3009.00,0.0377
3008.00,0.0375
3007.00,0.0373
3006.00,0.0372
3005.00,0.0372
3004.00,0.0371
3003.00,0.0370
3002.00,0.0368
3001.00,0.0367
3000.00,0.0365
2999.00,0.0364
2998.00,0.0363
2997.00,0.0362
2996.00,0.0361
2995.00,0.0361
2994.00,0.0360
2993.00,0.0359
2992.00,0.0358
2991.00,0.0357
2990.00,0.0357
2989.00,0.0356
2988.00,0.0356
2987.00,0.0355
2986.00,0.0353
2985.00,0.0350
2984.00,0.0347
2983.00,0.0344
2982.00,0.0344
2981.00,0.0344
2980.00,0.0346
2979.00,0.0348
2978.00,0.0350
2977.00,0.0352
2976.00,0.0354
2975.00,0.0355
2974.00,0.0355
2973.00,0.0355
2972.00,0.0355
2971.00,0.0357
2970.00,0.0359
2969.00,0.0361
2968.00,0.0364
2967.00,0.0366
2966.00,0.0367
2965.00,0.0369
2964.00,0.0370
2963.00,0.0372
2962.00,0.0374
2961.00,0.0376
2960.00,0.0377
2959.00,0.0377
2958.00,0.0378
2957.00,0.0379
2956.00,0.0380
2955.00,0.0381
2954.00,0.0382
2953.00,0.0383
2952.00,0.0384
2951.00,0.0385
2950.00,0.0385
2949.00,0.0386
2948.00,0.0387
2947.00,0.0387
2946.00,0.0388
2945.00,0.0390
2944.00,0.0392
2943.00,0.0394
2942.00,0.0396
2941.00,0.0398
2940.00,0.0400
2939.00,0.0402
2938.00,0.0404
2937.00,0.0406
2936.00,0.0409
2935.00,0.0411
2934.00,0.0414
2933.00,0.0416
2932.00,0.0419
2931.00,0.0421
2930.00,0.0424
2929.00,0.0426
2928.00,0.0428
2927.00,0.0430
2926.00,0.0431
2925.00,0.0432
2924.00,0.0432
2923.00,0.0431
2922.00,0.0431
2921.00,0.0429
2920.00,0.0427
2919.00,0.0425
2918.00,0.0422
2917.00,0.0419
2916.00,0.0415
2915.00,0.0412
2914.00,0.0409
2913.00,0.0407
2912.00,0.0405
2911.00,0.0403
2910.00,0.0401
2909.00,0.0399
2908.00,0.0397
2907.00,0.0396
2906.00,0.0394
2905.00,0.0392
2904.00,0.0390
2903.00,0.0388
2902.00,0.0387
2901.00,0.0385
2900.00,0.0384
2899.00,0.0383
2898.00,0.0381
2897.00,0.0380
2896.00,0.0379
2895.00,0.0378
2894.00,0.0377
2893.00,0.0376
2892.00,0.0375
2891.00,0.0374
2890.00,0.0373
2889.00,0.0372
2888.00,0.0371
2887.00,0.0370
2886.00,0.0370
2885.00,0.0368
2884.00,0.0367
2883.00,0.0367
2882.00,0.0367
2881.00,0.0367
2880.00,0.0367
2879.00,0.0368
2878.00,0.0368
2877.00,0.0368
2876.00,0.0369
2875.00,0.0370
2874.00,0.0370
2873.00,0.0370
2872.00,0.0370
2871.00,0.0370
2870.00,0.0370
2869.00,0.0370
2868.00,0.0370
2867.00,0.0371
2866.00,0.0371
2865.00,0.0372
2864.00,0.0373
2863.00,0.0374
2862.00,0.0376
2861.00,0.0378
2860.00,0.0380
2859.00,0.0383
2858.00,0.0386
2857.00,0.0389
2856.00,0.0391
2855.00,0.0391
2854.00,0.0392
2853.00,0.0391
2852.00,0.0390
2851.00,0.0390
2850.00,0.0388
2849.00,0.0386
2848.00,0.0383
2847.00,0.0380
2846.00,0.0376
2845.00,0.0373
2844.00,0.0371
2843.00,0.0368
2842.00,0.0366
2841.00,0.0364
2840.00,0.0362
2839.00,0.0360
2838.00,0.0358
2837.00,0.0357
2836.00,0.0357
2835.00,0.0356
2834.00,0.0356
2833.00,0.0355
2832.00,0.0354
2831.00,0.0352
2830.00,0.0351
2829.00,0.0350
2828.00,0.0350
2827.00,0.0350
2826.00,0.0349
2825.00,0.0348
2824.00,0.0348
2823.00,0.0347
2822.00,0.0347
2821.00,0.0346
2820.00,0.0345
2819.00,0.0344
2818.00,0.0343
2817.00,0.0342
2816.00,0.0342
2815.00,0.0341
2814.00,0.0341
2813.00,0.0340
2812.00,0.0340
2811.00,0.0340
2810.00,0.0340
2809.00,0.0339
2808.00,0.0339
2807.00,0.0338
2806.00,0.0338
2805.00,0.0338
2804.00,0.0337
2803.00,0.0337
2802.00,0.0336
2801.00,0.0336
2800.00,0.0336
2799.00,0.0336
2798.00,0.0336
2797.00,0.0335
2796.00,0.0335
2795.00,0.0335
2794.00,0.0334
2793.00,0.0334
2792.00,0.0334
2791.00,0.0334
2790.00,0.0334
2789.00,0.0333
2788.00,0.0333
2787.00,0.0332
2786.00,0.0332
2785.00,0.0331
2784.00,0.0331
2783.00,0.0331
2782.00,0.0330
2781.00,0.0329
2780.00,0.0328
2779.00,0.0328
2778.00,0.0328
2777.00,0.0328
2776.00,0.0328
2775.00,0.0328
2774.00,0.0328
2773.00,0.0328
2772.00,0.0328
2771.00,0.0327
2770.00,0.0326
2769.00,0.0325
2768.00,0.0325
2767.00,0.0324
2766.00,0.0324
2765.00,0.0325
2764.00,0.0325
2763.00,0.0325
2762.00,0.0325
2761.00,0.0325
2760.00,0.0324
2759.00,0.0324
2758.00,0.0324
2757.00,0.0323
2756.00,0.0323
2755.00,0.0323
2754.00,0.0323
2753.00,0.0322
2752.00,0.0322
2751.00,0.0322
2750.00,0.0323
2749.00,0.0323
2748.00,0.0323
2747.00,0.0322
2746.00,0.0322
2745.00,0.0322
2744.00,0.0321
2743.00,0.0321
2742.00,0.0321
2741.00,0.0321
2740.00,0.0320
2739.00,0.0320
2738.00,0.0319
2737.00,0.0319
2736.00,0.0319
2735.00,0.0319
2734.00,0.0319
2733.00,0.0319
2732.00,0.0319
2731.00,0.0319
2730.00,0.0318
2729.00,0.0318
2728.00,0.0318
2727.00,0.0318
2726.00,0.0317
2725.00,0.0317
2724.00,0.0317
2723.00,0.0316
2722.00,0.0316
2721.00,0.0316
2720.00,0.0316
2719.00,0.0316
2718.00,0.0316
2717.00,0.0316
2716.00,0.0316
2715.00,0.0316
2714.00,0.0315
2713.00,0.0315
2712.00,0.0315
2711.00,0.0315
2710.00,0.0314
2709.00,0.0314
2708.00,0.0314
2707.00,0.0313
2706.00,0.0313
2705.00,0.0313
2704.00,0.0313
2703.00,0.0312
2702.00,0.0312
2701.00,0.0312
2700.00,0.0312
2699.00,0.0312
2698.00,0.0312
2697.00,0.0312
2696.00,0.0311
2695.00,0.0311
2694.00,0.0312
2693.00,0.0312
2692.00,0.0312
2691.00,0.0312
2690.00,0.0311
2689.00,0.0311
2688.00,0.0311
2687.00,0.0310
2686.00,0.0310
2685.00,0.0310
2684.00,0.0310
2683.00,0.0310
2682.00,0.0310
2681.00,0.0310
2680.00,0.0309
2679.00,0.0309
2678.00,0.0308
2677.00,0.0308
2676.00,0.0307
2675.00,0.0308
2674.00,0.0308
2673.00,0.0308
2672.00,0.0307
2671.00,0.0307
2670.00,0.0307
2669.00,0.0307
2668.00,0.0307
2667.00,0.0307
2666.00,0.0307
2665.00,0.0307
2664.00,0.0307
2663.00,0.0308
2662.00,0.0308
2661.00,0.0308
2660.00,0.0308
2659.00,0.0308
2658.00,0.0308
2657.00,0.0308
2656.00,0.0308
2655.00,0.0308
2654.00,0.0309
2653.00,0.0309
2652.00,0.0309
2651.00,0.0309
2650.00,0.0309
2649.00,0.0309
2648.00,0.0309
2647.00,0.0308
2646.00,0.0308
2645.00,0.0308
2644.00,0.0309
2643.00,0.0309
2642.00,0.0309
2641.00,0.0309
2640.00,0.0308
2639.00,0.0308
2638.00,0.0308
2637.00,0.0308
2636.00,0.0308
2635.00,0.0308
2634.00,0.0308
2633.00,0.0309
2632.00,0.0309
2631.00,0.0309
2630.00,0.0308
2629.00,0.0307
2628.00,0.0307
2627.00,0.0307
2626.00,0.0307
2625.00,0.0308
2624.00,0.0309
2623.00,0.0309
2622.00,0.0309
2621.00,0.0310
2620.00,0.0310
2619.00,0.0309
2618.00,0.0309
2617.00,0.0309
2616.00,0.0309
2615.00,0.0309
2614.00,0.0309
2613.00,0.0309
2612.00,0.0309
2611.00,0.0310
2610.00,0.0310
2609.00,0.0309
2608.00,0.0308
2607.00,0.0308
2606.00,0.0308
2605.00,0.0308
2604.00,0.0309
2603.00,0.0309
2602.00,0.0309
2601.00,0.0309
2600.00,0.0309
2599.00,0.0308
2598.00,0.0308
2597.00,0.0307
2596.00,0.0306
2595.00,0.0306
2594.00,0.0306
2593.00,0.0307
2592.00,0.0308
2591.00,0.0308
2590.00,0.0308
2589.00,0.0308
2588.00,0.0308
2587.00,0.0308
2586.00,0.0307
2585.00,0.0306
2584.00,0.0306
2583.00,0.0306
2582.00,0.0306
2581.00,0.0306
2580.00,0.0307
2579.00,0.0307
2578.00,0.0307
2577.00,0.0306
2576.00,0.0305
2575.00,0.0305
2574.00,0.0305
2573.00,0.0305
2572.00,0.0306
2571.00,0.0305
2570.00,0.0305
2569.00,0.0305
2568.00,0.0305
2567.00,0.0306
2566.00,0.0307
2565.00,0.0307
2564.00,0.0307
2563.00,0.0307
2562.00,0.0307
2561.00,0.0307
2560.00,0.0306
2559.00,0.0306
2558.00,0.0306
2557.00,0.0306
2556.00,0.0306
2555.00,0.0306
2554.00,0.0305
2553.00,0.0304
2552.00,0.0303
2551.00,0.0302
2550.00,0.0301
2549.00,0.0301
2548.00,0.0300
2547.00,0.0300
2546.00,0.0300
2545.00,0.0301
2544.00,0.0301
2543.00,0.0301
2542.00,0.0301
2541.00,0.0300
2540.00,0.0299
2539.00,0.0298
2538.00,0.0297
2537.00,0.0297
2536.00,0.0297
2535.00,0.0298
2534.00,0.0299
2533.00,0.0300
2532.00,0.0301
2531.00,0.0300
2530.00,0.0299
2529.00,0.0298
2528.00,0.0298
2527.00,0.0297
2526.00,0.0297
2525.00,0.0296
2524.00,0.0296
2523.00,0.0296
2522.00,0.0296
2521.00,0.0297
2520.00,0.0298
2519.00,0.0298
2518.00,0.0299
2517.00,0.0300
2516.00,0.0300
2515.00,0.0299
2514.00,0.0298
2513.00,0.0297
2512.00,0.0296
2511.00,0.0296
2510.00,0.0297
2509.00,0.0298
2508.00,0.0298
2507.00,0.0298
2506.00,0.0297
2505.00,0.0296
2504.00,0.0296
2503.00,0.0296
2502.00,0.0297
2501.00,0.0297
2500.00,0.0298
2499.00,0.0298
2498.00,0.0297
2497.00,0.0297
2496.00,0.0297
2495.00,0.0297
2494.00,0.0297
2493.00,0.0297
2492.00,0.0296
2491.00,0.0296
2490.00,0.0296
2489.00,0.0297
2488.00,0.0297
2487.00,0.0296
2486.00,0.0296
2485.00,0.0295
2484.00,0.0293
2483.00,0.0293
2482.00,0.0293
2481.00,0.0294
2480.00,0.0294
2479.00,0.0294
2478.00,0.0294
2477.00,0.0293
2476.00,0.0292
2475.00,0.0292
2474.00,0.0292
2473.00,0.0292
2472.00,0.0292
2471.00,0.0292
2470.00,0.0291
2469.00,0.0291
2468.00,0.0291
2467.00,0.0290
2466.00,0.0290
2465.00,0.0290
2464.00,0.0290
2463.00,0.0290
2462.00,0.0289
2461.00,0.0289
2460.00,0.0290
2459.00,0.0290
2458.00,0.0291
2457.00,0.0290
2456.00,0.0290
2455.00,0.0290
2454.00,0.0291
2453.00,0.0291
2452.00,0.0291
2451.00,0.0291
2450.00,0.0290
2449.00,0.0289
2448.00,0.0288
2447.00,0.0288
2446.00,0.0288
2445.00,0.0288
2444.00,0.0287
2443.00,0.0286
2442.00,0.0286
2441.00,0.0286
2440.00,0.0286
2439.00,0.0287
2438.00,0.0287
2437.00,0.0286
2436.00,0.0285
2435.00,0.0285
2434.00,0.0284
2433.00,0.0284
2432.00,0.0284
2431.00,0.0284
2430.00,0.0284
2429.00,0.0284
2428.00,0.0284
2427.00,0.0283
2426.00,0.0283
2425.00,0.0283
2424.00,0.0283
2423.00,0.0283
2422.00,0.0282
2421.00,0.0282
2420.00,0.0282
2419.00,0.0282
2418.00,0.0281
2417.00,0.0280
2416.00,0.0280
2415.00,0.0279
2414.00,0.0280
2413.00,0.0280
2412.00,0.0280
2411.00,0.0280
2410.00,0.0280
2409.00,0.0280
2408.00,0.0280
2407.00,0.0280
2406.00,0.0279
2405.00,0.0279
2404.00,0.0278
2403.00,0.0277
2402.00,0.0277
2401.00,0.0276
2400.00,0.0276
2399.00,0.0276
2398.00,0.0276
2397.00,0.0276
2396.00,0.0275
2395.00,0.0275
2394.00,0.0274
2393.00,0.0274
2392.00,0.0273
2391.00,0.0273
2390.00,0.0273
2389.00,0.0273
2388.00,0.0272
2387.00,0.0272
2386.00,0.0271
2385.00,0.0270
2384.00,0.0269
2383.00,0.0269
2382.00,0.0269
2381.00,0.0270
2380.00,0.0271
2379.00,0.0271
2378.00,0.0271
2377.00,0.0270
2376.00,0.0269
2375.00,0.0268
2374.00,0.0268
2373.00,0.0268
2372.00,0.0268
2371.00,0.0267
2370.00,0.0265
2369.00,0.0262
2368.00,0.0261
2367.00,0.0263
2366.00,0.0267
2365.00,0.0269
2364.00,0.0269
2363.00,0.0266
2362.00,0.0264
2361.00,0.0264
2360.00,0.0265
2359.00,0.0265
2358.00,0.0265
2357.00,0.0265
2356.00,0.0264
2355.00,0.0264
2354.00,0.0264
2353.00,0.0264
2352.00,0.0264
2351.00,0.0263
2350.00,0.0263
2349.00,0.0263
2348.00,0.0263
2347.00,0.0263
2346.00,0.0262
2345.00,0.0261
2344.00,0.0262
2343.00,0.0263
2342.00,0.0265
2341.00,0.0266
2340.00,0.0265
2339.00,0.0264
2338.00,0.0261
2337.00,0.0259
2336.00,0.0259
2335.00,0.0260
2334.00,0.0262
2333.00,0.0263
2332.00,0.0262
2331.00,0.0261
2330.00,0.0259
2329.00,0.0257
2328.00,0.0257
2327.00,0.0259
2326.00,0.0261
2325.00,0.0262
2324.00,0.0262
2323.00,0.0261
2322.00,0.0261
2321.00,0.0261
2320.00,0.0260
2319.00,0.0260
2318.00,0.0259
2317.00,0.0259
2316.00,0.0260
2315.00,0.0260
2314.00,0.0260
2313.00,0.0260
2312.00,0.0260
2311.00,0.0260
2310.00,0.0261
2309.00,0.0263
2308.00,0.0263
2307.00,0.0263
2306.00,0.0262
2305.00,0.0262
2304.00,0.0261
2303.00,0.0260
2302.00,0.0259
2301.00,0.0259
2300.00,0.0259
2299.00,0.0260
2298.00,0.0260
2297.00,0.0260
2296.00,0.0260
2295.00,0.0259
2294.00,0.0260
2293.00,0.0262
2292.00,0.0265
2291.00,0.0266
2290.00,0.0266
2289.00,0.0265
2288.00,0.0265
2287.00,0.0266
2286.00,0.0268
2285.00,0.0269
2284.00,0.0270
2283.00,0.0271
2282.00,0.0271
2281.00,0.0270
2280.00,0.0269
2279.00,0.0269
2278.00,0.0268
2277.00,0.0268
2276.00,0.0267
2275.00,0.0266
2274.00,0.0264
2273.00,0.0263
2272.00,0.0263
2271.00,0.0263
2270.00,0.0263
2269.00,0.0264
2268.00,0.0264
2267.00,0.0263
2266.00,0.0264
2265.00,0.0264
2264.00,0.0265
2263.00,0.0265
2262.00,0.0265
2261.00,0.0264
2260.00,0.0265
2259.00,0.0265
2258.00,0.0263
2257.00,0.0261
2256.00,0.0259
2255.00,0.0258
2254.00,0.0259
2253.00,0.0260
2252.00,0.0261
2251.00,0.0261
2250.00,0.0261
2249.00,0.0260
2248.00,0.0259
2247.00,0.0259
2246.00,0.0261
2245.00,0.0262
2244.00,0.0263
2243.00,0.0263
2242.00,0.0262
2241.00,0.0262
2240.00,0.0261
2239.00,0.0260
2238.00,0.0260
2237.00,0.0259
2236.00,0.0259
2235.00,0.0260
2234.00,0.0260
2233.00,0.0260
2232.00,0.0259
2231.00,0.0258
2230.00,0.0256
2229.00,0.0256
2228.00,0.0256
2227.00,0.0257
2226.00,0.0259
2225.00,0.0259
2224.00,0.0259
2223.00,0.0258
2222.00,0.0256
2221.00,0.0255
2220.00,0.0255
2219.00,0.0255
2218.00,0.0255
2217.00,0.0256
2216.00,0.0257
2215.00,0.0259
2214.00,0.0260
2213.00,0.0260
2212.00,0.0258
2211.00,0.0256
2210.00,0.0255
2209.00,0.0256
2208.00,0.0258
2207.00,0.0258
2206.00,0.0258
2205.00,0.0257
2204.00,0.0256
2203.00,0.0256
2202.00,0.0256
2201.00,0.0256
2200.00,0.0256
2199.00,0.0256
2198.00,0.0256
2197.00,0.0256
2196.00,0.0256
2195.00,0.0256
2194.00,0.0256
2193.00,0.0255
2192.00,0.0254
2191.00,0.0252
2190.00,0.0249
2189.00,0.0247
2188.00,0.0248
2187.00,0.0250
2186.00,0.0253
2185.00,0.0254
2184.00,0.0253
2183.00,0.0250
2182.00,0.0249
2181.00,0.0249
2180.00,0.0250
2179.00,0.0250
2178.00,0.0252
2177.00,0.0253
2176.00,0.0253
2175.00,0.0253
2174.00,0.0252
2173.00,0.0252
2172.00,0.0253
2171.00,0.0254
2170.00,0.0256
2169.00,0.0258
2168.00,0.0259
2167.00,0.0258
2166.00,0.0259
2165.00,0.0261
2164.00,0.0264
2163.00,0.0266
2162.00,0.0265
2161.00,0.0260
2160.00,0.0252
2159.00,0.0243
2158.00,0.0237
2157.00,0.0235
2156.00,0.0236
2155.00,0.0237
2154.00,0.0239
2153.00,0.0241
2152.00,0.0242
2151.00,0.0241
2150.00,0.0238
2149.00,0.0236
2148.00,0.0236
2147.00,0.0239
2146.00,0.0241
2145.00,0.0242
2144.00,0.0243
2143.00,0.0243
2142.00,0.0244
2141.00,0.0245
2140.00,0.0245
2139.00,0.0244
2138.00,0.0241
2137.00,0.0238
2136.00,0.0236
2135.00,0.0234
2134.00,0.0233
2133.00,0.0233
2132.00,0.0234
2131.00,0.0234
2130.00,0.0234
2129.00,0.0236
2128.00,0.0237
2127.00,0.0238
2126.00,0.0237
2125.00,0.0236
2124.00,0.0235
2123.00,0.0234
2122.00,0.0234
2121.00,0.0234
2120.00,0.0235
2119.00,0.0234
2118.00,0.0234
2117.00,0.0233
2116.00,0.0232
2115.00,0.0230
2114.00,0.0229
2113.00,0.0228
2112.00,0.0229
2111.00,0.0231
2110.00,0.0233
2109.00,0.0235
2108.00,0.0237
2107.00,0.0237
2106.00,0.0238
2105.00,0.0238
2104.00,0.0237
2103.00,0.0236
2102.00,0.0235
2101.00,0.0234
2100.00,0.0232
2099.00,0.0230
2098.00,0.0228
2097.00,0.0227
2096.00,0.0227
2095.00,0.0227
2094.00,0.0228
2093.00,0.0230
2092.00,0.0230
2091.00,0.0230
2090.00,0.0229
2089.00,0.0229
2088.00,0.0229
2087.00,0.0230
2086.00,0.0230
2085.00,0.0231
2084.00,0.0232
2083.00,0.0232
2082.00,0.0231
2081.00,0.0230
2080.00,0.0230
2079.00,0.0230
2078.00,0.0230
2077.00,0.0230
2076.00,0.0230
2075.00,0.0230
2074.00,0.0230
2073.00,0.0231
2072.00,0.0232
2071.00,0.0233
2070.00,0.0233
2069.00,0.0231
2068.00,0.0228
2067.00,0.0225
2066.00,0.0224
2065.00,0.0225
2064.00,0.0226
2063.00,0.0228
2062.00,0.0229
2061.00,0.0230
2060.00,0.0228
2059.00,0.0226
2058.00,0.0225
2057.00,0.0225
2056.00,0.0226
2055.00,0.0226
2054.00,0.0226
2053.00,0.0228
2052.00,0.0229
2051.00,0.0228
2050.00,0.0227
2049.00,0.0226
2048.00,0.0227
2047.00,0.0228
2046.00,0.0230
2045.00,0.0232
2044.00,0.0235
2043.00,0.0235
2042.00,0.0234
2041.00,0.0231
2040.00,0.0228
2039.00,0.0226
2038.00,0.0226
2037.00,0.0228
2036.00,0.0229
2035.00,0.0228
2034.00,0.0226
2033.00,0.0225
2032.00,0.0228
2031.00,0.0230
2030.00,0.0230
2029.00,0.0228
2028.00,0.0226
2027.00,0.0225
2026.00,0.0224
2025.00,0.0222
2024.00,0.0220
2023.00,0.0217
2022.00,0.0215
2021.00,0.0214
2020.00,0.0213
2019.00,0.0212
2018.00,0.0210
2017.00,0.0209
2016.00,0.0211
2015.00,0.0213
2014.00,0.0215
2013.00,0.0217
2012.00,0.0217
2011.00,0.0217
2010.00,0.0217
2009.00,0.0217
2008.00,0.0216
2007.00,0.0215
2006.00,0.0213
2005.00,0.0212
2004.00,0.0213
2003.00,0.0214
2002.00,0.0216
2001.00,0.0219
2000.00,0.0220
1999.00,0.0219
1998.00,0.0216
1997.00,0.0215
1996.00,0.0216
1995.00,0.0219
1994.00,0.0221
1993.00,0.0222
1992.00,0.0220
1991.00,0.0217
1990.00,0.0214
1989.00,0.0212
1988.00,0.0212
1987.00,0.0212
1986.00,0.0211
1985.00,0.0211
1984.00,0.0211
1983.00,0.0212
1982.00,0.0212
1981.00,0.0213
1980.00,0.0212
1979.00,0.0208
1978.00,0.0203
1977.00,0.0200
1976.00,0.0200
1975.00,0.0204
1974.00,0.0208
1973.00,0.0210
1972.00,0.0209
1971.00,0.0206
1970.00,0.0205
1969.00,0.0206
1968.00,0.0206
1967.00,0.0203
1966.00,0.0200
1965.00,0.0198
1964.00,0.0199
1963.00,0.0199
1962.00,0.0200
1961.00,0.0200
1960.00,0.0200
1959.00,0.0201
1958.00,0.0201
1957.00,0.0201
1956.00,0.0199
1955.00,0.0197
1954.00,0.0197
1953.00,0.0197
1952.00,0.0198
1951.00,0.0197
1950.00,0.0196
1949.00,0.0196
1948.00,0.0196
1947.00,0.0196
1946.00,0.0196
1945.00,0.0194
1944.00,0.0192
1943.00,0.0189
1942.00,0.0187
1941.00,0.0186
1940.00,0.0185
1939.00,0.0184
1938.00,0.0183
1937.00,0.0184
1936.00,0.0185
1935.00,0.0185
1934.00,0.0184
1933.00,0.0183
1932.00,0.0183
1931.00,0.0184
1930.00,0.0185
1929.00,0.0187
1928.00,0.0188
1927.00,0.0188
1926.00,0.0188
1925.00,0.0188
1924.00,0.0188
1923.00,0.0186
1922.00,0.0184
1921.00,0.0183
1920.00,0.0183
1919.00,0.0181
1918.00,0.0179
1917.00,0.0178
1916.00,0.0178
1915.00,0.0179
1914.00,0.0180
1913.00,0.0180
1912.00,0.0180
1911.00,0.0179
1910.00,0.0178
1909.00,0.0176
1908.00,0.0175
1907.00,0.0175
1906.00,0.0175
1905.00,0.0176
1904.00,0.0176
1903.00,0.0176
1902.00,0.0175
1901.00,0.0174
1900.00,0.0174
1899.00,0.0174
1898.00,0.0174
1897.00,0.0174
1896.00,0.0172
1895.00,0.0169
1894.00,0.0168
1893.00,0.0169
1892.00,0.0170
1891.00,0.0171
1890.00,0.0170
1889.00,0.0169
1888.00,0.0168
1887.00,0.0167
1886.00,0.0166
1885.00,0.0166
1884.00,0.0166
1883.00,0.0165
1882.00,0.0165
1881.00,0.0164
1880.00,0.0164
1879.00,0.0164
1878.00,0.0163
1877.00,0.0162
1876.00,0.0162
1875.00,0.0162
1874.00,0.0162
1873.00,0.0164
1872.00,0.0165
1871.00,0.0166
1870.00,0.0165
1869.00,0.0162
1868.00,0.0159
1867.00,0.0157
1866.00,0.0157
1865.00,0.0157
1864.00,0.0156
1863.00,0.0155
1862.00,0.0154
1861.00,0.0153
1860.00,0.0153
1859.00,0.0153
1858.00,0.0153
1857.00,0.0153
1856.00,0.0154
1855.00,0.0153
1854.00,0.0152
1853.00,0.0151
1852.00,0.0150
1851.00,0.0151
1850.00,0.0151
1849.00,0.0151
1848.00,0.0152
1847.00,0.0153
1846.00,0.0153
1845.00,0.0150
1844.00,0.0146
1843.00,0.0144
1842.00,0.0144
1841.00,0.0146
1840.00,0.0147
1839.00,0.0147
1838.00,0.0147
1837.00,0.0147
1836.00,0.0147
1835.00,0.0147
1834.00,0.0147
1833.00,0.0149
1832.00,0.0151
1831.00,0.0152
1830.00,0.0150
1829.00,0.0147
1828.00,0.0147
1827.00,0.0147
1826.00,0.0147
1825.00,0.0145
1824.00,0.0144
1823.00,0.0144
1822.00,0.0145
1821.00,0.0146
1820.00,0.0146
1819.00,0.0146
1818.00,0.0145
1817.00,0.0144
1816.00,0.0144
1815.00,0.0145
1814.00,0.0147
1813.00,0.0148
1812.00,0.0149
1811.00,0.0149
1810.00,0.0149
1809.00,0.0149
1808.00,0.0151
1807.00,0.0151
1806.00,0.0152
1805.00,0.0153
1804.00,0.0154
1803.00,0.0155
1802.00,0.0156
1801.00,0.0156
1800.00,0.0157
1799.00,0.0157
1798.00,0.0158
1797.00,0.0160
1796.00,0.0163
1795.00,0.0165
1794.00,0.0166
1793.00,0.0166
1792.00,0.0166
1791.00,0.0166
1790.00,0.0167
1789.00,0.0169
1788.00,0.0172
1787.00,0.0175
1786.00,0.0176
1785.00,0.0178
1784.00,0.0180
1783.00,0.0183
1782.00,0.0185
1781.00,0.0187
1780.00,0.0188
1779.00,0.0190
1778.00,0.0193
1777.00,0.0197
1776.00,0.0201
1775.00,0.0205
1774.00,0.0209
1773.00,0.0209
1772.00,0.0208
1771.00,0.0209
1770.00,0.0211
1769.00,0.0214
1768.00,0.0217
1767.00,0.0219
1766.00,0.0222
1765.00,0.0226
1764.00,0.0230
1763.00,0.0233
1762.00,0.0233
1761.00,0.0234
1760.00,0.0237
1759.00,0.0241
1758.00,0.0244
1757.00,0.0247
1756.00,0.0251
1755.00,0.0255
1754.00,0.0260
1753.00,0.0264
1752.00,0.0267
1751.00,0.0270
1750.00,0.0275
1749.00,0.0281
1748.00,0.0286
1747.00,0.0290
1746.00,0.0294
1745.00,0.0298
1744.00,0.0302
1743.00,0.0306
1742.00,0.0310
1741.00,0.0314
1740.00,0.0316
1739.00,0.0318
1738.00,0.0321
1737.00,0.0325
1736.00,0.0329
1735.00,0.0331
1734.00,0.0333
1733.00,0.0337
1732.00,0.0342
1731.00,0.0348
1730.00,0.0353
1729.00,0.0357
1728.00,0.0361
1727.00,0.0365
1726.00,0.0369
1725.00,0.0374
1724.00,0.0379
1723.00,0.0383
1722.00,0.0387
1721.00,0.0391
1720.00,0.0395
1719.00,0.0397
1718.00,0.0401
1717.00,0.0407
1716.00,0.0413
1715.00,0.0418
1714.00,0.0423
1713.00,0.0427
1712.00,0.0430
1711.00,0.0433
1710.00,0.0435
1709.00,0.0438
1708.00,0.0441
1707.00,0.0444
1706.00,0.0446
1705.00,0.0448
1704.00,0.0449
1703.00,0.0451
1702.00,0.0452
1701.00,0.0450
1700.00,0.0449
1699.00,0.0448
1698.00,0.0451
1697.00,0.0454
1696.00,0.0456
1695.00,0.0455
1694.00,0.0455
1693.00,0.0456
1692.00,0.0458
1691.00,0.0459
1690.00,0.0459
1689.00,0.0460
1688.00,0.0461
1687.00,0.0461
1686.00,0.0460
1685.00,0.0459
1684.00,0.0459
1683.00,0.0460
1682.00,0.0461
1681.00,0.0461
1680.00,0.0461
1679.00,0.0462
1678.00,0.0463
1677.00,0.0464
1676.00,0.0465
1675.00,0.0465
1674.00,0.0466
1673.00,0.0467
1672.00,0.0468
1671.00,0.0470
1670.00,0.0471
1669.00,0.0472
1668.00,0.0472
1667.00,0.0473
1666.00,0.0473
1665.00,0.0475
1664.00,0.0476
1663.00,0.0477
1662.00,0.0479
1661.00,0.0481
1660.00,0.0484
1659.00,0.0487
1658.00,0.0489
1657.00,0.0490
1656.00,0.0490
1655.00,0.0490
1654.00,0.0491
1653.00,0.0498
1652.00,0.0502
1651.00,0.0505
1650.00,0.0509
1649.00,0.0513
1648.00,0.0516
1647.00,0.0521
1646.00,0.0525
1645.00,0.0529
1644.00,0.0531
1643.00,0.0534
1642.00,0.0537
1641.00,0.0539
1640.00,0.0542
1639.00,0.0545
1638.00,0.0548
1637.00,0.0553
1636.00,0.0560
1635.00,0.0567
1634.00,0.0569
1633.00,0.0570
1632.00,0.0571
1631.00,0.0573
1630.00,0.0576
1629.00,0.0581
1628.00,0.0586
1627.00,0.0590
1626.00,0.0594
1625.00,0.0599
1624.00,0.0604
1623.00,0.0609
1622.00,0.0612
1621.00,0.0613
1620.00,0.0614
1619.00,0.0616
1618.00,0.0619
1617.00,0.0625
1616.00,0.0630
1615.00,0.0634
1614.00,0.0636
1613.00,0.0638
1612.00,0.0639
1611.00,0.0642
1610.00,0.0645
1609.00,0.0648
1608.00,0.0650
1607.00,0.0653
1606.00,0.0656
1605.00,0.0658
1604.00,0.0660
1603.00,0.0662
1602.00,0.0663
1601.00,0.0664
1600.00,0.0665
1599.00,0.0666
1598.00,0.0668
1597.00,0.0670
1596.00,0.0673
1595.00,0.0675
1594.00,0.0677
1593.00,0.0678
1592.00,0.0679
1591.00,0.0679
1590.00,0.0679
1589.00,0.0680
1588.00,0.0681
1587.00,0.0682
1586.00,0.0683
1585.00,0.0683
1584.00,0.0683
1583.00,0.0683
1582.00,0.0682
1581.00,0.0681
1580.00,0.0680
1579.00,0.0679
1578.00,0.0679
1577.00,0.0680
1576.00,0.0681
1575.00,0.0680
1574.00,0.0677
1573.00,0.0675
1572.00,0.0673
1571.00,0.0672
1570.00,0.0672
1569.00,0.0671
1568.00,0.0670
1567.00,0.0669
1566.00,0.0666
1565.00,0.0663
1564.00,0.0659
1563.00,0.0656
1562.00,0.0652
1561.00,0.0647
1560.00,0.0645
1559.00,0.0651
1558.00,0.0653
1557.00,0.0647
1556.00,0.0643
1555.00,0.0640
1554.00,0.0638
1553.00,0.0635
1552.00,0.0632
1551.00,0.0630
1550.00,0.0627
1549.00,0.0623
1548.00,0.0619
1547.00,0.0614
1546.00,0.0610
1545.00,0.0607
1544.00,0.0605
1543.00,0.0603
1542.00,0.0601
1541.00,0.0598
1540.00,0.0597
1539.00,0.0592
1538.00,0.0587
1537.00,0.0582
1536.00,0.0580
1535.00,0.0577
1534.00,0.0574
1533.00,0.0572
1532.00,0.0569
1531.00,0.0565
1530.00,0.0562
1529.00,0.0559
1528.00,0.0557
1527.00,0.0554
1526.00,0.0551
1525.00,0.0548
1524.00,0.0547
1523.00,0.0544
1522.00,0.0543
1521.00,0.0542
1520.00,0.0543
1519.00,0.0543
1518.00,0.0543
1517.00,0.0542
1516.00,0.0541
1515.00,0.0539
1514.00,0.0536
1513.00,0.0534
1512.00,0.0532
1511.00,0.0531
1510.00,0.0530
1509.00,0.0530
1508.00,0.0531
1507.00,0.0532
1506.00,0.0529
1505.00,0.0525
1504.00,0.0523
1503.00,0.0521
1502.00,0.0520
1501.00,0.0518
1500.00,0.0518
1499.00,0.0518
1498.00,0.0517
1497.00,0.0518
1496.00,0.0518
1495.00,0.0516
1494.00,0.0515
1493.00,0.0514
1492.00,0.0514
1491.00,0.0514
1490.00,0.0515
1489.00,0.0516
1488.00,0.0517
1487.00,0.0516
1486.00,0.0514
1485.00,0.0513
1484.00,0.0512
1483.00,0.0512
1482.00,0.0512
1481.00,0.0512
1480.00,0.0512
1479.00,0.0512
1478.00,0.0512
1477.00,0.0513
1476.00,0.0515
1475.00,0.0516
1474.00,0.0517
1473.00,0.0521
1472.00,0.0526
1471.00,0.0530
1470.00,0.0533
1469.00,0.0537
1468.00,0.0540
1467.00,0.0543
1466.00,0.0545
1465.00,0.0547
1464.00,0.0549
1463.00,0.0550
1462.00,0.0550
1461.00,0.0550
1460.00,0.0551
1459.00,0.0551
1458.00,0.0553
1457.00,0.0557
1456.00,0.0560
1455.00,0.0562
1454.00,0.0563
1453.00,0.0565
1452.00,0.0566
1451.00,0.0568
1450.00,0.0570
1449.00,0.0572
1448.00,0.0575
1447.00,0.0577
1446.00,0.0577
1445.00,0.0577
1444.00,0.0578
1443.00,0.0578
1442.00,0.0578
1441.00,0.0578
1440.00,0.0579
1439.00,0.0579
1438.00,0.0580
1437.00,0.0582
1436.00,0.0585
1435.00,0.0586
1434.00,0.0587
1433.00,0.0587
1432.00,0.0588
1431.00,0.0589
1430.00,0.0589
1429.00,0.0589
1428.00,0.0589
1427.00,0.0589
1426.00,0.0589
1425.00,0.0590
1424.00,0.0591
1423.00,0.0591
1422.00,0.0590
1421.00,0.0589
1420.00,0.0590
1419.00,0.0592
1418.00,0.0594
1417.00,0.0596
1416.00,0.0596
1415.00,0.0596
1414.00,0.0595
1413.00,0.0593
1412.00,0.0593
1411.00,0.0593
1410.00,0.0593
1409.00,0.0592
1408.00,0.0592
1407.00,0.0592
1406.00,0.0592
1405.00,0.0592
1404.00,0.0591
1403.00,0.0591
1402.00,0.0590
1401.00,0.0589
1400.00,0.0589
1399.00,0.0589
1398.00,0.0589
1397.00,0.0590
1396.00,0.0591
1395.00,0.0591
1394.00,0.0592
1393.00,0.0591
1392.00,0.0591
1391.00,0.0591
1390.00,0.0591
1389.00,0.0592
1388.00,0.0593
1387.00,0.0595
1386.00,0.0597
1385.00,0.0597
1384.00,0.0598
1383.00,0.0599
1382.00,0.0600
1381.00,0.0602
1380.00,0.0604
1379.00,0.0605
1378.00,0.0607
1377.00,0.0608
1376.00,0.0609
1375.00,0.0611
1374.00,0.0612
1373.00,0.0612
1372.00,0.0612
1371.00,0.0612
1370.00,0.0612
1369.00,0.0613
1368.00,0.0613
1367.00,0.0613
1366.00,0.0612
1365.00,0.0610
1364.00,0.0610
1363.00,0.0611
1362.00,0.0613
1361.00,0.0615
1360.00,0.0615
1359.00,0.0614
1358.00,0.0613
1357.00,0.0614
1356.00,0.0614
1355.00,0.0614
1354.00,0.0614
1353.00,0.0614
1352.00,0.0613
1351.00,0.0611
1350.00,0.0610
1349.00,0.0609
1348.00,0.0609
1347.00,0.0608
1346.00,0.0608
1345.00,0.0607
1344.00,0.0607
1343.00,0.0606
1342.00,0.0605
1341.00,0.0606
1340.00,0.0606
1339.00,0.0607
1338.00,0.0607
1337.00,0.0606
1336.00,0.0606
1335.00,0.0606
1334.00,0.0606
1333.00,0.0606
1332.00,0.0606
1331.00,0.0607
1330.00,0.0607
1329.00,0.0608
1328.00,0.0608
1327.00,0.0608
1326.00,0.0608
1325.00,0.0609
1324.00,0.0610
1323.00,0.0611
1322.00,0.0613
1321.00,0.0614
1320.00,0.0616
1319.00,0.0616
1318.00,0.0616
1317.00,0.0616
1316.00,0.0616
1315.00,0.0616
1314.00,0.0618
1313.00,0.0620
1312.00,0.0623
1311.00,0.0625
1310.00,0.0626
1309.00,0.0627
1308.00,0.0627
1307.00,0.0627
1306.00,0.0628
1305.00,0.0629
1304.00,0.0631
1303.00,0.0633
1302.00,0.0634
1301.00,0.0635
1300.00,0.0636
1299.00,0.0636
1298.00,0.0637
1297.00,0.0637
1296.00,0.0639
1295.00,0.0641
1294.00,0.0643
1293.00,0.0645
1292.00,0.0646
1291.00,0.0648
1290.00,0.0649
1289.00,0.0651
1288.00,0.0652
1287.00,0.0653
1286.00,0.0654
1285.00,0.0655
1284.00,0.0657
1283.00,0.0659
1282.00,0.0660
1281.00,0.0661
1280.00,0.0661
1279.00,0.0662
1278.00,0.0662
1277.00,0.0663
1276.00,0.0664
1275.00,0.0665
1274.00,0.0667
1273.00,0.0668
1272.00,0.0668
1271.00,0.0669
1270.00,0.0669
1269.00,0.0670
1268.00,0.0671
1267.00,0.0673
1266.00,0.0674
1265.00,0.0675
1264.00,0.0675
1263.00,0.0675
1262.00,0.0675
1261.00,0.0675
1260.00,0.0676
1259.00,0.0678
1258.00,0.0678
1257.00,0.0679
1256.00,0.0678
1255.00,0.0678
1254.00,0.0678
1253.00,0.0679
1252.00,0.0680
1251.00,0.0681
1250.00,0.0681
1249.00,0.0681
1248.00,0.0682
1247.00,0.0683
1246.00,0.0684
1245.00,0.0686
1244.00,0.0687
1243.00,0.0688
1242.00,0.0688
1241.00,0.0687
1240.00,0.0687
1239.00,0.0687
1238.00,0.0688
1237.00,0.0690
1236.00,0.0691
1235.00,0.0692
1234.00,0.0693
1233.00,0.0693
1232.00,0.0694
1231.00,0.0695
1230.00,0.0695
1229.00,0.0695
1228.00,0.0696
1227.00,0.0697
1226.00,0.0697
1225.00,0.0697
1224.00,0.0697
1223.00,0.0697
1222.00,0.0698
1221.00,0.0699
1220.00,0.0700
1219.00,0.0701
1218.00,0.0701
1217.00,0.0701
1216.00,0.0702
1215.00,0.0703
1214.00,0.0703
1213.00,0.0704
1212.00,0.0705
1211.00,0.0707
1210.00,0.0708
1209.00,0.0709
1208.00,0.0710
1207.00,0.0710
1206.00,0.0710
1205.00,0.0710
1204.00,0.0711
1203.00,0.0711
1202.00,0.0712
1201.00,0.0712
1200.00,0.0713
1199.00,0.0713
1198.00,0.0714
1197.00,0.0714
1196.00,0.0714
1195.00,0.0714
1194.00,0.0714
1193.00,0.0714
1192.00,0.0714
1191.00,0.0715
1190.00,0.0714
1189.00,0.0713
1188.00,0.0713
1187.00,0.0713
1186.00,0.0713
1185.00,0.0713
1184.00,0.0714
1183.00,0.0713
1182.00,0.0713
1181.00,0.0712
1180.00,0.0712
1179.00,0.0712
1178.00,0.0712
1177.00,0.0713
1176.00,0.0713
1175.00,0.0714
1174.00,0.0715
1173.00,0.0716
1172.00,0.0715
1171.00,0.0715
1170.00,0.0714
1169.00,0.0714
1168.00,0.0714
1167.00,0.0715
1166.00,0.0716
1165.00,0.0716
1164.00,0.0716
1163.00,0.0716
1162.00,0.0716
1161.00,0.0716
1160.00,0.0716
1159.00,0.0716
1158.00,0.0715
1157.00,0.0715
1156.00,0.0715
1155.00,0.0715
1154.00,0.0715
1153.00,0.0715
1152.00,0.0714
1151.00,0.0713
1150.00,0.0711
1149.00,0.0711
1148.00,0.0711
1147.00,0.0711
1146.00,0.0712
1145.00,0.0712
1144.00,0.0713
1143.00,0.0714
1142.00,0.0714
1141.00,0.0714
1140.00,0.0713
1139.00,0.0713
1138.00,0.0713
1137.00,0.0713
1136.00,0.0713
1135.00,0.0713
1134.00,0.0714
1133.00,0.0715
1132.00,0.0715
1131.00,0.0714
1130.00,0.0714
1129.00,0.0716
1128.00,0.0718
1127.00,0.0719
1126.00,0.0719
1125.00,0.0718
1124.00,0.0719
1123.00,0.0722
1122.00,0.0727
1121.00,0.0731
1120.00,0.0733
1119.00,0.0734
1118.00,0.0734
1117.00,0.0734
1116.00,0.0734
1115.00,0.0735
1114.00,0.0735
1113.00,0.0734
1112.00,0.0734
1111.00,0.0734
1110.00,0.0735
1109.00,0.0736
1108.00,0.0737
1107.00,0.0737
1106.00,0.0737
1105.00,0.0737
1104.00,0.0738
1103.00,0.0740
1102.00,0.0741
1101.00,0.0743
1100.00,0.0743
1099.00,0.0742
1098.00,0.0741
1097.00,0.0741
1096.00,0.0740
1095.00,0.0740
1094.00,0.0740
1093.00,0.0741
1092.00,0.0743
1091.00,0.0743
1090.00,0.0742
1089.00,0.0740
1088.00,0.0738
1087.00,0.0737
1086.00,0.0738
1085.00,0.0739
1084.00,0.0739
1083.00,0.0740
1082.00,0.0741
1081.00,0.0742
1080.00,0.0744
1079.00,0.0746
1078.00,0.0748
1077.00,0.0750
1076.00,0.0749
1075.00,0.0746
1074.00,0.0743
1073.00,0.0741
1072.00,0.0740
1071.00,0.0740
1070.00,0.0740
1069.00,0.0739
1068.00,0.0739
1067.00,0.0740
1066.00,0.0742
1065.00,0.0744
1064.00,0.0746
1063.00,0.0747
1062.00,0.0746
1061.00,0.0745
1060.00,0.0742
1059.00,0.0740
1058.00,0.0740
1057.00,0.0742
1056.00,0.0744
1055.00,0.0745
1054.00,0.0746
1053.00,0.0747
1052.00,0.0748
1051.00,0.0749
1050.00,0.0750
1049.00,0.0752
1048.00,0.0755
1047.00,0.0757
1046.00,0.0758
1045.00,0.0759
1044.00,0.0760
1043.00,0.0760
1042.00,0.0759
1041.00,0.0757
1040.00,0.0758
1039.00,0.0760
1038.00,0.0763
1037.00,0.0765
1036.00,0.0766
1035.00,0.0767
1034.00,0.0766
1033.00,0.0766
1032.00,0.0766
1031.00,0.0766
1030.00,0.0765
1029.00,0.0762
1028.00,0.0760
1027.00,0.0757
1026.00,0.0755
1025.00,0.0753
1024.00,0.0752
1023.00,0.0750
1022.00,0.0748
1021.00,0.0746
1020.00,0.0743
1019.00,0.0742
1018.00,0.0740
1017.00,0.0740
1016.00,0.0740
1015.00,0.0741
1014.00,0.0741
1013.00,0.0741
1012.00,0.0740
1011.00,0.0740
1010.00,0.0740
1009.00,0.0740
1008.00,0.0738
1007.00,0.0737
1006.00,0.0735
1005.00,0.0735
1004.00,0.0734
1003.00,0.0733
1002.00,0.0731
1001.00,0.0728
1000.00,0.0723
999.00,0.0717
998.00,0.0712
997.00,0.0709
996.00,0.0707
995.00,0.0705
994.00,0.0702
993.00,0.0699
992.00,0.0695
991.00,0.0691
990.00,0.0688
989.00,0.0685
988.00,0.0684
987.00,0.0683
986.00,0.0682
985.00,0.0681
984.00,0.0679
983.00,0.0676
982.00,0.0673
981.00,0.0671
980.00,0.0669
979.00,0.0667
978.00,0.0665
977.00,0.0661
976.00,0.0658
975.00,0.0655
974.00,0.0654
973.00,0.0653
972.00,0.0652
971.00,0.0650
970.00,0.0647
969.00,0.0645
968.00,0.0643
967.00,0.0641
966.00,0.0638
965.00,0.0636
964.00,0.0635
963.00,0.0635
962.00,0.0634
961.00,0.0634
960.00,0.0632
959.00,0.0631
958.00,0.0629
957.00,0.0629
956.00,0.0628
955.00,0.0627
954.00,0.0626
953.00,0.0624
952.00,0.0624
951.00,0.0624
950.00,0.0624
949.00,0.0624
948.00,0.0624
947.00,0.0622
946.00,0.0621
945.00,0.0621
944.00,0.0621
943.00,0.0621
942.00,0.0621
941.00,0.0620
940.00,0.0620
939.00,0.0621
938.00,0.0622
937.00,0.0621
936.00,0.0619
935.00,0.0617
934.00,0.0616
933.00,0.0617
932.00,0.0619
931.00,0.0621
930.00,0.0622
929.00,0.0622
928.00,0.0622
927.00,0.0622
926.00,0.0622
925.00,0.0622
924.00,0.0623
923.00,0.0623
922.00,0.0623
921.00,0.0624
920.00,0.0624
919.00,0.0623
918.00,0.0623
917.00,0.0625
916.00,0.0627
915.00,0.0629
914.00,0.0629
913.00,0.0627
912.00,0.0625
911.00,0.0623
910.00,0.0621
909.00,0.0618
908.00,0.0615
907.00,0.0613
906.00,0.0612
905.00,0.0614
904.00,0.0617
903.00,0.0620
902.00,0.0622
901.00,0.0620
900.00,0.0617
899.00,0.0614
898.00,0.0613
897.00,0.0614
896.00,0.0615
895.00,0.0615
894.00,0.0614
893.00,0.0612
892.00,0.0611
891.00,0.0610
890.00,0.0609
889.00,0.0610
888.00,0.0611
887.00,0.0610
886.00,0.0608
885.00,0.0607
884.00,0.0608
883.00,0.0610
882.00,0.0613
881.00,0.0615
880.00,0.0615
879.00,0.0615
878.00,0.0613
877.00,0.0610
876.00,0.0608
875.00,0.0606
874.00,0.0606
873.00,0.0606
872.00,0.0606
871.00,0.0608
870.00,0.0609
869.00,0.0610
868.00,0.0610
867.00,0.0608
866.00,0.0608
865.00,0.0609
864.00,0.0611
863.00,0.0612
862.00,0.0613
861.00,0.0615
860.00,0.0616
859.00,0.0616
858.00,0.0615
857.00,0.0613
856.00,0.0612
855.00,0.0614
854.00,0.0616
853.00,0.0617
852.00,0.0618
851.00,0.0619
850.00,0.0621
849.00,0.0623
848.00,0.0624
847.00,0.0627
846.00,0.0630
845.00,0.0632
844.00,0.0633
843.00,0.0633
842.00,0.0631
841.00,0.0629
840.00,0.0628
839.00,0.0626
838.00,0.0625
837.00,0.0626
836.00,0.0628
835.00,0.0630
834.00,0.0631
833.00,0.0631
832.00,0.0632
831.00,0.0633
830.00,0.0635
829.00,0.0636
828.00,0.0637
827.00,0.0639
826.00,0.0642
825.00,0.0645
824.00,0.0650
823.00,0.0653
822.00,0.0656
821.00,0.0658
820.00,0.0660
819.00,0.0662
818.00,0.0663
817.00,0.0662
816.00,0.0660
815.00,0.0659
814.00,0.0660
813.00,0.0663
812.00,0.0665
811.00,0.0666
810.00,0.0667
809.00,0.0668
808.00,0.0669
807.00,0.0669
806.00,0.0668
805.00,0.0666
804.00,0.0665
803.00,0.0666
802.00,0.0668
801.00,0.0672
800.00,0.0677
799.00,0.0681
798.00,0.0683
797.00,0.0683
796.00,0.0681
795.00,0.0679
794.00,0.0678
793.00,0.0678
792.00,0.0679
791.00,0.0682
790.00,0.0685
789.00,0.0687
788.00,0.0687
787.00,0.0687
786.00,0.0688
785.00,0.0691
784.00,0.0694
783.00,0.0697
782.00,0.0698
781.00,0.0698
780.00,0.0698
779.00,0.0699
778.00,0.0699
777.00,0.0701
776.00,0.0702
775.00,0.0702
774.00,0.0700
773.00,0.0698
772.00,0.0697
771.00,0.0698
770.00,0.0699
769.00,0.0702
768.00,0.0704
767.00,0.0705
766.00,0.0704
765.00,0.0702
764.00,0.0701
763.00,0.0700
762.00,0.0699
761.00,0.0697
760.00,0.0697
759.00,0.0701
758.00,0.0705
757.00,0.0709
756.00,0.0710
755.00,0.0709
754.00,0.0708
753.00,0.0708
752.00,0.0709
751.00,0.0711
750.00,0.0714
749.00,0.0717
748.00,0.0717
747.00,0.0716
746.00,0.0713
745.00,0.0711
744.00,0.0710
743.00,0.0710
742.00,0.0711
741.00,0.0711
740.00,0.0709
739.00,0.0707
738.00,0.0705
737.00,0.0704
736.00,0.0704
735.00,0.0703
734.00,0.0703
733.00,0.0704
732.00,0.0704
731.00,0.0705
730.00,0.0705
729.00,0.0707
728.00,0.0710
727.00,0.0713
726.00,0.0717
725.00,0.0718
724.00,0.0718
723.00,0.0716
722.00,0.0714
721.00,0.0714
720.00,0.0715
719.00,0.0716
718.00,0.0717
717.00,0.0717
716.00,0.0717
715.00,0.0715
714.00,0.0714
713.00,0.0716
712.00,0.0718
711.00,0.0721
710.00,0.0722
709.00,0.0721
708.00,0.0721
707.00,0.0722
706.00,0.0724
705.00,0.0728
704.00,0.0733
703.00,0.0739
702.00,0.0741
701.00,0.0741
700.00,0.0739
699.00,0.0738
698.00,0.0739
697.00,0.0741
696.00,0.0744
695.00,0.0746
694.00,0.0748
693.00,0.0751
692.00,0.0752
691.00,0.0754
690.00,0.0756
689.00,0.0757
688.00,0.0756
687.00,0.0755
686.00,0.0754
685.00,0.0753
684.00,0.0752
683.00,0.0749
682.00,0.0747
681.00,0.0748
680.00,0.0751
679.00,0.0756
678.00,0.0759
677.00,0.0763
676.00,0.0765
675.00,0.0766
674.00,0.0766
673.00,0.0765
672.00,0.0763
671.00,0.0762
670.00,0.0763
669.00,0.0770
668.00,0.0780
667.00,0.0783
666.00,0.0782
665.00,0.0781
664.00,0.0779
663.00,0.0776
662.00,0.0771
661.00,0.0765
660.00,0.0759
659.00,0.0757
658.00,0.0760
657.00,0.0767
656.00,0.0776
655.00,0.0782
654.00,0.0780
653.00,0.0773
652.00,0.0766
651.00,0.0762
650.00,0.0763
