Created as New Dataset,Monday, April 03 2023
cm-1,A
4000.00,0.0041
3999.00,0.0041
3998.00,0.0041
3997.00,0.0041
3996.00,0.0041
3995.00,0.0040
3994.00,0.0040
3993.00,0.0040
3992.00,0.0040
3991.00,0.0040
3990.00,0.0040
3989.00,0.0040
3988.00,0.0039
3987.00,0.0039
3986.00,0.0039
3985.00,0.0039
3984.00,0.0039
3983.00,0.0039
3982.00,0.0039
3981.00,0.0039
3980.00,0.0039
3979.00,0.0039
3978.00,0.0039
3977.00,0.0039
3976.00,0.0038
3975.00,0.0038
3974.00,0.0038
3973.00,0.0039
3972.00,0.0039
3971.00,0.0040
3970.00,0.0040
3969.00,0.0040
3968.00,0.0040
3967.00,0.0039
3966.00,0.0039
3965.00,0.0039
3964.00,0.0039
3963.00,0.0040
3962.00,0.0040
3961.00,0.0040
3960.00,0.0039
3959.00,0.0038
3958.00,0.0038
3957.00,0.0038
3956.00,0.0038
3955.00,0.0038
3954.00,0.0038
3953.00,0.0038
3952.00,0.0038
3951.00,0.0039
3950.00,0.0040
3949.00,0.0041
3948.00,0.0041
3947.00,0.0042
3946.00,0.0042
3945.00,0.0041
3944.00,0.0040
3943.00,0.0039
3942.00,0.0038
3941.00,0.0038
3940.00,0.0038
3939.00,0.0038
3938.00,0.0038
3937.00,0.0038
3936.00,0.0038
3935.00,0.0039
3934.00,0.0039
3933.00,0.0039
3932.00,0.0039
3931.00,0.0039
3930.00,0.0040
3929.00,0.0040
3928.00,0.0040
3927.00,0.0040
3926.00,0.0040
3925.00,0.0040
3924.00,0.0040
3923.00,0.0040
3922.00,0.0040
3921.00,0.0040
3920.00,0.0039
3919.00,0.0039
3918.00,0.0040
3917.00,0.0040
3916.00,0.0040
3915.00,0.0040
3914.00,0.0039
3913.00,0.0039
3912.00,0.0038
3911.00,0.0038
3910.00,0.0038
3909.00,0.0039
3908.00,0.0039
3907.00,0.0040
3906.00,0.0040
3905.00,0.0041
3904.00,0.0041
3903.00,0.0043
3902.00,0.0044
3901.00,0.0045
3900.00,0.0044
3899.00,0.0043
3898.00,0.0041
3897.00,0.0040
3896.00,0.0039
3895.00,0.0039
3894.00,0.0039
3893.00,0.0039
3892.00,0.0039
3891.00,0.0038
3890.00,0.0038
3889.00,0.0038
3888.00,0.0039
3887.00,0.0039
3886.00,0.0038
3885.00,0.0038
3884.00,0.0039
3883.00,0.0040
3882.00,0.0040
3881.00,0.0039
3880.00,0.0038
3879.00,0.0038
3878.00,0.0040
3877.00,0.0041
3876.00,0.0041
3875.00,0.0040
3874.00,0.0039
3873.00,0.0040
3872.00,0.0041
3871.00,0.0042
3870.00,0.0041
3869.00,0.0041
3868.00,0.0041
3867.00,0.0041
3866.00,0.0041
3865.00,0.0040
3864.00,0.0040
3863.00,0.0041
3862.00,0.0041
3861.00,0.0041
3860.00,0.0041
3859.00,0.0041
3858.00,0.0041
3857.00,0.0041
3856.00,0.0041
3855.00,0.0040
3854.00,0.0040
3853.00,0.0040
3852.00,0.0041
3851.00,0.0041
3850.00,0.0039
3849.00,0.0038
3848.00,0.0037
3847.00,0.0037
3846.00,0.0038
3845.00,0.0038
3844.00,0.0038
3843.00,0.0038
3842.00,0.0039
3841.00,0.0041
3840.00,0.0042
3839.00,0.0042
3838.00,0.0041
3837.00,0.0040
3836.00,0.0040
3835.00,0.0040
3834.00,0.0040
3833.00,0.0040
3832.00,0.0040
3831.00,0.0039
3830.00,0.0039
3829.00,0.0039
3828.00,0.0038
3827.00,0.0037
3826.00,0.0037
3825.00,0.0038
3824.00,0.0041
3823.00,0.0042
3822.00,0.0042
3821.00,0.0041
3820.00,0.0041
3819.00,0.0042
3818.00,0.0042
3817.00,0.0040
3816.00,0.0039
3815.00,0.0039
3814.00,0.0039
3813.00,0.0039
3812.00,0.0039
3811.00,0.0038
3810.00,0.0037
3809.00,0.0037
3808.00,0.0037
3807.00,0.0037
3806.00,0.0038
3805.00,0.0041
3804.00,0.0043
3803.00,0.0043
3802.00,0.0041
3801.00,0.0040
3800.00,0.0040
3799.00,0.0040
3798.00,0.0039
3797.00,0.0038
3796.00,0.0036
3795.00,0.0036
3794.00,0.0037
3793.00,0.0037
3792.00,0.0037
3791.00,0.0037
3790.00,0.0038
3789.00,0.0038
3788.00,0.0039
3787.00,0.0039
3786.00,0.0039
3785.00,0.0039
3784.00,0.0040
3783.00,0.0040
3782.00,0.0040
3781.00,0.0040
3780.00,0.0039
3779.00,0.0038
3778.00,0.0038
3777.00,0.0038
3776.00,0.0038
3775.00,0.0038
3774.00,0.0038
3773.00,0.0038
3772.00,0.0038
3771.00,0.0038
3770.00,0.0037
3769.00,0.0037
3768.00,0.0037
3767.00,0.0038
3766.00,0.0038
3765.00,0.0038
3764.00,0.0038
3763.00,0.0039
3762.00,0.0039
3761.00,0.0039
3760.00,0.0039
3759.00,0.0039
3758.00,0.0039
3757.00,0.0039
3756.00,0.0039
3755.00,0.0040
3754.00,0.0040
3753.00,0.0039
3752.00,0.0039
3751.00,0.0040
3750.00,0.0040
3749.00,0.0041
3748.00,0.0043
3747.00,0.0045
3746.00,0.0046
3745.00,0.0045
3744.00,0.0042
3743.00,0.0041
3742.00,0.0040
3741.00,0.0040
3740.00,0.0041
3739.00,0.0041
3738.00,0.0042
3737.00,0.0043
3736.00,0.0043
3735.00,0.0042
3734.00,0.0042
3733.00,0.0041
3732.00,0.0040
3731.00,0.0039
3730.00,0.0038
3729.00,0.0039
3728.00,0.0039
3727.00,0.0039
3726.00,0.0039
3725.00,0.0039
3724.00,0.0039
3723.00,0.0039
3722.00,0.0039
3721.00,0.0039
3720.00,0.0040
3719.00,0.0039
3718.00,0.0038
3717.00,0.0037
3716.00,0.0037
3715.00,0.0038
3714.00,0.0039
3713.00,0.0039
3712.00,0.0040
3711.00,0.0040
3710.00,0.0039
3709.00,0.0039
3708.00,0.0039
3707.00,0.0039
3706.00,0.0040
3705.00,0.0040
3704.00,0.0040
3703.00,0.0039
3702.00,0.0038
3701.00,0.0038
3700.00,0.0038
3699.00,0.0038
3698.00,0.0038
3697.00,0.0037
3696.00,0.0036
3695.00,0.0036
3694.00,0.0037
3693.00,0.0037
3692.00,0.0039
3691.00,0.0040
3690.00,0.0042
3689.00,0.0043
3688.00,0.0042
3687.00,0.0041
3686.00,0.0040
3685.00,0.0039
3684.00,0.0039
3683.00,0.0038
3682.00,0.0038
3681.00,0.0037
3680.00,0.0036
3679.00,0.0036
3678.00,0.0037
3677.00,0.0037
3676.00,0.0037
3675.00,0.0037
3674.00,0.0038
3673.00,0.0039
3672.00,0.0039
3671.00,0.0039
3670.00,0.0039
3669.00,0.0040
3668.00,0.0040
3667.00,0.0039
3666.00,0.0039
3665.00,0.0038
3664.00,0.0038
3663.00,0.0038
3662.00,0.0038
3661.00,0.0039
3660.00,0.0040
3659.00,0.0041
3658.00,0.0042
3657.00,0.0042
3656.00,0.0041
3655.00,0.0042
3654.00,0.0043
3653.00,0.0045
3652.00,0.0045
3651.00,0.0043
3650.00,0.0042
3649.00,0.0043
3648.00,0.0044
3647.00,0.0044
3646.00,0.0044
3645.00,0.0044
3644.00,0.0044
3643.00,0.0044
3642.00,0.0044
3641.00,0.0044
3640.00,0.0044
3639.00,0.0044
3638.00,0.0045
3637.00,0.0045
3636.00,0.0045
3635.00,0.0045
3634.00,0.0046
3633.00,0.0046
3632.00,0.0047
3631.00,0.0047
3630.00,0.0047
3629.00,0.0048
3628.00,0.0049
3627.00,0.0049
3626.00,0.0048
3625.00,0.0047
3624.00,0.0046
3623.00,0.0046
3622.00,0.0047
3621.00,0.0048
3620.00,0.0050
3619.00,0.0051
3618.00,0.0052
3617.00,0.0052
3616.00,0.0052
3615.00,0.0051
3614.00,0.0050
3613.00,0.0050
3612.00,0.0050
3611.00,0.0051
3610.00,0.0051
3609.00,0.0052
3608.00,0.0052
3607.00,0.0052
3606.00,0.0051
3605.00,0.0050
3604.00,0.0050
3603.00,0.0050
3602.00,0.0051
3601.00,0.0052
3600.00,0.0053
3599.00,0.0053
3598.00,0.0053
3597.00,0.0053
3596.00,0.0052
3595.00,0.0052
3594.00,0.0051
3593.00,0.0051
3592.00,0.0051
3591.00,0.0052
3590.00,0.0053
3589.00,0.0053
3588.00,0.0053
3587.00,0.0054
3586.00,0.0055
3585.00,0.0055
3584.00,0.0055
3583.00,0.0054
3582.00,0.0053
3581.00,0.0053
3580.00,0.0052
3579.00,0.0052
3578.00,0.0052
3577.00,0.0052
3576.00,0.0053
3575.00,0.0053
3574.00,0.0053
3573.00,0.0054
3572.00,0.0054
3571.00,0.0055
3570.00,0.0055
3569.00,0.0055
3568.00,0.0056
3567.00,0.0057
3566.00,0.0058
3565.00,0.0057
3564.00,0.0056
3563.00,0.0055
3562.00,0.0055
3561.00,0.0055
3560.00,0.0055
3559.00,0.0056
3558.00,0.0056
3557.00,0.0057
3556.00,0.0057
3555.00,0.0057
3554.00,0.0057
3553.00,0.0057
3552.00,0.0058
3551.00,0.0059
3550.00,0.0059
3549.00,0.0060
3548.00,0.0059
3547.00,0.0060
3546.00,0.0060
3545.00,0.0061
3544.00,0.0060
3543.00,0.0060
3542.00,0.0060
3541.00,0.0059
3540.00,0.0058
3539.00,0.0057
3538.00,0.0056
3537.00,0.0056
3536.00,0.0056
3535.00,0.0056
3534.00,0.0057
3533.00,0.0058
3532.00,0.0059
3531.00,0.0059
3530.00,0.0058
3529.00,0.0057
3528.00,0.0056
3527.00,0.0056
3526.00,0.0057
3525.00,0.0059
3524.00,0.0061
3523.00,0.0062
3522.00,0.0062
3521.00,0.0061
3520.00,0.0059
3519.00,0.0058
3518.00,0.0056
3517.00,0.0056
3516.00,0.0056
3515.00,0.0056
3514.00,0.0057
3513.00,0.0058
3512.00,0.0059
3511.00,0.0059
3510.00,0.0059
3509.00,0.0058
3508.00,0.0058
3507.00,0.0059
3506.00,0.0059
3505.00,0.0060
3504.00,0.0060
3503.00,0.0061
3502.00,0.0061
3501.00,0.0061
3500.00,0.0061
3499.00,0.0061
3498.00,0.0061
3497.00,0.0061
3496.00,0.0061
3495.00,0.0061
3494.00,0.0060
3493.00,0.0060
3492.00,0.0060
3491.00,0.0060
3490.00,0.0059
3489.00,0.0059
3488.00,0.0059
3487.00,0.0059
3486.00,0.0059
3485.00,0.0059
3484.00,0.0059
3483.00,0.0059
3482.00,0.0059
3481.00,0.0059
3480.00,0.0060
3479.00,0.0060
3478.00,0.0060
3477.00,0.0060
3476.00,0.0060
3475.00,0.0061
3474.00,0.0061
3473.00,0.0062
3472.00,0.0062
3471.00,0.0062
3470.00,0.0062
3469.00,0.0062
3468.00,0.0062
3467.00,0.0062
3466.00,0.0063
3465.00,0.0063
3464.00,0.0063
3463.00,0.0063
3462.00,0.0061
3461.00,0.0060
3460.00,0.0060
3459.00,0.0061
3458.00,0.0061
3457.00,0.0062
3456.00,0.0061
3455.00,0.0060
3454.00,0.0060
3453.00,0.0061
3452.00,0.0061
3451.00,0.0062
3450.00,0.0063
3449.00,0.0063
3448.00,0.0062
3447.00,0.0062
3446.00,0.0062
3445.00,0.0062
3444.00,0.0063
3443.00,0.0063
3442.00,0.0062
3441.00,0.0061
3440.00,0.0060
3439.00,0.0059
3438.00,0.0059
3437.00,0.0060
3436.00,0.0060
3435.00,0.0060
3434.00,0.0059
3433.00,0.0059
3432.00,0.0059
3431.00,0.0060
3430.00,0.0060
3429.00,0.0060
3428.00,0.0059
3427.00,0.0060
3426.00,0.0060
3425.00,0.0062
3424.00,0.0063
3423.00,0.0063
3422.00,0.0063
3421.00,0.0063
3420.00,0.0062
3419.00,0.0062
3418.00,0.0062
3417.00,0.0062
3416.00,0.0061
3415.00,0.0061
3414.00,0.0060
3413.00,0.0060
3412.00,0.0061
3411.00,0.0061
3410.00,0.0061
3409.00,0.0061
3408.00,0.0062
3407.00,0.0062
3406.00,0.0062
3405.00,0.0062
3404.00,0.0061
3403.00,0.0061
3402.00,0.0061
3401.00,0.0061
3400.00,0.0062
3399.00,0.0062
3398.00,0.0062
3397.00,0.0062
3396.00,0.0061
3395.00,0.0060
3394.00,0.0060
3393.00,0.0061
3392.00,0.0061
3391.00,0.0062
3390.00,0.0062
3389.00,0.0062
3388.00,0.0062
3387.00,0.0061
3386.00,0.0061
3385.00,0.0061
3384.00,0.0061
3383.00,0.0062
3382.00,0.0062
3381.00,0.0062
3380.00,0.0062
3379.00,0.0062
3378.00,0.0062
3377.00,0.0062
3376.00,0.0062
3375.00,0.0061
3374.00,0.0061
3373.00,0.0061
3372.00,0.0060
3371.00,0.0060
3370.00,0.0060
3369.00,0.0060
3368.00,0.0060
3367.00,0.0060
3366.00,0.0060
3365.00,0.0060
3364.00,0.0059
3363.00,0.0060
3362.00,0.0061
3361.00,0.0062
3360.00,0.0063
3359.00,0.0063
3358.00,0.0063
3357.00,0.0062
3356.00,0.0062
3355.00,0.0062
3354.00,0.0062
3353.00,0.0062
3352.00,0.0063
3351.00,0.0063
3350.00,0.0063
3349.00,0.0062
3348.00,0.0062
3347.00,0.0062
3346.00,0.0061
3345.00,0.0061
3344.00,0.0061
3343.00,0.0060
3342.00,0.0061
3341.00,0.0061
3340.00,0.0062
3339.00,0.0062
3338.00,0.0062
3337.00,0.0062
3336.00,0.0062
3335.00,0.0062
3334.00,0.0062
3333.00,0.0061
3332.00,0.0061
3331.00,0.0060
3330.00,0.0059
3329.00,0.0059
3328.00,0.0059
3327.00,0.0060
3326.00,0.0061
3325.00,0.0062
3324.00,0.0062
3323.00,0.0062
3322.00,0.0062
3321.00,0.0062
3320.00,0.0061
3319.00,0.0061
3318.00,0.0061
3317.00,0.0061
3316.00,0.0061
3315.00,0.0061
3314.00,0.0061
3313.00,0.0061
3312.00,0.0061
3311.00,0.0060
3310.00,0.0061
3309.00,0.0061
3308.00,0.0062
3307.00,0.0063
3306.00,0.0063
3305.00,0.0062
3304.00,0.0062
3303.00,0.0061
3302.00,0.0060
3301.00,0.0060
3300.00,0.0060
3299.00,0.0060
3298.00,0.0061
3297.00,0.0061
3296.00,0.0062
3295.00,0.0062
3294.00,0.0062
3293.00,0.0062
3292.00,0.0062
3291.00,0.0061
3290.00,0.0061
3289.00,0.0061
3288.00,0.0061
3287.00,0.0062
3286.00,0.0062
3285.00,0.0063
3284.00,0.0063
3283.00,0.0063
3282.00,0.0062
3281.00,0.0061
3280.00,0.0061
3279.00,0.0061
3278.00,0.0061
3277.00,0.0061
3276.00,0.0061
3275.00,0.0061
3274.00,0.0061
3273.00,0.0061
3272.00,0.0061
3271.00,0.0062
3270.00,0.0062
3269.00,0.0063
3268.00,0.0063
3267.00,0.0063
3266.00,0.0062
3265.00,0.0062
3264.00,0.0061
3263.00,0.0060
3262.00,0.0060
3261.00,0.0061
3260.00,0.0061
3259.00,0.0062
3258.00,0.0061
3257.00,0.0061
3256.00,0.0060
3255.00,0.0060
3254.00,0.0060
3253.00,0.0061
3252.00,0.0061
3251.00,0.0061
3250.00,0.0061
3249.00,0.0061
3248.00,0.0061
3247.00,0.0061
3246.00,0.0061
3245.00,0.0061
3244.00,0.0061
3243.00,0.0061
3242.00,0.0061
3241.00,0.0061
3240.00,0.0061
3239.00,0.0061
3238.00,0.0061
3237.00,0.0062
3236.00,0.0063
3235.00,0.0063
3234.00,0.0064
3233.00,0.0063
3232.00,0.0063
3231.00,0.0062
3230.00,0.0061
3229.00,0.0060
3228.00,0.0060
3227.00,0.0060
3226.00,0.0060
3225.00,0.0060
3224.00,0.0060
3223.00,0.0060
3222.00,0.0060
3221.00,0.0060
3220.00,0.0060
3219.00,0.0060
3218.00,0.0060
3217.00,0.0060
3216.00,0.0061
3215.00,0.0062
3214.00,0.0062
3213.00,0.0062
3212.00,0.0061
3211.00,0.0060
3210.00,0.0060
3209.00,0.0059
3208.00,0.0059
3207.00,0.0060
3206.00,0.0060
3205.00,0.0061
3204.00,0.0061
3203.00,0.0062
3202.00,0.0062
3201.00,0.0062
3200.00,0.0061
3199.00,0.0061
3198.00,0.0061
3197.00,0.0061
3196.00,0.0061
3195.00,0.0060
3194.00,0.0060
3193.00,0.0060
3192.00,0.0060
3191.00,0.0059
3190.00,0.0059
3189.00,0.0059
3188.00,0.0058
3187.00,0.0058
3186.00,0.0058
3185.00,0.0058
3184.00,0.0059
3183.00,0.0060
3182.00,0.0061
3181.00,0.0061
3180.00,0.0060
3179.00,0.0060
3178.00,0.0059
3177.00,0.0059
3176.00,0.0058
3175.00,0.0058
3174.00,0.0059
3173.00,0.0059
3172.00,0.0059
3171.00,0.0059
3170.00,0.0059
3169.00,0.0059
3168.00,0.0059
3167.00,0.0059
3166.00,0.0060
3165.00,0.0060
3164.00,0.0061
3163.00,0.0061
3162.00,0.0060
3161.00,0.0059
3160.00,0.0058
3159.00,0.0057
3158.00,0.0057
3157.00,0.0056
3156.00,0.0057
3155.00,0.0058
3154.00,0.0059
3153.00,0.0059
3152.00,0.0059
3151.00,0.0059
3150.00,0.0058
3149.00,0.0058
3148.00,0.0058
3147.00,0.0058
3146.00,0.0058
3145.00,0.0058
3144.00,0.0058
3143.00,0.0058
3142.00,0.0058
3141.00,0.0058
3140.00,0.0058
3139.00,0.0058
3138.00,0.0058
3137.00,0.0058
3136.00,0.0059
3135.00,0.0059
3134.00,0.0059
3133.00,0.0058
3132.00,0.0059
3131.00,0.0059
3130.00,0.0059
3129.00,0.0059
3128.00,0.0059
3127.00,0.0059
3126.00,0.0059
3125.00,0.0059
3124.00,0.0059
3123.00,0.0059
3122.00,0.0058
3121.00,0.0058
3120.00,0.0058
3119.00,0.0058
3118.00,0.0059
3117.00,0.0058
3116.00,0.0058
3115.00,0.0058
3114.00,0.0057
3113.00,0.0057
3112.00,0.0057
3111.00,0.0057
3110.00,0.0058
3109.00,0.0058
3108.00,0.0058
3107.00,0.0058
3106.00,0.0059
3105.00,0.0059
3104.00,0.0059
3103.00,0.0058
3102.00,0.0058
3101.00,0.0057
3100.00,0.0057
3099.00,0.0057
3098.00,0.0057
3097.00,0.0057
3096.00,0.0058
3095.00,0.0059
3094.00,0.0059
3093.00,0.0059
3092.00,0.0059
3091.00,0.0058
3090.00,0.0058
3089.00,0.0057
3088.00,0.0056
3087.00,0.0056
3086.00,0.0057
3085.00,0.0058
3084.00,0.0058
3083.00,0.0058
3082.00,0.0058
3081.00,0.0058
3080.00,0.0058
3079.00,0.0058
3078.00,0.0058
3077.00,0.0058
3076.00,0.0058
3075.00,0.0058
3074.00,0.0058
3073.00,0.0058
3072.00,0.0059
3071.00,0.0059
3070.00,0.0059
3069.00,0.0059
3068.00,0.0059
3067.00,0.0059
3066.00,0.0059
3065.00,0.0059
3064.00,0.0058
3063.00,0.0057
3062.00,0.0057
3061.00,0.0057
3060.00,0.0057
3059.00,0.0057
3058.00,0.0057
3057.00,0.0058
3056.00,0.0058
3055.00,0.0058
3054.00,0.0058
3053.00,0.0057
3052.00,0.0057
3051.00,0.0058
3050.00,0.0059
3049.00,0.0059
3048.00,0.0060
3047.00,0.0060
3046.00,0.0059
3045.00,0.0059
3044.00,0.0058
3043.00,0.0058
3042.00,0.0057
3041.00,0.0057
3040.00,0.0057
3039.00,0.0057
3038.00,0.0057
3037.00,0.0058
3036.00,0.0058
3035.00,0.0058
3034.00,0.0058
3033.00,0.0058
3032.00,0.0058
3031.00,0.0058
3030.00,0.0058
3029.00,0.0057
3028.00,0.0057
3027.00,0.0057
3026.00,0.0057
3025.00,0.0057
3024.00,0.0057
3023.00,0.0057
3022.00,0.0058
3021.00,0.0058
3020.00,0.0057
3019.00,0.0057
3018.00,0.0056
3017.00,0.0056
3016.00,0.0056
3015.00,0.0056
3014.00,0.0056
3013.00,0.0056
3012.00,0.0055
3011.00,0.0055
3010.00,0.0055
3009.00,0.0054
3008.00,0.0053
3007.00,0.0052
3006.00,0.0051
3005.00,0.0051
3004.00,0.0050
3003.00,0.0049
3002.00,0.0048
3001.00,0.0047
3000.00,0.0046
2999.00,0.0045
2998.00,0.0045
2997.00,0.0044
2996.00,0.0043
2995.00,0.0043
2994.00,0.0043
2993.00,0.0043
2992.00,0.0042
2991.00,0.0042
2990.00,0.0041
2989.00,0.0041
2988.00,0.0040
2987.00,0.0039
2986.00,0.0037
2985.00,0.0035
2984.00,0.0033
2983.00,0.0031
2982.00,0.0031
2981.00,0.0032
2980.00,0.0033
2979.00,0.0035
2978.00,0.0038
2977.00,0.0040
2976.00,0.0042
2975.00,0.0044
2974.00,0.0045
2973.00,0.0045
2972.00,0.0046
2971.00,0.0047
2970.00,0.0050
2969.00,0.0052
2968.00,0.0055
2967.00,0.0058
2966.00,0.0060
2965.00,0.0062
2964.00,0.0064
2963.00,0.0067
2962.00,0.0069
2961.00,0.0071
2960.00,0.0072
2959.00,0.0073
2958.00,0.0073
2957.00,0.0075
2956.00,0.0076
2955.00,0.0078
2954.00,0.0079
2953.00,0.0080
2952.00,0.0080
2951.00,0.0081
2950.00,0.0081
2949.00,0.0081
2948.00,0.0082
2947.00,0.0083
2946.00,0.0084
2945.00,0.0086
2944.00,0.0089
2943.00,0.0092
2942.00,0.0095
2941.00,0.0098
2940.00,0.0102
2939.00,0.0105
2938.00,0.0108
2937.00,0.0112
2936.00,0.0117
2935.00,0.0121
2934.00,0.0126
2933.00,0.0130
2932.00,0.0134
2931.00,0.0138
2930.00,0.0142
2929.00,0.0146
2928.00,0.0149
2927.00,0.0152
2926.00,0.0154
2925.00,0.0154
2924.00,0.0154
2923.00,0.0153
2922.00,0.0151
2921.00,0.0147
2920.00,0.0142
2919.00,0.0136
2918.00,0.0130
2917.00,0.0125
2916.00,0.0120
2915.00,0.0116
2914.00,0.0112
2913.00,0.0109
2912.00,0.0105
2911.00,0.0103
2910.00,0.0100
2909.00,0.0097
2908.00,0.0095
2907.00,0.0092
2906.00,0.0090
2905.00,0.0089
2904.00,0.0087
2903.00,0.0085
2902.00,0.0084
2901.00,0.0082
2900.00,0.0081
2899.00,0.0080
2898.00,0.0078
2897.00,0.0077
2896.00,0.0076
2895.00,0.0075
2894.00,0.0073
2893.00,0.0072
2892.00,0.0071
2891.00,0.0070
2890.00,0.0069
2889.00,0.0068
2888.00,0.0068
2887.00,0.0067
2886.00,0.0066
2885.00,0.0065
2884.00,0.0064
2883.00,0.0063
2882.00,0.0063
2881.00,0.0063
2880.00,0.0064
2879.00,0.0065
2878.00,0.0067
2877.00,0.0068
2876.00,0.0068
2875.00,0.0069
2874.00,0.0069
2873.00,0.0070
2872.00,0.0070
2871.00,0.0071
2870.00,0.0071
2869.00,0.0072
2868.00,0.0073
2867.00,0.0074
2866.00,0.0076
2865.00,0.0077
2864.00,0.0080
2863.00,0.0082
2862.00,0.0085
2861.00,0.0089
2860.00,0.0093
2859.00,0.0097
2858.00,0.0102
2857.00,0.0105
2856.00,0.0108
2855.00,0.0109
2854.00,0.0109
2853.00,0.0108
2852.00,0.0107
2851.00,0.0104
2850.00,0.0100
2849.00,0.0095
2848.00,0.0090
2847.00,0.0085
2846.00,0.0080
2845.00,0.0076
2844.00,0.0072
2843.00,0.0069
2842.00,0.0066
2841.00,0.0063
2840.00,0.0061
2839.00,0.0059
2838.00,0.0058
2837.00,0.0057
2836.00,0.0056
2835.00,0.0056
2834.00,0.0056
2833.00,0.0055
2832.00,0.0054
2831.00,0.0053
2830.00,0.0052
2829.00,0.0052
2828.00,0.0052
2827.00,0.0052
2826.00,0.0052
2825.00,0.0051
2824.00,0.0051
2823.00,0.0051
2822.00,0.0050
2821.00,0.0049
2820.00,0.0048
2819.00,0.0048
2818.00,0.0047
2817.00,0.0047
2816.00,0.0047
2815.00,0.0047
2814.00,0.0047
2813.00,0.0047
2812.00,0.0047
2811.00,0.0047
2810.00,0.0046
2809.00,0.0046
2808.00,0.0046
2807.00,0.0046
2806.00,0.0046
2805.00,0.0046
2804.00,0.0046
2803.00,0.0046
2802.00,0.0046
2801.00,0.0046
2800.00,0.0046
2799.00,0.0046
2798.00,0.0045
2797.00,0.0045
2796.00,0.0045
2795.00,0.0045
2794.00,0.0045
2793.00,0.0045
2792.00,0.0045
2791.00,0.0045
2790.00,0.0045
2789.00,0.0045
2788.00,0.0045
2787.00,0.0045
2786.00,0.0044
2785.00,0.0044
2784.00,0.0044
2783.00,0.0043
2782.00,0.0043
2781.00,0.0042
2780.00,0.0041
2779.00,0.0041
2778.00,0.0042
2777.00,0.0042
2776.00,0.0043
2775.00,0.0043
2774.00,0.0043
2773.00,0.0043
2772.00,0.0043
2771.00,0.0042
2770.00,0.0041
2769.00,0.0041
2768.00,0.0041
2767.00,0.0041
2766.00,0.0041
2765.00,0.0041
2764.00,0.0041
2763.00,0.0041
2762.00,0.0041
2761.00,0.0041
2760.00,0.0041
2759.00,0.0041
2758.00,0.0041
2757.00,0.0041
2756.00,0.0041
2755.00,0.0041
2754.00,0.0041
2753.00,0.0040
2752.00,0.0040
2751.00,0.0041
2750.00,0.0041
2749.00,0.0041
2748.00,0.0041
2747.00,0.0041
2746.00,0.0042
2745.00,0.0042
2744.00,0.0042
2743.00,0.0042
2742.00,0.0041
2741.00,0.0041
2740.00,0.0041
2739.00,0.0040
2738.00,0.0040
2737.00,0.0039
2736.00,0.0039
2735.00,0.0039
2734.00,0.0040
2733.00,0.0040
2732.00,0.0041
2731.00,0.0041
2730.00,0.0040
2729.00,0.0040
2728.00,0.0040
2727.00,0.0040
2726.00,0.0040
2725.00,0.0040
2724.00,0.0040
2723.00,0.0040
2722.00,0.0039
2721.00,0.0039
2720.00,0.0039
2719.00,0.0039
2718.00,0.0039
2717.00,0.0040
2716.00,0.0040
2715.00,0.0040
2714.00,0.0040
2713.00,0.0040
2712.00,0.0040
2711.00,0.0040
2710.00,0.0039
2709.00,0.0039
2708.00,0.0039
2707.00,0.0039
2706.00,0.0039
2705.00,0.0039
2704.00,0.0039
2703.00,0.0039
2702.00,0.0039
2701.00,0.0039
2700.00,0.0039
2699.00,0.0039
2698.00,0.0039
2697.00,0.0039
2696.00,0.0038
2695.00,0.0038
2694.00,0.0039
2693.00,0.0039
2692.00,0.0039
2691.00,0.0039
2690.00,0.0039
2689.00,0.0039
2688.00,0.0039
2687.00,0.0039
2686.00,0.0039
2685.00,0.0039
2684.00,0.0039
2683.00,0.0039
2682.00,0.0039
2681.00,0.0039
2680.00,0.0038
2679.00,0.0038
2678.00,0.0038
2677.00,0.0037
2676.00,0.0037
2675.00,0.0037
2674.00,0.0037
2673.00,0.0037
2672.00,0.0037
2671.00,0.0037
2670.00,0.0036
2669.00,0.0036
2668.00,0.0037
2667.00,0.0037
2666.00,0.0037
2665.00,0.0038
2664.00,0.0038
2663.00,0.0038
2662.00,0.0038
2661.00,0.0038
2660.00,0.0038
2659.00,0.0038
2658.00,0.0038
2657.00,0.0038
2656.00,0.0038
2655.00,0.0038
2654.00,0.0038
2653.00,0.0038
2652.00,0.0038
2651.00,0.0039
2650.00,0.0039
2649.00,0.0039
2648.00,0.0039
2647.00,0.0038
2646.00,0.0038
2645.00,0.0038
2644.00,0.0038
2643.00,0.0038
2642.00,0.0038
2641.00,0.0038
2640.00,0.0038
2639.00,0.0038
2638.00,0.0038
2637.00,0.0038
2636.00,0.0037
2635.00,0.0037
2634.00,0.0037
2633.00,0.0038
2632.00,0.0038
2631.00,0.0038
2630.00,0.0037
2629.00,0.0036
2628.00,0.0036
2627.00,0.0036
2626.00,0.0036
2625.00,0.0037
2624.00,0.0038
2623.00,0.0038
2622.00,0.0039
2621.00,0.0039
2620.00,0.0039
2619.00,0.0038
2618.00,0.0038
2617.00,0.0038
2616.00,0.0037
2615.00,0.0037
2614.00,0.0036
2613.00,0.0037
2612.00,0.0038
2611.00,0.0039
2610.00,0.0038
2609.00,0.0037
2608.00,0.0036
2607.00,0.0036
2606.00,0.0037
2605.00,0.0038
2604.00,0.0038
2603.00,0.0039
2602.00,0.0039
2601.00,0.0038
2600.00,0.0038
2599.00,0.0037
2598.00,0.0037
2597.00,0.0036
2596.00,0.0036
2595.00,0.0035
2594.00,0.0035
2593.00,0.0036
2592.00,0.0037
2591.00,0.0037
2590.00,0.0037
2589.00,0.0038
2588.00,0.0037
2587.00,0.0037
2586.00,0.0036
2585.00,0.0036
2584.00,0.0036
2583.00,0.0036
2582.00,0.0036
2581.00,0.0037
2580.00,0.0037
2579.00,0.0038
2578.00,0.0038
2577.00,0.0037
2576.00,0.0036
2575.00,0.0036
2574.00,0.0036
2573.00,0.0036
2572.00,0.0036
2571.00,0.0036
2570.00,0.0035
2569.00,0.0035
2568.00,0.0035
2567.00,0.0036
2566.00,0.0037
2565.00,0.0038
2564.00,0.0037
2563.00,0.0037
2562.00,0.0038
2561.00,0.0038
2560.00,0.0038
2559.00,0.0038
2558.00,0.0038
2557.00,0.0039
2556.00,0.0039
2555.00,0.0038
2554.00,0.0038
2553.00,0.0037
2552.00,0.0036
2551.00,0.0035
2550.00,0.0034
2549.00,0.0033
2548.00,0.0032
2547.00,0.0032
2546.00,0.0032
2545.00,0.0033
2544.00,0.0034
2543.00,0.0034
2542.00,0.0034
2541.00,0.0033
2540.00,0.0031
2539.00,0.0030
2538.00,0.0030
2537.00,0.0030
2536.00,0.0031
2535.00,0.0032
2534.00,0.0033
2533.00,0.0034
2532.00,0.0034
2531.00,0.0034
2530.00,0.0033
2529.00,0.0032
2528.00,0.0032
2527.00,0.0031
2526.00,0.0031
2525.00,0.0030
2524.00,0.0030
2523.00,0.0030
2522.00,0.0031
2521.00,0.0031
2520.00,0.0032
2519.00,0.0032
2518.00,0.0033
2517.00,0.0034
2516.00,0.0035
2515.00,0.0035
2514.00,0.0034
2513.00,0.0033
2512.00,0.0032
2511.00,0.0033
2510.00,0.0033
2509.00,0.0034
2508.00,0.0034
2507.00,0.0034
2506.00,0.0033
2505.00,0.0033
2504.00,0.0033
2503.00,0.0033
2502.00,0.0033
2501.00,0.0034
2500.00,0.0035
2499.00,0.0035
2498.00,0.0035
2497.00,0.0035
2496.00,0.0035
2495.00,0.0035
2494.00,0.0035
2493.00,0.0036
2492.00,0.0035
2491.00,0.0035
2490.00,0.0035
2489.00,0.0035
2488.00,0.0035
2487.00,0.0035
2486.00,0.0034
2485.00,0.0033
2484.00,0.0032
2483.00,0.0032
2482.00,0.0033
2481.00,0.0034
2480.00,0.0034
2479.00,0.0035
2478.00,0.0034
2477.00,0.0034
2476.00,0.0033
2475.00,0.0033
2474.00,0.0033
2473.00,0.0033
2472.00,0.0033
2471.00,0.0034
2470.00,0.0033
2469.00,0.0033
2468.00,0.0032
2467.00,0.0032
2466.00,0.0031
2465.00,0.0031
2464.00,0.0031
2463.00,0.0031
2462.00,0.0031
2461.00,0.0031
2460.00,0.0031
2459.00,0.0032
2458.00,0.0032
2457.00,0.0032
2456.00,0.0032
2455.00,0.0033
2454.00,0.0034
2453.00,0.0034
2452.00,0.0035
2451.00,0.0035
2450.00,0.0034
2449.00,0.0033
2448.00,0.0033
2447.00,0.0033
2446.00,0.0033
2445.00,0.0032
2444.00,0.0032
2443.00,0.0031
2442.00,0.0031
2441.00,0.0031
2440.00,0.0032
2439.00,0.0032
2438.00,0.0032
2437.00,0.0031
2436.00,0.0031
2435.00,0.0031
2434.00,0.0030
2433.00,0.0030
2432.00,0.0030
2431.00,0.0031
2430.00,0.0031
2429.00,0.0031
2428.00,0.0032
2427.00,0.0032
2426.00,0.0032
2425.00,0.0032
2424.00,0.0032
2423.00,0.0031
2422.00,0.0031
2421.00,0.0031
2420.00,0.0031
2419.00,0.0031
2418.00,0.0031
2417.00,0.0031
2416.00,0.0030
2415.00,0.0030
2414.00,0.0031
2413.00,0.0031
2412.00,0.0031
2411.00,0.0032
2410.00,0.0031
2409.00,0.0031
2408.00,0.0031
2407.00,0.0031
2406.00,0.0030
2405.00,0.0030
2404.00,0.0030
2403.00,0.0030
2402.00,0.0030
2401.00,0.0030
2400.00,0.0030
2399.00,0.0030
2398.00,0.0030
2397.00,0.0030
2396.00,0.0029
2395.00,0.0029
2394.00,0.0029
2393.00,0.0028
2392.00,0.0028
2391.00,0.0028
2390.00,0.0028
2389.00,0.0028
2388.00,0.0028
2387.00,0.0028
2386.00,0.0028
2385.00,0.0028
2384.00,0.0028
2383.00,0.0027
2382.00,0.0027
2381.00,0.0028
2380.00,0.0029
2379.00,0.0029
2378.00,0.0029
2377.00,0.0028
2376.00,0.0027
2375.00,0.0027
2374.00,0.0028
2373.00,0.0028
2372.00,0.0029
2371.00,0.0028
2370.00,0.0026
2369.00,0.0024
2368.00,0.0022
2367.00,0.0022
2366.00,0.0025
2365.00,0.0027
2364.00,0.0028
2363.00,0.0026
2362.00,0.0026
2361.00,0.0027
2360.00,0.0029
2359.00,0.0030
2358.00,0.0029
2357.00,0.0028
2356.00,0.0027
2355.00,0.0027
2354.00,0.0026
2353.00,0.0026
2352.00,0.0026
2351.00,0.0026
2350.00,0.0027
2349.00,0.0027
2348.00,0.0027
2347.00,0.0026
2346.00,0.0024
2345.00,0.0025
2344.00,0.0027
2343.00,0.0029
2342.00,0.0031
2341.00,0.0031
2340.00,0.0030
2339.00,0.0028
2338.00,0.0025
2337.00,0.0023
2336.00,0.0024
2335.00,0.0025
2334.00,0.0026
2333.00,0.0027
2332.00,0.0027
2331.00,0.0027
2330.00,0.0026
2329.00,0.0026
2328.00,0.0026
2327.00,0.0027
2326.00,0.0028
2325.00,0.0027
2324.00,0.0026
2323.00,0.0025
2322.00,0.0025
2321.00,0.0025
2320.00,0.0025
2319.00,0.0025
2318.00,0.0024
2317.00,0.0024
2316.00,0.0024
2315.00,0.0024
2314.00,0.0024
2313.00,0.0025
2312.00,0.0026
2311.00,0.0027
2310.00,0.0028
2309.00,0.0029
2308.00,0.0029
2307.00,0.0029
2306.00,0.0028
2305.00,0.0027
2304.00,0.0027
2303.00,0.0026
2302.00,0.0025
2301.00,0.0025
2300.00,0.0026
2299.00,0.0026
2298.00,0.0027
2297.00,0.0027
2296.00,0.0027
2295.00,0.0027
2294.00,0.0027
2293.00,0.0028
2292.00,0.0030
2291.00,0.0030
2290.00,0.0030
2289.00,0.0029
2288.00,0.0029
2287.00,0.0030
2286.00,0.0032
2285.00,0.0033
2284.00,0.0034
2283.00,0.0034
2282.00,0.0034
2281.00,0.0033
2280.00,0.0033
2279.00,0.0033
2278.00,0.0033
2277.00,0.0033
2276.00,0.0033
2275.00,0.0031
2274.00,0.0030
2273.00,0.0028
2272.00,0.0028
2271.00,0.0028
2270.00,0.0028
2269.00,0.0028
2268.00,0.0029
2267.00,0.0029
2266.00,0.0029
2265.00,0.0030
2264.00,0.0031
2263.00,0.0032
2262.00,0.0033
2261.00,0.0033
2260.00,0.0033
2259.00,0.0032
2258.00,0.0030
2257.00,0.0027
2256.00,0.0026
2255.00,0.0026
2254.00,0.0026
2253.00,0.0027
2252.00,0.0028
2251.00,0.0028
2250.00,0.0029
2249.00,0.0029
2248.00,0.0029
2247.00,0.0029
2246.00,0.0031
2245.00,0.0032
2244.00,0.0033
2243.00,0.0032
2242.00,0.0031
2241.00,0.0030
2240.00,0.0029
2239.00,0.0028
2238.00,0.0027
2237.00,0.0027
2236.00,0.0026
2235.00,0.0026
2234.00,0.0028
2233.00,0.0029
2232.00,0.0029
2231.00,0.0028
2230.00,0.0027
2229.00,0.0026
2228.00,0.0027
2227.00,0.0027
2226.00,0.0027
2225.00,0.0026
2224.00,0.0025
2223.00,0.0024
2222.00,0.0023
2221.00,0.0023
2220.00,0.0024
2219.00,0.0025
2218.00,0.0026
2217.00,0.0027
2216.00,0.0028
2215.00,0.0029
2214.00,0.0030
2213.00,0.0030
2212.00,0.0029
2211.00,0.0027
2210.00,0.0026
2209.00,0.0027
2208.00,0.0028
2207.00,0.0028
2206.00,0.0027
2205.00,0.0026
2204.00,0.0026
2203.00,0.0026
2202.00,0.0026
2201.00,0.0027
2200.00,0.0026
2199.00,0.0027
2198.00,0.0027
2197.00,0.0027
2196.00,0.0026
2195.00,0.0024
2194.00,0.0022
2193.00,0.0022
2192.00,0.0022
2191.00,0.0023
2190.00,0.0023
2189.00,0.0023
2188.00,0.0024
2187.00,0.0026
2186.00,0.0028
2185.00,0.0029
2184.00,0.0028
2183.00,0.0025
2182.00,0.0024
2181.00,0.0023
2180.00,0.0024
2179.00,0.0026
2178.00,0.0029
2177.00,0.0030
2176.00,0.0030
2175.00,0.0029
2174.00,0.0028
2173.00,0.0027
2172.00,0.0026
2171.00,0.0027
2170.00,0.0029
2169.00,0.0031
2168.00,0.0033
2167.00,0.0033
2166.00,0.0034
2165.00,0.0035
2164.00,0.0038
2163.00,0.0040
2162.00,0.0041
2161.00,0.0038
2160.00,0.0033
2159.00,0.0027
2158.00,0.0022
2157.00,0.0020
2156.00,0.0020
2155.00,0.0022
2154.00,0.0024
2153.00,0.0026
2152.00,0.0025
2151.00,0.0023
2150.00,0.0020
2149.00,0.0019
2148.00,0.0020
2147.00,0.0023
2146.00,0.0027
2145.00,0.0029
2144.00,0.0030
2143.00,0.0030
2142.00,0.0030
2141.00,0.0030
2140.00,0.0030
2139.00,0.0029
2138.00,0.0028
2137.00,0.0026
2136.00,0.0024
2135.00,0.0022
2134.00,0.0021
2133.00,0.0021
2132.00,0.0021
2131.00,0.0021
2130.00,0.0022
2129.00,0.0023
2128.00,0.0025
2127.00,0.0027
2126.00,0.0027
2125.00,0.0026
2124.00,0.0025
2123.00,0.0023
2122.00,0.0023
2121.00,0.0023
2120.00,0.0024
2119.00,0.0024
2118.00,0.0024
2117.00,0.0023
2116.00,0.0022
2115.00,0.0021
2114.00,0.0020
2113.00,0.0019
2112.00,0.0020
2111.00,0.0022
2110.00,0.0025
2109.00,0.0026
2108.00,0.0027
2107.00,0.0028
2106.00,0.0027
2105.00,0.0027
2104.00,0.0027
2103.00,0.0027
2102.00,0.0027
2101.00,0.0026
2100.00,0.0023
2099.00,0.0021
2098.00,0.0020
2097.00,0.0020
2096.00,0.0021
2095.00,0.0022
2094.00,0.0023
2093.00,0.0023
2092.00,0.0023
2091.00,0.0023
2090.00,0.0022
2089.00,0.0022
2088.00,0.0022
2087.00,0.0023
2086.00,0.0024
2085.00,0.0025
2084.00,0.0026
2083.00,0.0027
2082.00,0.0027
2081.00,0.0026
2080.00,0.0026
2079.00,0.0026
2078.00,0.0026
2077.00,0.0026
2076.00,0.0026
2075.00,0.0027
2074.00,0.0027
2073.00,0.0026
2072.00,0.0026
2071.00,0.0027
2070.00,0.0027
2069.00,0.0027
2068.00,0.0025
2067.00,0.0024
2066.00,0.0023
2065.00,0.0024
2064.00,0.0025
2063.00,0.0027
2062.00,0.0028
2061.00,0.0027
2060.00,0.0026
2059.00,0.0023
2058.00,0.0022
2057.00,0.0022
2056.00,0.0023
2055.00,0.0024
2054.00,0.0025
2053.00,0.0027
2052.00,0.0029
2051.00,0.0029
2050.00,0.0028
2049.00,0.0026
2048.00,0.0024
2047.00,0.0024
2046.00,0.0025
2045.00,0.0028
2044.00,0.0031
2043.00,0.0033
2042.00,0.0032
2041.00,0.0029
2040.00,0.0026
2039.00,0.0025
2038.00,0.0026
2037.00,0.0030
2036.00,0.0033
2035.00,0.0033
2034.00,0.0032
2033.00,0.0031
2032.00,0.0033
2031.00,0.0036
2030.00,0.0038
2029.00,0.0037
2028.00,0.0034
2027.00,0.0031
2026.00,0.0028
2025.00,0.0026
2024.00,0.0023
2023.00,0.0020
2022.00,0.0018
2021.00,0.0017
2020.00,0.0017
2019.00,0.0016
2018.00,0.0015
2017.00,0.0014
2016.00,0.0016
2015.00,0.0019
2014.00,0.0022
2013.00,0.0024
2012.00,0.0024
2011.00,0.0023
2010.00,0.0023
2009.00,0.0024
2008.00,0.0025
2007.00,0.0026
2006.00,0.0025
2005.00,0.0023
2004.00,0.0022
2003.00,0.0023
2002.00,0.0025
2001.00,0.0028
2000.00,0.0029
1999.00,0.0028
1998.00,0.0027
1997.00,0.0027
1996.00,0.0029
1995.00,0.0031
1994.00,0.0033
1993.00,0.0034
1992.00,0.0033
1991.00,0.0031
1990.00,0.0027
1989.00,0.0025
1988.00,0.0023
1987.00,0.0023
1986.00,0.0024
1985.00,0.0025
1984.00,0.0026
1983.00,0.0028
1982.00,0.0028
1981.00,0.0027
1980.00,0.0026
1979.00,0.0023
1978.00,0.0020
1977.00,0.0017
1976.00,0.0016
1975.00,0.0018
1974.00,0.0021
1973.00,0.0024
1972.00,0.0023
1971.00,0.0022
1970.00,0.0021
1969.00,0.0022
1968.00,0.0023
1967.00,0.0022
1966.00,0.0020
1965.00,0.0020
1964.00,0.0021
1963.00,0.0022
1962.00,0.0024
1961.00,0.0024
1960.00,0.0025
1959.00,0.0026
1958.00,0.0026
1957.00,0.0025
1956.00,0.0023
1955.00,0.0021
1954.00,0.0021
1953.00,0.0022
1952.00,0.0023
1951.00,0.0022
1950.00,0.0021
1949.00,0.0020
1948.00,0.0020
1947.00,0.0021
1946.00,0.0021
1945.00,0.0021
1944.00,0.0019
1943.00,0.0017
1942.00,0.0016
1941.00,0.0016
1940.00,0.0016
1939.00,0.0015
1938.00,0.0015
1937.00,0.0016
1936.00,0.0016
1935.00,0.0016
1934.00,0.0015
1933.00,0.0015
1932.00,0.0016
1931.00,0.0017
1930.00,0.0019
1929.00,0.0021
1928.00,0.0022
1927.00,0.0022
1926.00,0.0022
1925.00,0.0022
1924.00,0.0022
1923.00,0.0022
1922.00,0.0022
1921.00,0.0022
1920.00,0.0020
1919.00,0.0018
1918.00,0.0017
1917.00,0.0017
1916.00,0.0018
1915.00,0.0019
1914.00,0.0019
1913.00,0.0020
1912.00,0.0020
1911.00,0.0020
1910.00,0.0020
1909.00,0.0018
1908.00,0.0017
1907.00,0.0017
1906.00,0.0018
1905.00,0.0018
1904.00,0.0019
1903.00,0.0019
1902.00,0.0019
1901.00,0.0019
1900.00,0.0019
1899.00,0.0019
1898.00,0.0020
1897.00,0.0020
1896.00,0.0018
1895.00,0.0017
1894.00,0.0016
1893.00,0.0017
1892.00,0.0018
1891.00,0.0018
1890.00,0.0018
1889.00,0.0019
1888.00,0.0018
1887.00,0.0018
1886.00,0.0017
1885.00,0.0018
1884.00,0.0018
1883.00,0.0018
1882.00,0.0018
1881.00,0.0017
1880.00,0.0017
1879.00,0.0017
1878.00,0.0017
1877.00,0.0017
1876.00,0.0017
1875.00,0.0018
1874.00,0.0019
1873.00,0.0020
1872.00,0.0020
1871.00,0.0020
1870.00,0.0020
1869.00,0.0019
1868.00,0.0019
1867.00,0.0019
1866.00,0.0019
1865.00,0.0018
1864.00,0.0018
1863.00,0.0017
1862.00,0.0016
1861.00,0.0016
1860.00,0.0015
1859.00,0.0015
1858.00,0.0015
1857.00,0.0016
1856.00,0.0017
1855.00,0.0017
1854.00,0.0017
1853.00,0.0016
1852.00,0.0016
1851.00,0.0017
1850.00,0.0017
1849.00,0.0017
1848.00,0.0017
1847.00,0.0017
1846.00,0.0017
1845.00,0.0017
1844.00,0.0016
1843.00,0.0016
1842.00,0.0016
1841.00,0.0016
1840.00,0.0017
1839.00,0.0017
1838.00,0.0017
1837.00,0.0017
1836.00,0.0017
1835.00,0.0017
1834.00,0.0017
1833.00,0.0017
1832.00,0.0018
1831.00,0.0019
1830.00,0.0018
1829.00,0.0018
1828.00,0.0017
1827.00,0.0017
1826.00,0.0016
1825.00,0.0016
1824.00,0.0017
1823.00,0.0017
1822.00,0.0017
1821.00,0.0017
1820.00,0.0017
1819.00,0.0016
1818.00,0.0015
1817.00,0.0015
1816.00,0.0015
1815.00,0.0016
1814.00,0.0016
1813.00,0.0017
1812.00,0.0017
1811.00,0.0017
1810.00,0.0016
1809.00,0.0017
1808.00,0.0017
1807.00,0.0017
1806.00,0.0017
1805.00,0.0017
1804.00,0.0017
1803.00,0.0018
1802.00,0.0017
1801.00,0.0017
1800.00,0.0017
1799.00,0.0018
1798.00,0.0018
1797.00,0.0018
1796.00,0.0018
1795.00,0.0018
1794.00,0.0017
1793.00,0.0017
1792.00,0.0018
1791.00,0.0019
1790.00,0.0019
1789.00,0.0019
1788.00,0.0019
1787.00,0.0019
1786.00,0.0019
1785.00,0.0019
1784.00,0.0019
1783.00,0.0020
1782.00,0.0020
1781.00,0.0020
1780.00,0.0020
1779.00,0.0020
1778.00,0.0020
1777.00,0.0021
1776.00,0.0023
1775.00,0.0023
1774.00,0.0024
1773.00,0.0023
1772.00,0.0021
1771.00,0.0021
1770.00,0.0021
1769.00,0.0022
1768.00,0.0022
1767.00,0.0023
1766.00,0.0024
1765.00,0.0025
1764.00,0.0025
1763.00,0.0025
1762.00,0.0025
1761.00,0.0026
1760.00,0.0027
1759.00,0.0028
1758.00,0.0029
1757.00,0.0030
1756.00,0.0032
1755.00,0.0035
1754.00,0.0037
1753.00,0.0039
1752.00,0.0039
1751.00,0.0040
1750.00,0.0042
1749.00,0.0044
1748.00,0.0046
1747.00,0.0048
1746.00,0.0049
1745.00,0.0051
1744.00,0.0051
1743.00,0.0052
1742.00,0.0051
1741.00,0.0051
1740.00,0.0051
1739.00,0.0050
1738.00,0.0050
1737.00,0.0050
1736.00,0.0049
1735.00,0.0048
1734.00,0.0046
1733.00,0.0045
1732.00,0.0045
1731.00,0.0046
1730.00,0.0046
1729.00,0.0046
1728.00,0.0046
1727.00,0.0046
1726.00,0.0046
1725.00,0.0046
1724.00,0.0047
1723.00,0.0047
1722.00,0.0047
1721.00,0.0047
1720.00,0.0047
1719.00,0.0046
1718.00,0.0044
1717.00,0.0044
1716.00,0.0045
1715.00,0.0046
1714.00,0.0047
1713.00,0.0048
1712.00,0.0049
1711.00,0.0049
1710.00,0.0048
1709.00,0.0048
1708.00,0.0047
1707.00,0.0046
1706.00,0.0044
1705.00,0.0043
1704.00,0.0043
1703.00,0.0043
1702.00,0.0042
1701.00,0.0039
1700.00,0.0037
1699.00,0.0036
1698.00,0.0037
1697.00,0.0038
1696.00,0.0038
1695.00,0.0036
1694.00,0.0035
1693.00,0.0035
1692.00,0.0035
1691.00,0.0035
1690.00,0.0035
1689.00,0.0035
1688.00,0.0036
1687.00,0.0036
1686.00,0.0035
1685.00,0.0032
1684.00,0.0030
1683.00,0.0029
1682.00,0.0029
1681.00,0.0029
1680.00,0.0029
1679.00,0.0029
1678.00,0.0030
1677.00,0.0030
1676.00,0.0031
1675.00,0.0031
1674.00,0.0031
1673.00,0.0031
1672.00,0.0031
1671.00,0.0031
1670.00,0.0030
1669.00,0.0030
1668.00,0.0030
1667.00,0.0030
1666.00,0.0030
1665.00,0.0030
1664.00,0.0029
1663.00,0.0028
1662.00,0.0028
1661.00,0.0029
1660.00,0.0030
1659.00,0.0031
1658.00,0.0032
1657.00,0.0033
1656.00,0.0032
1655.00,0.0031
1654.00,0.0028
1653.00,0.0028
1652.00,0.0029
1651.00,0.0029
1650.00,0.0029
1649.00,0.0029
1648.00,0.0029
1647.00,0.0028
1646.00,0.0029
1645.00,0.0030
1644.00,0.0031
1643.00,0.0032
1642.00,0.0032
1641.00,0.0031
1640.00,0.0031
1639.00,0.0031
1638.00,0.0031
1637.00,0.0030
1636.00,0.0030
1635.00,0.0031
1634.00,0.0030
1633.00,0.0029
1632.00,0.0027
1631.00,0.0026
1630.00,0.0026
1629.00,0.0025
1628.00,0.0025
1627.00,0.0025
1626.00,0.0026
1625.00,0.0027
1624.00,0.0027
1623.00,0.0027
1622.00,0.0026
1621.00,0.0026
1620.00,0.0026
1619.00,0.0026
1618.00,0.0025
1617.00,0.0024
1616.00,0.0023
1615.00,0.0023
1614.00,0.0024
1613.00,0.0024
1612.00,0.0023
1611.00,0.0023
1610.00,0.0023
1609.00,0.0023
1608.00,0.0022
1607.00,0.0022
1606.00,0.0023
1605.00,0.0024
1604.00,0.0024
1603.00,0.0023
1602.00,0.0021
1601.00,0.0020
1600.00,0.0019
1599.00,0.0018
1598.00,0.0019
1597.00,0.0019
1596.00,0.0020
1595.00,0.0020
1594.00,0.0020
1593.00,0.0019
1592.00,0.0019
1591.00,0.0018
1590.00,0.0018
1589.00,0.0018
1588.00,0.0018
1587.00,0.0019
1586.00,0.0020
1585.00,0.0020
1584.00,0.0019
1583.00,0.0019
1582.00,0.0019
1581.00,0.0019
1580.00,0.0019
1579.00,0.0021
1578.00,0.0023
1577.00,0.0024
1576.00,0.0023
1575.00,0.0021
1574.00,0.0019
1573.00,0.0019
1572.00,0.0019
1571.00,0.0019
1570.00,0.0019
1569.00,0.0019
1568.00,0.0020
1567.00,0.0021
1566.00,0.0021
1565.00,0.0021
1564.00,0.0020
1563.00,0.0021
1562.00,0.0022
1561.00,0.0022
1560.00,0.0022
1559.00,0.0022
1558.00,0.0022
1557.00,0.0020
1556.00,0.0019
1555.00,0.0020
1554.00,0.0020
1553.00,0.0021
1552.00,0.0022
1551.00,0.0022
1550.00,0.0022
1549.00,0.0022
1548.00,0.0021
1547.00,0.0021
1546.00,0.0021
1545.00,0.0021
1544.00,0.0020
1543.00,0.0020
1542.00,0.0019
1541.00,0.0019
1540.00,0.0019
1539.00,0.0019
1538.00,0.0019
1537.00,0.0019
1536.00,0.0019
1535.00,0.0019
1534.00,0.0019
1533.00,0.0020
1532.00,0.0021
1531.00,0.0022
1530.00,0.0022
1529.00,0.0023
1528.00,0.0022
1527.00,0.0021
1526.00,0.0020
1525.00,0.0019
1524.00,0.0019
1523.00,0.0019
1522.00,0.0019
1521.00,0.0020
1520.00,0.0022
1519.00,0.0023
1518.00,0.0023
1517.00,0.0022
1516.00,0.0022
1515.00,0.0022
1514.00,0.0021
1513.00,0.0021
1512.00,0.0021
1511.00,0.0021
1510.00,0.0021
1509.00,0.0021
1508.00,0.0022
1507.00,0.0022
1506.00,0.0023
1505.00,0.0022
1504.00,0.0022
1503.00,0.0021
1502.00,0.0021
1501.00,0.0021
1500.00,0.0021
1499.00,0.0021
1498.00,0.0022
1497.00,0.0023
1496.00,0.0023
1495.00,0.0022
1494.00,0.0021
1493.00,0.0020
1492.00,0.0019
1491.00,0.0019
1490.00,0.0019
1489.00,0.0021
1488.00,0.0022
1487.00,0.0022
1486.00,0.0022
1485.00,0.0022
1484.00,0.0021
1483.00,0.0021
1482.00,0.0021
1481.00,0.0021
1480.00,0.0021
1479.00,0.0020
1478.00,0.0020
1477.00,0.0021
1476.00,0.0022
1475.00,0.0022
1474.00,0.0023
1473.00,0.0024
1472.00,0.0027
1471.00,0.0030
1470.00,0.0033
1469.00,0.0035
1468.00,0.0036
1467.00,0.0037
1466.00,0.0036
1465.00,0.0034
1464.00,0.0033
1463.00,0.0032
1462.00,0.0031
1461.00,0.0031
1460.00,0.0030
1459.00,0.0029
1458.00,0.0028
1457.00,0.0028
1456.00,0.0028
1455.00,0.0027
1454.00,0.0027
1453.00,0.0027
1452.00,0.0027
1451.00,0.0028
1450.00,0.0028
1449.00,0.0028
1448.00,0.0029
1447.00,0.0029
1446.00,0.0030
1445.00,0.0030
1444.00,0.0029
1443.00,0.0028
1442.00,0.0027
1441.00,0.0027
1440.00,0.0027
1439.00,0.0026
1438.00,0.0026
1437.00,0.0025
1436.00,0.0025
1435.00,0.0025
1434.00,0.0025
1433.00,0.0024
1432.00,0.0024
1431.00,0.0024
1430.00,0.0023
1429.00,0.0022
1428.00,0.0022
1427.00,0.0022
1426.00,0.0022
1425.00,0.0022
1424.00,0.0022
1423.00,0.0022
1422.00,0.0022
1421.00,0.0022
1420.00,0.0022
1419.00,0.0023
1418.00,0.0023
1417.00,0.0024
1416.00,0.0024
1415.00,0.0024
1414.00,0.0023
1413.00,0.0022
1412.00,0.0021
1411.00,0.0020
1410.00,0.0019
1409.00,0.0019
1408.00,0.0019
1407.00,0.0018
1406.00,0.0018
1405.00,0.0017
1404.00,0.0016
1403.00,0.0016
1402.00,0.0015
1401.00,0.0014
1400.00,0.0012
1399.00,0.0011
1398.00,0.0011
1397.00,0.0011
1396.00,0.0010
1395.00,0.0010
1394.00,0.0009
1393.00,0.0010
1392.00,0.0010
1391.00,0.0010
1390.00,0.0011
1389.00,0.0010
1388.00,0.0010
1387.00,0.0011
1386.00,0.0011
1385.00,0.0011
1384.00,0.0010
1383.00,0.0011
1382.00,0.0011
1381.00,0.0012
1380.00,0.0013
1379.00,0.0014
1378.00,0.0014
1377.00,0.0014
1376.00,0.0015
1375.00,0.0015
1374.00,0.0015
1373.00,0.0015
1372.00,0.0015
1371.00,0.0015
1370.00,0.0016
1369.00,0.0016
1368.00,0.0017
1367.00,0.0017
1366.00,0.0017
1365.00,0.0017
1364.00,0.0016
1363.00,0.0016
1362.00,0.0016
1361.00,0.0017
1360.00,0.0017
1359.00,0.0018
1358.00,0.0018
1357.00,0.0018
1356.00,0.0019
1355.00,0.0020
1354.00,0.0020
1353.00,0.0020
1352.00,0.0019
1351.00,0.0019
1350.00,0.0018
1349.00,0.0017
1348.00,0.0017
1347.00,0.0018
1346.00,0.0018
1345.00,0.0017
1344.00,0.0017
1343.00,0.0016
1342.00,0.0016
1341.00,0.0016
1340.00,0.0017
1339.00,0.0018
1338.00,0.0018
1337.00,0.0018
1336.00,0.0018
1335.00,0.0018
1334.00,0.0018
1333.00,0.0017
1332.00,0.0017
1331.00,0.0017
1330.00,0.0017
1329.00,0.0017
1328.00,0.0017
1327.00,0.0016
1326.00,0.0016
1325.00,0.0016
1324.00,0.0017
1323.00,0.0018
1322.00,0.0020
1321.00,0.0021
1320.00,0.0021
1319.00,0.0020
1318.00,0.0019
1317.00,0.0018
1316.00,0.0017
1315.00,0.0017
1314.00,0.0017
1313.00,0.0019
1312.00,0.0020
1311.00,0.0021
1310.00,0.0021
1309.00,0.0021
1308.00,0.0021
1307.00,0.0020
1306.00,0.0020
1305.00,0.0020
1304.00,0.0020
1303.00,0.0021
1302.00,0.0022
1301.00,0.0023
1300.00,0.0022
1299.00,0.0022
1298.00,0.0021
1297.00,0.0021
1296.00,0.0020
1295.00,0.0021
1294.00,0.0021
1293.00,0.0022
1292.00,0.0022
1291.00,0.0022
1290.00,0.0022
1289.00,0.0022
1288.00,0.0022
1287.00,0.0022
1286.00,0.0021
1285.00,0.0021
1284.00,0.0022
1283.00,0.0023
1282.00,0.0023
1281.00,0.0023
1280.00,0.0022
1279.00,0.0021
1278.00,0.0021
1277.00,0.0020
1276.00,0.0020
1275.00,0.0021
1274.00,0.0021
1273.00,0.0021
1272.00,0.0020
1271.00,0.0020
1270.00,0.0020
1269.00,0.0020
1268.00,0.0020
1267.00,0.0020
1266.00,0.0021
1265.00,0.0021
1264.00,0.0021
1263.00,0.0021
1262.00,0.0020
1261.00,0.0020
1260.00,0.0021
1259.00,0.0021
1258.00,0.0022
1257.00,0.0022
1256.00,0.0021
1255.00,0.0020
1254.00,0.0020
1253.00,0.0021
1252.00,0.0021
1251.00,0.0021
1250.00,0.0021
1249.00,0.0020
1248.00,0.0020
1247.00,0.0021
1246.00,0.0021
1245.00,0.0022
1244.00,0.0023
1243.00,0.0023
1242.00,0.0023
1241.00,0.0022
1240.00,0.0022
1239.00,0.0021
1238.00,0.0021
1237.00,0.0022
1236.00,0.0022
1235.00,0.0022
1234.00,0.0022
1233.00,0.0022
1232.00,0.0022
1231.00,0.0022
1230.00,0.0021
1229.00,0.0021
1228.00,0.0021
1227.00,0.0022
1226.00,0.0022
1225.00,0.0021
1224.00,0.0021
1223.00,0.0021
1222.00,0.0021
1221.00,0.0022
1220.00,0.0023
1219.00,0.0023
1218.00,0.0023
1217.00,0.0023
1216.00,0.0023
1215.00,0.0023
1214.00,0.0023
1213.00,0.0023
1212.00,0.0023
1211.00,0.0023
1210.00,0.0024
1209.00,0.0024
1208.00,0.0023
1207.00,0.0023
1206.00,0.0022
1205.00,0.0022
1204.00,0.0021
1203.00,0.0021
1202.00,0.0021
1201.00,0.0021
1200.00,0.0022
1199.00,0.0022
1198.00,0.0022
1197.00,0.0022
1196.00,0.0022
1195.00,0.0022
1194.00,0.0022
1193.00,0.0022
1192.00,0.0022
1191.00,0.0021
1190.00,0.0020
1189.00,0.0019
1188.00,0.0019
1187.00,0.0019
1186.00,0.0019
1185.00,0.0020
1184.00,0.0020
1183.00,0.0019
1182.00,0.0019
1181.00,0.0018
1180.00,0.0017
1179.00,0.0016
1178.00,0.0017
1177.00,0.0017
1176.00,0.0018
1175.00,0.0018
1174.00,0.0018
1173.00,0.0018
1172.00,0.0018
1171.00,0.0017
1170.00,0.0016
1169.00,0.0015
1168.00,0.0014
1167.00,0.0014
1166.00,0.0014
1165.00,0.0013
1164.00,0.0013
1163.00,0.0013
1162.00,0.0012
1161.00,0.0012
1160.00,0.0011
1159.00,0.0011
1158.00,0.0010
1157.00,0.0010
1156.00,0.0010
1155.00,0.0011
1154.00,0.0011
1153.00,0.0011
1152.00,0.0010
1151.00,0.0008
1150.00,0.0007
1149.00,0.0006
1148.00,0.0005
1147.00,0.0005
1146.00,0.0006
1145.00,0.0006
1144.00,0.0006
1143.00,0.0007
1142.00,0.0008
1141.00,0.0008
1140.00,0.0007
1139.00,0.0006
1138.00,0.0005
1137.00,0.0005
1136.00,0.0006
1135.00,0.0007
1134.00,0.0008
1133.00,0.0008
1132.00,0.0008
1131.00,0.0007
1130.00,0.0008
1129.00,0.0009
1128.00,0.0009
1127.00,0.0009
1126.00,0.0007
1125.00,0.0005
1124.00,0.0004
1123.00,0.0006
1122.00,0.0009
1121.00,0.0011
1120.00,0.0013
1119.00,0.0013
1118.00,0.0013
1117.00,0.0013
1116.00,0.0013
1115.00,0.0014
1114.00,0.0014
1113.00,0.0012
1112.00,0.0011
1111.00,0.0010
1110.00,0.0010
1109.00,0.0010
1108.00,0.0010
1107.00,0.0009
1106.00,0.0008
1105.00,0.0007
1104.00,0.0007
1103.00,0.0008
1102.00,0.0009
1101.00,0.0009
1100.00,0.0009
1099.00,0.0008
1098.00,0.0008
1097.00,0.0008
1096.00,0.0007
1095.00,0.0005
1094.00,0.0004
1093.00,0.0004
1092.00,0.0004
1091.00,0.0004
1090.00,0.0002
1089.00,-0.0000
1088.00,-0.0003
1087.00,-0.0004
1086.00,-0.0002
1085.00,-0.0001
1084.00,0.0001
1083.00,0.0002
1082.00,0.0002
1081.00,0.0004
1080.00,0.0005
1079.00,0.0007
1078.00,0.0009
1077.00,0.0010
1076.00,0.0009
1075.00,0.0007
1074.00,0.0004
1073.00,0.0002
1072.00,0.0001
1071.00,0.0001
1070.00,0.0000
1069.00,-0.0002
1068.00,-0.0004
1067.00,-0.0004
1066.00,-0.0003
1065.00,-0.0002
1064.00,0.0000
1063.00,0.0002
1062.00,0.0002
1061.00,0.0000
1060.00,-0.0001
1059.00,-0.0002
1058.00,-0.0001
1057.00,0.0001
1056.00,0.0003
1055.00,0.0003
1054.00,0.0004
1053.00,0.0005
1052.00,0.0005
1051.00,0.0005
1050.00,0.0005
1049.00,0.0006
1048.00,0.0007
1047.00,0.0008
1046.00,0.0007
1045.00,0.0008
1044.00,0.0009
1043.00,0.0009
1042.00,0.0007
1041.00,0.0005
1040.00,0.0003
1039.00,0.0003
1038.00,0.0004
1037.00,0.0005
1036.00,0.0005
1035.00,0.0005
1034.00,0.0005
1033.00,0.0006
1032.00,0.0006
1031.00,0.0006
1030.00,0.0005
1029.00,0.0004
1028.00,0.0003
1027.00,0.0003
1026.00,0.0003
1025.00,0.0004
1024.00,0.0004
1023.00,0.0005
1022.00,0.0005
1021.00,0.0004
1020.00,0.0004
1019.00,0.0003
1018.00,0.0003
1017.00,0.0003
1016.00,0.0003
1015.00,0.0004
1014.00,0.0006
1013.00,0.0006
1012.00,0.0006
1011.00,0.0006
1010.00,0.0006
1009.00,0.0005
1008.00,0.0004
1007.00,0.0003
1006.00,0.0003
1005.00,0.0004
1004.00,0.0005
1003.00,0.0006
1002.00,0.0006
1001.00,0.0006
1000.00,0.0003
999.00,0.0001
998.00,-0.0001
997.00,-0.0001
996.00,0.0001
995.00,0.0003
994.00,0.0004
993.00,0.0004
992.00,0.0003
991.00,0.0002
990.00,0.0001
989.00,0.0002
988.00,0.0002
987.00,0.0004
986.00,0.0005
985.00,0.0006
984.00,0.0005
983.00,0.0003
982.00,0.0001
981.00,0.0001
980.00,0.0001
979.00,0.0001
978.00,0.0001
977.00,-0.0001
976.00,-0.0003
975.00,-0.0003
974.00,-0.0003
973.00,-0.0002
972.00,-0.0001
971.00,-0.0002
970.00,-0.0003
969.00,-0.0005
968.00,-0.0006
967.00,-0.0006
966.00,-0.0007
965.00,-0.0007
964.00,-0.0007
963.00,-0.0007
962.00,-0.0006
961.00,-0.0006
960.00,-0.0006
959.00,-0.0007
958.00,-0.0008
957.00,-0.0008
956.00,-0.0007
955.00,-0.0007
954.00,-0.0008
953.00,-0.0009
952.00,-0.0009
951.00,-0.0008
950.00,-0.0006
949.00,-0.0006
948.00,-0.0005
947.00,-0.0006
946.00,-0.0007
945.00,-0.0008
944.00,-0.0008
943.00,-0.0009
942.00,-0.0009
941.00,-0.0009
940.00,-0.0007
939.00,-0.0006
938.00,-0.0005
937.00,-0.0005
936.00,-0.0006
935.00,-0.0007
934.00,-0.0007
933.00,-0.0005
932.00,-0.0002
931.00,0.0000
930.00,0.0002
929.00,0.0003
928.00,0.0003
927.00,0.0003
926.00,0.0003
925.00,0.0002
924.00,0.0001
923.00,0.0001
922.00,0.0001
921.00,0.0001
920.00,0.0001
919.00,0.0001
918.00,0.0001
917.00,0.0001
916.00,0.0002
915.00,0.0003
914.00,0.0003
913.00,0.0002
912.00,0.0001
911.00,0.0000
910.00,-0.0001
909.00,-0.0003
908.00,-0.0006
907.00,-0.0007
906.00,-0.0006
905.00,-0.0003
904.00,0.0001
903.00,0.0005
902.00,0.0006
901.00,0.0006
900.00,0.0003
899.00,0.0001
898.00,0.0002
897.00,0.0003
896.00,0.0004
895.00,0.0004
894.00,0.0003
893.00,0.0001
892.00,0.0001
891.00,0.0000
890.00,0.0001
889.00,0.0002
888.00,0.0002
887.00,0.0001
886.00,-0.0001
885.00,-0.0002
884.00,-0.0001
883.00,0.0000
882.00,0.0002
881.00,0.0002
880.00,0.0000
879.00,-0.0001
878.00,-0.0003
877.00,-0.0005
876.00,-0.0006
875.00,-0.0007
874.00,-0.0007
873.00,-0.0007
872.00,-0.0006
871.00,-0.0005
870.00,-0.0004
869.00,-0.0004
868.00,-0.0005
867.00,-0.0007
866.00,-0.0006
865.00,-0.0005
864.00,-0.0003
863.00,-0.0002
862.00,-0.0002
861.00,-0.0001
860.00,-0.0001
859.00,-0.0003
858.00,-0.0005
857.00,-0.0007
856.00,-0.0007
855.00,-0.0005
854.00,-0.0003
853.00,-0.0003
852.00,-0.0004
851.00,-0.0005
850.00,-0.0004
849.00,-0.0002
848.00,-0.0001
847.00,0.0000
846.00,0.0002
845.00,0.0003
844.00,0.0003
843.00,0.0002
842.00,0.0000
841.00,-0.0002
840.00,-0.0005
839.00,-0.0007
838.00,-0.0009
837.00,-0.0010
836.00,-0.0010
835.00,-0.0010
834.00,-0.0010
833.00,-0.0011
832.00,-0.0010
831.00,-0.0010
830.00,-0.0010
829.00,-0.0010
828.00,-0.0010
827.00,-0.0009
826.00,-0.0007
825.00,-0.0006
824.00,-0.0005
823.00,-0.0006
822.00,-0.0007
821.00,-0.0008
820.00,-0.0007
819.00,-0.0007
818.00,-0.0007
817.00,-0.0008
816.00,-0.0011
815.00,-0.0012
814.00,-0.0012
813.00,-0.0010
812.00,-0.0008
811.00,-0.0008
810.00,-0.0009
809.00,-0.0009
808.00,-0.0010
807.00,-0.0010
806.00,-0.0011
805.00,-0.0012
804.00,-0.0013
803.00,-0.0014
802.00,-0.0013
801.00,-0.0012
800.00,-0.0009
799.00,-0.0007
798.00,-0.0007
797.00,-0.0009
796.00,-0.0010
795.00,-0.0012
794.00,-0.0012
793.00,-0.0012
792.00,-0.0012
791.00,-0.0010
790.00,-0.0009
789.00,-0.0008
788.00,-0.0009
787.00,-0.0010
786.00,-0.0010
785.00,-0.0008
784.00,-0.0006
783.00,-0.0006
782.00,-0.0007
781.00,-0.0009
780.00,-0.0011
779.00,-0.0012
778.00,-0.0012
777.00,-0.0011
776.00,-0.0010
775.00,-0.0010
774.00,-0.0011
773.00,-0.0013
772.00,-0.0013
771.00,-0.0013
770.00,-0.0011
769.00,-0.0010
768.00,-0.0010
767.00,-0.0012
766.00,-0.0014
765.00,-0.0016
764.00,-0.0018
763.00,-0.0018
762.00,-0.0020
761.00,-0.0021
760.00,-0.0021
759.00,-0.0019
758.00,-0.0017
757.00,-0.0016
756.00,-0.0016
755.00,-0.0018
754.00,-0.0019
753.00,-0.0020
752.00,-0.0020
751.00,-0.0019
750.00,-0.0017
749.00,-0.0015
748.00,-0.0014
747.00,-0.0014
746.00,-0.0016
745.00,-0.0018
744.00,-0.0019
743.00,-0.0019
742.00,-0.0019
741.00,-0.0020
740.00,-0.0022
739.00,-0.0024
738.00,-0.0026
737.00,-0.0026
736.00,-0.0027
735.00,-0.0027
734.00,-0.0027
733.00,-0.0028
732.00,-0.0029
731.00,-0.0028
730.00,-0.0027
729.00,-0.0024
728.00,-0.0021
727.00,-0.0018
726.00,-0.0015
725.00,-0.0014
724.00,-0.0016
723.00,-0.0019
722.00,-0.0020
721.00,-0.0020
720.00,-0.0020
719.00,-0.0021
718.00,-0.0023
717.00,-0.0025
716.00,-0.0026
715.00,-0.0028
714.00,-0.0030
713.00,-0.0029
712.00,-0.0026
711.00,-0.0025
710.00,-0.0026
709.00,-0.0028
708.00,-0.0030
707.00,-0.0031
706.00,-0.0031
705.00,-0.0029
704.00,-0.0026
703.00,-0.0023
702.00,-0.0022
701.00,-0.0023
700.00,-0.0025
699.00,-0.0027
698.00,-0.0027
697.00,-0.0028
696.00,-0.0029
695.00,-0.0029
694.00,-0.0028
693.00,-0.0026
692.00,-0.0025
691.00,-0.0025
690.00,-0.0025
689.00,-0.0025
688.00,-0.0025
687.00,-0.0027
686.00,-0.0030
685.00,-0.0033
684.00,-0.0035
683.00,-0.0037
682.00,-0.0040
681.00,-0.0041
680.00,-0.0042
679.00,-0.0042
678.00,-0.0042
677.00,-0.0040
676.00,-0.0039
675.00,-0.0038
674.00,-0.0038
673.00,-0.0037
672.00,-0.0035
671.00,-0.0032
670.00,-0.0031
669.00,-0.0031
668.00,-0.0032
667.00,-0.0030
666.00,-0.0026
665.00,-0.0024
664.00,-0.0025
663.00,-0.0030
662.00,-0.0037
661.00,-0.0045
660.00,-0.0052
659.00,-0.0055
658.00,-0.0053
657.00,-0.0046
656.00,-0.0040
655.00,-0.0038
654.00,-0.0044
653.00,-0.0052
652.00,-0.0060
651.00,-0.0063
650.00,-0.0062
