Created as New Dataset,Monday, April 03 2023
cm-1,A
4000.00,0.0283
3999.00,0.0283
3998.00,0.0282
3997.00,0.0282
3996.00,0.0282
3995.00,0.0282
3994.00,0.0281
3993.00,0.0281
3992.00,0.0281
3991.00,0.0281
3990.00,0.0281
3989.00,0.0281
3988.00,0.0281
3987.00,0.0281
3986.00,0.0281
3985.00,0.0280
3984.00,0.0280
3983.00,0.0280
3982.00,0.0280
3981.00,0.0280
3980.00,0.0279
3979.00,0.0279
3978.00,0.0279
3977.00,0.0279
3976.00,0.0279
3975.00,0.0278
3974.00,0.0278
3973.00,0.0278
3972.00,0.0278
3971.00,0.0279
3970.00,0.0280
3969.00,0.0280
3968.00,0.0280
3967.00,0.0279
3966.00,0.0278
3965.00,0.0278
3964.00,0.0278
3963.00,0.0279
3962.00,0.0279
3961.00,0.0279
3960.00,0.0278
3959.00,0.0277
3958.00,0.0277
3957.00,0.0277
3956.00,0.0277
3955.00,0.0277
3954.00,0.0276
3953.00,0.0275
3952.00,0.0274
3951.00,0.0275
3950.00,0.0275
3949.00,0.0276
3948.00,0.0276
3947.00,0.0275
3946.00,0.0274
3945.00,0.0274
3944.00,0.0275
3943.00,0.0275
3942.00,0.0274
3941.00,0.0273
3940.00,0.0274
3939.00,0.0275
3938.00,0.0275
3937.00,0.0275
3936.00,0.0274
3935.00,0.0272
3934.00,0.0272
3933.00,0.0272
3932.00,0.0271
3931.00,0.0271
3930.00,0.0271
3929.00,0.0271
3928.00,0.0271
3927.00,0.0272
3926.00,0.0272
3925.00,0.0273
3924.00,0.0272
3923.00,0.0271
3922.00,0.0270
3921.00,0.0269
3920.00,0.0269
3919.00,0.0270
3918.00,0.0272
3917.00,0.0273
3916.00,0.0273
3915.00,0.0273
3914.00,0.0273
3913.00,0.0274
3912.00,0.0275
3911.00,0.0275
3910.00,0.0273
3909.00,0.0270
3908.00,0.0267
3907.00,0.0264
3906.00,0.0261
3905.00,0.0260
3904.00,0.0259
3903.00,0.0258
3902.00,0.0259
3901.00,0.0262
3900.00,0.0265
3899.00,0.0266
3898.00,0.0267
3897.00,0.0267
3896.00,0.0267
3895.00,0.0267
3894.00,0.0267
3893.00,0.0268
3892.00,0.0269
3891.00,0.0267
3890.00,0.0263
3889.00,0.0260
3888.00,0.0261
3887.00,0.0263
3886.00,0.0265
3885.00,0.0263
3884.00,0.0260
3883.00,0.0259
3882.00,0.0262
3881.00,0.0265
3880.00,0.0265
3879.00,0.0263
3878.00,0.0262
3877.00,0.0264
3876.00,0.0266
3875.00,0.0266
3874.00,0.0262
3873.00,0.0258
3872.00,0.0257
3871.00,0.0259
3870.00,0.0261
3869.00,0.0259
3868.00,0.0256
3867.00,0.0256
3866.00,0.0260
3865.00,0.0263
3864.00,0.0265
3863.00,0.0265
3862.00,0.0265
3861.00,0.0266
3860.00,0.0265
3859.00,0.0262
3858.00,0.0257
3857.00,0.0249
3856.00,0.0242
3855.00,0.0242
3854.00,0.0249
3853.00,0.0252
3852.00,0.0251
3851.00,0.0254
3850.00,0.0261
3849.00,0.0267
3848.00,0.0269
3847.00,0.0268
3846.00,0.0266
3845.00,0.0264
3844.00,0.0262
3843.00,0.0259
3842.00,0.0255
3841.00,0.0254
3840.00,0.0255
3839.00,0.0257
3838.00,0.0258
3837.00,0.0257
3836.00,0.0257
3835.00,0.0258
3834.00,0.0261
3833.00,0.0264
3832.00,0.0265
3831.00,0.0265
3830.00,0.0265
3829.00,0.0265
3828.00,0.0266
3827.00,0.0265
3826.00,0.0262
3825.00,0.0257
3824.00,0.0254
3823.00,0.0255
3822.00,0.0258
3821.00,0.0259
3820.00,0.0254
3819.00,0.0251
3818.00,0.0254
3817.00,0.0261
3816.00,0.0265
3815.00,0.0266
3814.00,0.0265
3813.00,0.0267
3812.00,0.0268
3811.00,0.0267
3810.00,0.0263
3809.00,0.0262
3808.00,0.0263
3807.00,0.0263
3806.00,0.0260
3805.00,0.0257
3804.00,0.0256
3803.00,0.0260
3802.00,0.0264
3801.00,0.0263
3800.00,0.0260
3799.00,0.0259
3798.00,0.0262
3797.00,0.0266
3796.00,0.0267
3795.00,0.0266
3794.00,0.0267
3793.00,0.0268
3792.00,0.0270
3791.00,0.0271
3790.00,0.0271
3789.00,0.0270
3788.00,0.0270
3787.00,0.0270
3786.00,0.0271
3785.00,0.0271
3784.00,0.0269
3783.00,0.0267
3782.00,0.0266
3781.00,0.0266
3780.00,0.0268
3779.00,0.0268
3778.00,0.0267
3777.00,0.0267
3776.00,0.0268
3775.00,0.0268
3774.00,0.0267
3773.00,0.0265
3772.00,0.0264
3771.00,0.0264
3770.00,0.0264
3769.00,0.0261
3768.00,0.0260
3767.00,0.0262
3766.00,0.0264
3765.00,0.0265
3764.00,0.0264
3763.00,0.0263
3762.00,0.0263
3761.00,0.0263
3760.00,0.0263
3759.00,0.0262
3758.00,0.0260
3757.00,0.0257
3756.00,0.0254
3755.00,0.0250
3754.00,0.0246
3753.00,0.0244
3752.00,0.0245
3751.00,0.0248
3750.00,0.0248
3749.00,0.0246
3748.00,0.0244
3747.00,0.0246
3746.00,0.0250
3745.00,0.0254
3744.00,0.0253
3743.00,0.0249
3742.00,0.0249
3741.00,0.0254
3740.00,0.0257
3739.00,0.0254
3738.00,0.0250
3737.00,0.0249
3736.00,0.0248
3735.00,0.0247
3734.00,0.0247
3733.00,0.0248
3732.00,0.0251
3731.00,0.0253
3730.00,0.0256
3729.00,0.0258
3728.00,0.0260
3727.00,0.0261
3726.00,0.0260
3725.00,0.0258
3724.00,0.0257
3723.00,0.0258
3722.00,0.0259
3721.00,0.0260
3720.00,0.0262
3719.00,0.0264
3718.00,0.0264
3717.00,0.0262
3716.00,0.0259
3715.00,0.0255
3714.00,0.0253
3713.00,0.0253
3712.00,0.0256
3711.00,0.0257
3710.00,0.0256
3709.00,0.0257
3708.00,0.0259
3707.00,0.0262
3706.00,0.0264
3705.00,0.0265
3704.00,0.0265
3703.00,0.0265
3702.00,0.0266
3701.00,0.0265
3700.00,0.0265
3699.00,0.0266
3698.00,0.0268
3697.00,0.0269
3696.00,0.0268
3695.00,0.0265
3694.00,0.0261
3693.00,0.0257
3692.00,0.0254
3691.00,0.0255
3690.00,0.0258
3689.00,0.0261
3688.00,0.0261
3687.00,0.0261
3686.00,0.0264
3685.00,0.0267
3684.00,0.0269
3683.00,0.0268
3682.00,0.0266
3681.00,0.0263
3680.00,0.0257
3679.00,0.0251
3678.00,0.0245
3677.00,0.0245
3676.00,0.0248
3675.00,0.0247
3674.00,0.0242
3673.00,0.0241
3672.00,0.0246
3671.00,0.0254
3670.00,0.0260
3669.00,0.0260
3668.00,0.0260
3667.00,0.0262
3666.00,0.0266
3665.00,0.0269
3664.00,0.0271
3663.00,0.0271
3662.00,0.0271
3661.00,0.0270
3660.00,0.0268
3659.00,0.0267
3658.00,0.0268
3657.00,0.0269
3656.00,0.0268
3655.00,0.0265
3654.00,0.0261
3653.00,0.0257
3652.00,0.0254
3651.00,0.0253
3650.00,0.0254
3649.00,0.0257
3648.00,0.0259
3647.00,0.0261
3646.00,0.0265
3645.00,0.0270
3644.00,0.0275
3643.00,0.0279
3642.00,0.0280
3641.00,0.0281
3640.00,0.0281
3639.00,0.0281
3638.00,0.0281
3637.00,0.0281
3636.00,0.0280
3635.00,0.0280
3634.00,0.0278
3633.00,0.0274
3632.00,0.0269
3631.00,0.0267
3630.00,0.0271
3629.00,0.0277
3628.00,0.0277
3627.00,0.0277
3626.00,0.0280
3625.00,0.0284
3624.00,0.0285
3623.00,0.0284
3622.00,0.0282
3621.00,0.0282
3620.00,0.0283
3619.00,0.0284
3618.00,0.0283
3617.00,0.0282
3616.00,0.0283
3615.00,0.0285
3614.00,0.0286
3613.00,0.0286
3612.00,0.0284
3611.00,0.0284
3610.00,0.0286
3609.00,0.0290
3608.00,0.0293
3607.00,0.0295
3606.00,0.0295
3605.00,0.0295
3604.00,0.0296
3603.00,0.0297
3602.00,0.0299
3601.00,0.0301
3600.00,0.0301
3599.00,0.0300
3598.00,0.0298
3597.00,0.0298
3596.00,0.0298
3595.00,0.0299
3594.00,0.0299
3593.00,0.0298
3592.00,0.0297
3591.00,0.0295
3590.00,0.0294
3589.00,0.0296
3588.00,0.0298
3587.00,0.0300
3586.00,0.0300
3585.00,0.0302
3584.00,0.0304
3583.00,0.0307
3582.00,0.0308
3581.00,0.0309
3580.00,0.0309
3579.00,0.0310
3578.00,0.0310
3577.00,0.0311
3576.00,0.0311
3575.00,0.0311
3574.00,0.0312
3573.00,0.0311
3572.00,0.0309
3571.00,0.0306
3570.00,0.0302
3569.00,0.0301
3568.00,0.0302
3567.00,0.0305
3566.00,0.0307
3565.00,0.0307
3564.00,0.0308
3563.00,0.0311
3562.00,0.0313
3561.00,0.0316
3560.00,0.0317
3559.00,0.0318
3558.00,0.0319
3557.00,0.0320
3556.00,0.0321
3555.00,0.0321
3554.00,0.0322
3553.00,0.0322
3552.00,0.0323
3551.00,0.0323
3550.00,0.0322
3549.00,0.0322
3548.00,0.0322
3547.00,0.0323
3546.00,0.0324
3545.00,0.0325
3544.00,0.0326
3543.00,0.0326
3542.00,0.0327
3541.00,0.0328
3540.00,0.0328
3539.00,0.0327
3538.00,0.0327
3537.00,0.0327
3536.00,0.0328
3535.00,0.0329
3534.00,0.0330
3533.00,0.0331
3532.00,0.0331
3531.00,0.0331
3530.00,0.0330
3529.00,0.0329
3528.00,0.0328
3527.00,0.0328
3526.00,0.0329
3525.00,0.0331
3524.00,0.0333
3523.00,0.0335
3522.00,0.0335
3521.00,0.0335
3520.00,0.0334
3519.00,0.0334
3518.00,0.0334
3517.00,0.0334
3516.00,0.0334
3515.00,0.0335
3514.00,0.0336
3513.00,0.0337
3512.00,0.0338
3511.00,0.0338
3510.00,0.0338
3509.00,0.0338
3508.00,0.0337
3507.00,0.0336
3506.00,0.0336
3505.00,0.0337
3504.00,0.0339
3503.00,0.0341
3502.00,0.0341
3501.00,0.0341
3500.00,0.0342
3499.00,0.0342
3498.00,0.0343
3497.00,0.0345
3496.00,0.0345
3495.00,0.0345
3494.00,0.0345
3493.00,0.0345
3492.00,0.0345
3491.00,0.0345
3490.00,0.0345
3489.00,0.0345
3488.00,0.0345
3487.00,0.0346
3486.00,0.0346
3485.00,0.0346
3484.00,0.0346
3483.00,0.0346
3482.00,0.0347
3481.00,0.0348
3480.00,0.0348
3479.00,0.0348
3478.00,0.0348
3477.00,0.0348
3476.00,0.0349
3475.00,0.0350
3474.00,0.0351
3473.00,0.0351
3472.00,0.0352
3471.00,0.0352
3470.00,0.0353
3469.00,0.0353
3468.00,0.0353
3467.00,0.0354
3466.00,0.0354
3465.00,0.0355
3464.00,0.0355
3463.00,0.0354
3462.00,0.0354
3461.00,0.0354
3460.00,0.0355
3459.00,0.0356
3458.00,0.0357
3457.00,0.0358
3456.00,0.0357
3455.00,0.0357
3454.00,0.0357
3453.00,0.0357
3452.00,0.0357
3451.00,0.0357
3450.00,0.0357
3449.00,0.0357
3448.00,0.0358
3447.00,0.0359
3446.00,0.0360
3445.00,0.0360
3444.00,0.0361
3443.00,0.0361
3442.00,0.0361
3441.00,0.0360
3440.00,0.0359
3439.00,0.0358
3438.00,0.0359
3437.00,0.0359
3436.00,0.0359
3435.00,0.0359
3434.00,0.0359
3433.00,0.0360
3432.00,0.0361
3431.00,0.0362
3430.00,0.0362
3429.00,0.0362
3428.00,0.0362
3427.00,0.0362
3426.00,0.0362
3425.00,0.0364
3424.00,0.0365
3423.00,0.0366
3422.00,0.0366
3421.00,0.0366
3420.00,0.0366
3419.00,0.0366
3418.00,0.0367
3417.00,0.0367
3416.00,0.0367
3415.00,0.0367
3414.00,0.0366
3413.00,0.0366
3412.00,0.0366
3411.00,0.0367
3410.00,0.0368
3409.00,0.0369
3408.00,0.0370
3407.00,0.0370
3406.00,0.0370
3405.00,0.0369
3404.00,0.0368
3403.00,0.0368
3402.00,0.0368
3401.00,0.0369
3400.00,0.0369
3399.00,0.0370
3398.00,0.0370
3397.00,0.0369
3396.00,0.0369
3395.00,0.0369
3394.00,0.0369
3393.00,0.0370
3392.00,0.0371
3391.00,0.0372
3390.00,0.0372
3389.00,0.0372
3388.00,0.0372
3387.00,0.0372
3386.00,0.0372
3385.00,0.0372
3384.00,0.0372
3383.00,0.0373
3382.00,0.0373
3381.00,0.0373
3380.00,0.0374
3379.00,0.0375
3378.00,0.0375
3377.00,0.0375
3376.00,0.0374
3375.00,0.0374
3374.00,0.0374
3373.00,0.0374
3372.00,0.0374
3371.00,0.0373
3370.00,0.0373
3369.00,0.0373
3368.00,0.0374
3367.00,0.0374
3366.00,0.0374
3365.00,0.0373
3364.00,0.0373
3363.00,0.0374
3362.00,0.0375
3361.00,0.0376
3360.00,0.0377
3359.00,0.0377
3358.00,0.0377
3357.00,0.0377
3356.00,0.0377
3355.00,0.0377
3354.00,0.0378
3353.00,0.0378
3352.00,0.0378
3351.00,0.0379
3350.00,0.0379
3349.00,0.0379
3348.00,0.0379
3347.00,0.0379
3346.00,0.0379
3345.00,0.0378
3344.00,0.0378
3343.00,0.0377
3342.00,0.0378
3341.00,0.0378
3340.00,0.0379
3339.00,0.0379
3338.00,0.0379
3337.00,0.0379
3336.00,0.0379
3335.00,0.0379
3334.00,0.0379
3333.00,0.0379
3332.00,0.0379
3331.00,0.0378
3330.00,0.0377
3329.00,0.0377
3328.00,0.0377
3327.00,0.0377
3326.00,0.0378
3325.00,0.0380
3324.00,0.0380
3323.00,0.0381
3322.00,0.0380
3321.00,0.0380
3320.00,0.0380
3319.00,0.0380
3318.00,0.0380
3317.00,0.0380
3316.00,0.0380
3315.00,0.0380
3314.00,0.0379
3313.00,0.0379
3312.00,0.0379
3311.00,0.0379
3310.00,0.0379
3309.00,0.0381
3308.00,0.0382
3307.00,0.0382
3306.00,0.0382
3305.00,0.0381
3304.00,0.0381
3303.00,0.0381
3302.00,0.0381
3301.00,0.0381
3300.00,0.0381
3299.00,0.0381
3298.00,0.0381
3297.00,0.0381
3296.00,0.0381
3295.00,0.0381
3294.00,0.0382
3293.00,0.0382
3292.00,0.0381
3291.00,0.0381
3290.00,0.0381
3289.00,0.0382
3288.00,0.0382
3287.00,0.0382
3286.00,0.0382
3285.00,0.0383
3284.00,0.0383
3283.00,0.0384
3282.00,0.0383
3281.00,0.0383
3280.00,0.0383
3279.00,0.0382
3278.00,0.0382
3277.00,0.0382
3276.00,0.0382
3275.00,0.0382
3274.00,0.0382
3273.00,0.0382
3272.00,0.0382
3271.00,0.0383
3270.00,0.0384
3269.00,0.0384
3268.00,0.0385
3267.00,0.0385
3266.00,0.0384
3265.00,0.0383
3264.00,0.0383
3263.00,0.0382
3262.00,0.0382
3261.00,0.0382
3260.00,0.0383
3259.00,0.0383
3258.00,0.0383
3257.00,0.0383
3256.00,0.0383
3255.00,0.0382
3254.00,0.0383
3253.00,0.0383
3252.00,0.0384
3251.00,0.0384
3250.00,0.0384
3249.00,0.0383
3248.00,0.0383
3247.00,0.0382
3246.00,0.0382
3245.00,0.0383
3244.00,0.0383
3243.00,0.0383
3242.00,0.0383
3241.00,0.0383
3240.00,0.0383
3239.00,0.0383
3238.00,0.0383
3237.00,0.0384
3236.00,0.0385
3235.00,0.0386
3234.00,0.0386
3233.00,0.0386
3232.00,0.0386
3231.00,0.0385
3230.00,0.0385
3229.00,0.0384
3228.00,0.0383
3227.00,0.0383
3226.00,0.0384
3225.00,0.0384
3224.00,0.0384
3223.00,0.0384
3222.00,0.0384
3221.00,0.0385
3220.00,0.0385
3219.00,0.0384
3218.00,0.0384
3217.00,0.0384
3216.00,0.0385
3215.00,0.0386
3214.00,0.0387
3213.00,0.0386
3212.00,0.0386
3211.00,0.0385
3210.00,0.0384
3209.00,0.0384
3208.00,0.0384
3207.00,0.0384
3206.00,0.0384
3205.00,0.0385
3204.00,0.0386
3203.00,0.0386
3202.00,0.0386
3201.00,0.0385
3200.00,0.0385
3199.00,0.0386
3198.00,0.0386
3197.00,0.0386
3196.00,0.0386
3195.00,0.0386
3194.00,0.0386
3193.00,0.0386
3192.00,0.0386
3191.00,0.0385
3190.00,0.0384
3189.00,0.0384
3188.00,0.0383
3187.00,0.0383
3186.00,0.0383
3185.00,0.0383
3184.00,0.0384
3183.00,0.0384
3182.00,0.0385
3181.00,0.0385
3180.00,0.0385
3179.00,0.0384
3178.00,0.0384
3177.00,0.0383
3176.00,0.0383
3175.00,0.0383
3174.00,0.0383
3173.00,0.0383
3172.00,0.0383
3171.00,0.0383
3170.00,0.0383
3169.00,0.0383
3168.00,0.0383
3167.00,0.0383
3166.00,0.0383
3165.00,0.0384
3164.00,0.0385
3163.00,0.0385
3162.00,0.0384
3161.00,0.0384
3160.00,0.0382
3159.00,0.0381
3158.00,0.0380
3157.00,0.0380
3156.00,0.0381
3155.00,0.0381
3154.00,0.0382
3153.00,0.0383
3152.00,0.0383
3151.00,0.0383
3150.00,0.0383
3149.00,0.0383
3148.00,0.0382
3147.00,0.0382
3146.00,0.0382
3145.00,0.0381
3144.00,0.0381
3143.00,0.0382
3142.00,0.0381
3141.00,0.0381
3140.00,0.0381
3139.00,0.0381
3138.00,0.0381
3137.00,0.0381
3136.00,0.0382
3135.00,0.0382
3134.00,0.0382
3133.00,0.0381
3132.00,0.0381
3131.00,0.0381
3130.00,0.0381
3129.00,0.0381
3128.00,0.0381
3127.00,0.0381
3126.00,0.0380
3125.00,0.0380
3124.00,0.0380
3123.00,0.0380
3122.00,0.0379
3121.00,0.0379
3120.00,0.0379
3119.00,0.0379
3118.00,0.0379
3117.00,0.0380
3116.00,0.0379
3115.00,0.0379
3114.00,0.0379
3113.00,0.0380
3112.00,0.0380
3111.00,0.0380
3110.00,0.0380
3109.00,0.0379
3108.00,0.0379
3107.00,0.0379
3106.00,0.0379
3105.00,0.0380
3104.00,0.0380
3103.00,0.0380
3102.00,0.0379
3101.00,0.0379
3100.00,0.0378
3099.00,0.0378
3098.00,0.0378
3097.00,0.0378
3096.00,0.0379
3095.00,0.0380
3094.00,0.0380
3093.00,0.0381
3092.00,0.0380
3091.00,0.0380
3090.00,0.0379
3089.00,0.0378
3088.00,0.0377
3087.00,0.0377
3086.00,0.0377
3085.00,0.0378
3084.00,0.0378
3083.00,0.0378
3082.00,0.0378
3081.00,0.0378
3080.00,0.0379
3079.00,0.0379
3078.00,0.0379
3077.00,0.0379
3076.00,0.0379
3075.00,0.0379
3074.00,0.0380
3073.00,0.0380
3072.00,0.0380
3071.00,0.0379
3070.00,0.0379
3069.00,0.0380
3068.00,0.0380
3067.00,0.0380
3066.00,0.0379
3065.00,0.0379
3064.00,0.0378
3063.00,0.0378
3062.00,0.0378
3061.00,0.0378
3060.00,0.0378
3059.00,0.0378
3058.00,0.0379
3057.00,0.0379
3056.00,0.0379
3055.00,0.0378
3054.00,0.0378
3053.00,0.0377
3052.00,0.0377
3051.00,0.0378
3050.00,0.0378
3049.00,0.0379
3048.00,0.0379
3047.00,0.0378
3046.00,0.0378
3045.00,0.0378
3044.00,0.0377
3043.00,0.0376
3042.00,0.0376
3041.00,0.0375
3040.00,0.0375
3039.00,0.0375
3038.00,0.0375
3037.00,0.0375
3036.00,0.0375
3035.00,0.0376
3034.00,0.0376
3033.00,0.0376
3032.00,0.0375
3031.00,0.0375
3030.00,0.0374
3029.00,0.0373
3028.00,0.0373
3027.00,0.0373
3026.00,0.0373
3025.00,0.0373
3024.00,0.0373
3023.00,0.0373
3022.00,0.0373
3021.00,0.0373
3020.00,0.0373
3019.00,0.0372
3018.00,0.0371
3017.00,0.0370
3016.00,0.0370
3015.00,0.0369
3014.00,0.0369
3013.00,0.0368
3012.00,0.0367
3011.00,0.0367
3010.00,0.0365
3009.00,0.0364
3008.00,0.0362
3007.00,0.0361
3006.00,0.0360
3005.00,0.0359
3004.00,0.0358
3003.00,0.0356
3002.00,0.0354
3001.00,0.0352
3000.00,0.0351
2999.00,0.0350
2998.00,0.0349
2997.00,0.0348
2996.00,0.0347
2995.00,0.0346
2994.00,0.0345
2993.00,0.0345
2992.00,0.0344
2991.00,0.0343
2990.00,0.0343
2989.00,0.0342
2988.00,0.0341
2987.00,0.0339
2986.00,0.0336
2985.00,0.0332
2984.00,0.0328
2983.00,0.0325
2982.00,0.0323
2981.00,0.0323
2980.00,0.0324
2979.00,0.0326
2978.00,0.0329
2977.00,0.0331
2976.00,0.0333
2975.00,0.0333
2974.00,0.0333
2973.00,0.0332
2972.00,0.0331
2971.00,0.0332
2970.00,0.0333
2969.00,0.0335
2968.00,0.0337
2967.00,0.0338
2966.00,0.0339
2965.00,0.0340
2964.00,0.0341
2963.00,0.0342
2962.00,0.0344
2961.00,0.0344
2960.00,0.0345
2959.00,0.0345
2958.00,0.0345
2957.00,0.0345
2956.00,0.0346
2955.00,0.0348
2954.00,0.0349
2953.00,0.0350
2952.00,0.0351
2951.00,0.0351
2950.00,0.0352
2949.00,0.0352
2948.00,0.0352
2947.00,0.0352
2946.00,0.0352
2945.00,0.0353
2944.00,0.0354
2943.00,0.0355
2942.00,0.0355
2941.00,0.0356
2940.00,0.0356
2939.00,0.0355
2938.00,0.0355
2937.00,0.0354
2936.00,0.0354
2935.00,0.0354
2934.00,0.0354
2933.00,0.0354
2932.00,0.0354
2931.00,0.0354
2930.00,0.0354
2929.00,0.0355
2928.00,0.0355
2927.00,0.0355
2926.00,0.0355
2925.00,0.0355
2924.00,0.0355
2923.00,0.0355
2922.00,0.0355
2921.00,0.0356
2920.00,0.0355
2919.00,0.0354
2918.00,0.0354
2917.00,0.0354
2916.00,0.0353
2915.00,0.0353
2914.00,0.0354
2913.00,0.0354
2912.00,0.0354
2911.00,0.0354
2910.00,0.0354
2909.00,0.0353
2908.00,0.0353
2907.00,0.0353
2906.00,0.0352
2905.00,0.0352
2904.00,0.0351
2903.00,0.0351
2902.00,0.0351
2901.00,0.0351
2900.00,0.0351
2899.00,0.0350
2898.00,0.0350
2897.00,0.0350
2896.00,0.0350
2895.00,0.0349
2894.00,0.0349
2893.00,0.0348
2892.00,0.0348
2891.00,0.0348
2890.00,0.0348
2889.00,0.0348
2888.00,0.0348
2887.00,0.0348
2886.00,0.0348
2885.00,0.0347
2884.00,0.0347
2883.00,0.0347
2882.00,0.0347
2881.00,0.0348
2880.00,0.0349
2879.00,0.0349
2878.00,0.0350
2877.00,0.0351
2876.00,0.0351
2875.00,0.0351
2874.00,0.0350
2873.00,0.0350
2872.00,0.0350
2871.00,0.0350
2870.00,0.0350
2869.00,0.0350
2868.00,0.0350
2867.00,0.0350
2866.00,0.0350
2865.00,0.0351
2864.00,0.0351
2863.00,0.0351
2862.00,0.0351
2861.00,0.0351
2860.00,0.0352
2859.00,0.0352
2858.00,0.0353
2857.00,0.0354
2856.00,0.0353
2855.00,0.0353
2854.00,0.0352
2853.00,0.0352
2852.00,0.0352
2851.00,0.0353
2850.00,0.0354
2849.00,0.0355
2848.00,0.0356
2847.00,0.0356
2846.00,0.0356
2845.00,0.0355
2844.00,0.0355
2843.00,0.0355
2842.00,0.0354
2841.00,0.0354
2840.00,0.0353
2839.00,0.0353
2838.00,0.0352
2837.00,0.0353
2836.00,0.0353
2835.00,0.0354
2834.00,0.0354
2833.00,0.0354
2832.00,0.0353
2831.00,0.0352
2830.00,0.0351
2829.00,0.0351
2828.00,0.0352
2827.00,0.0352
2826.00,0.0352
2825.00,0.0353
2824.00,0.0353
2823.00,0.0352
2822.00,0.0352
2821.00,0.0352
2820.00,0.0351
2819.00,0.0350
2818.00,0.0350
2817.00,0.0349
2816.00,0.0349
2815.00,0.0349
2814.00,0.0349
2813.00,0.0348
2812.00,0.0349
2811.00,0.0349
2810.00,0.0349
2809.00,0.0349
2808.00,0.0349
2807.00,0.0349
2806.00,0.0349
2805.00,0.0349
2804.00,0.0349
2803.00,0.0349
2802.00,0.0349
2801.00,0.0349
2800.00,0.0349
2799.00,0.0349
2798.00,0.0349
2797.00,0.0349
2796.00,0.0348
2795.00,0.0348
2794.00,0.0348
2793.00,0.0347
2792.00,0.0347
2791.00,0.0347
2790.00,0.0348
2789.00,0.0348
2788.00,0.0347
2787.00,0.0347
2786.00,0.0347
2785.00,0.0346
2784.00,0.0346
2783.00,0.0346
2782.00,0.0345
2781.00,0.0344
2780.00,0.0344
2779.00,0.0344
2778.00,0.0344
2777.00,0.0345
2776.00,0.0345
2775.00,0.0345
2774.00,0.0345
2773.00,0.0345
2772.00,0.0345
2771.00,0.0344
2770.00,0.0343
2769.00,0.0342
2768.00,0.0342
2767.00,0.0342
2766.00,0.0342
2765.00,0.0342
2764.00,0.0342
2763.00,0.0342
2762.00,0.0342
2761.00,0.0342
2760.00,0.0342
2759.00,0.0342
2758.00,0.0342
2757.00,0.0341
2756.00,0.0341
2755.00,0.0341
2754.00,0.0341
2753.00,0.0341
2752.00,0.0342
2751.00,0.0342
2750.00,0.0342
2749.00,0.0342
2748.00,0.0342
2747.00,0.0342
2746.00,0.0342
2745.00,0.0342
2744.00,0.0342
2743.00,0.0342
2742.00,0.0341
2741.00,0.0341
2740.00,0.0341
2739.00,0.0340
2738.00,0.0340
2737.00,0.0339
2736.00,0.0339
2735.00,0.0339
2734.00,0.0340
2733.00,0.0340
2732.00,0.0341
2731.00,0.0340
2730.00,0.0340
2729.00,0.0339
2728.00,0.0339
2727.00,0.0339
2726.00,0.0339
2725.00,0.0339
2724.00,0.0339
2723.00,0.0339
2722.00,0.0338
2721.00,0.0338
2720.00,0.0338
2719.00,0.0338
2718.00,0.0338
2717.00,0.0338
2716.00,0.0338
2715.00,0.0338
2714.00,0.0338
2713.00,0.0338
2712.00,0.0338
2711.00,0.0338
2710.00,0.0338
2709.00,0.0337
2708.00,0.0337
2707.00,0.0337
2706.00,0.0337
2705.00,0.0337
2704.00,0.0337
2703.00,0.0336
2702.00,0.0336
2701.00,0.0336
2700.00,0.0336
2699.00,0.0336
2698.00,0.0336
2697.00,0.0336
2696.00,0.0336
2695.00,0.0336
2694.00,0.0336
2693.00,0.0337
2692.00,0.0337
2691.00,0.0336
2690.00,0.0336
2689.00,0.0336
2688.00,0.0336
2687.00,0.0336
2686.00,0.0336
2685.00,0.0336
2684.00,0.0336
2683.00,0.0335
2682.00,0.0335
2681.00,0.0335
2680.00,0.0334
2679.00,0.0334
2678.00,0.0333
2677.00,0.0333
2676.00,0.0333
2675.00,0.0333
2674.00,0.0333
2673.00,0.0333
2672.00,0.0333
2671.00,0.0333
2670.00,0.0332
2669.00,0.0332
2668.00,0.0332
2667.00,0.0333
2666.00,0.0333
2665.00,0.0333
2664.00,0.0334
2663.00,0.0334
2662.00,0.0335
2661.00,0.0335
2660.00,0.0334
2659.00,0.0334
2658.00,0.0334
2657.00,0.0334
2656.00,0.0334
2655.00,0.0334
2654.00,0.0334
2653.00,0.0334
2652.00,0.0335
2651.00,0.0335
2650.00,0.0335
2649.00,0.0335
2648.00,0.0335
2647.00,0.0334
2646.00,0.0334
2645.00,0.0334
2644.00,0.0334
2643.00,0.0335
2642.00,0.0335
2641.00,0.0335
2640.00,0.0335
2639.00,0.0335
2638.00,0.0335
2637.00,0.0335
2636.00,0.0335
2635.00,0.0335
2634.00,0.0335
2633.00,0.0335
2632.00,0.0335
2631.00,0.0335
2630.00,0.0334
2629.00,0.0334
2628.00,0.0333
2627.00,0.0333
2626.00,0.0333
2625.00,0.0334
2624.00,0.0335
2623.00,0.0335
2622.00,0.0335
2621.00,0.0335
2620.00,0.0335
2619.00,0.0335
2618.00,0.0335
2617.00,0.0336
2616.00,0.0335
2615.00,0.0335
2614.00,0.0335
2613.00,0.0335
2612.00,0.0336
2611.00,0.0336
2610.00,0.0336
2609.00,0.0335
2608.00,0.0335
2607.00,0.0335
2606.00,0.0335
2605.00,0.0336
2604.00,0.0337
2603.00,0.0337
2602.00,0.0336
2601.00,0.0336
2600.00,0.0336
2599.00,0.0336
2598.00,0.0335
2597.00,0.0335
2596.00,0.0335
2595.00,0.0334
2594.00,0.0335
2593.00,0.0335
2592.00,0.0336
2591.00,0.0336
2590.00,0.0336
2589.00,0.0336
2588.00,0.0336
2587.00,0.0336
2586.00,0.0335
2585.00,0.0334
2584.00,0.0334
2583.00,0.0334
2582.00,0.0335
2581.00,0.0335
2580.00,0.0336
2579.00,0.0336
2578.00,0.0336
2577.00,0.0335
2576.00,0.0335
2575.00,0.0334
2574.00,0.0334
2573.00,0.0335
2572.00,0.0335
2571.00,0.0335
2570.00,0.0334
2569.00,0.0334
2568.00,0.0334
2567.00,0.0335
2566.00,0.0336
2565.00,0.0336
2564.00,0.0336
2563.00,0.0336
2562.00,0.0337
2561.00,0.0337
2560.00,0.0337
2559.00,0.0336
2558.00,0.0336
2557.00,0.0336
2556.00,0.0337
2555.00,0.0337
2554.00,0.0337
2553.00,0.0336
2552.00,0.0335
2551.00,0.0335
2550.00,0.0334
2549.00,0.0333
2548.00,0.0333
2547.00,0.0332
2546.00,0.0333
2545.00,0.0333
2544.00,0.0334
2543.00,0.0333
2542.00,0.0333
2541.00,0.0332
2540.00,0.0331
2539.00,0.0330
2538.00,0.0330
2537.00,0.0330
2536.00,0.0330
2535.00,0.0331
2534.00,0.0332
2533.00,0.0333
2532.00,0.0334
2531.00,0.0333
2530.00,0.0333
2529.00,0.0332
2528.00,0.0332
2527.00,0.0332
2526.00,0.0332
2525.00,0.0331
2524.00,0.0330
2523.00,0.0330
2522.00,0.0330
2521.00,0.0331
2520.00,0.0331
2519.00,0.0332
2518.00,0.0334
2517.00,0.0335
2516.00,0.0335
2515.00,0.0334
2514.00,0.0333
2513.00,0.0333
2512.00,0.0333
2511.00,0.0333
2510.00,0.0334
2509.00,0.0335
2508.00,0.0335
2507.00,0.0334
2506.00,0.0334
2505.00,0.0333
2504.00,0.0333
2503.00,0.0333
2502.00,0.0333
2501.00,0.0333
2500.00,0.0334
2499.00,0.0334
2498.00,0.0334
2497.00,0.0334
2496.00,0.0334
2495.00,0.0335
2494.00,0.0335
2493.00,0.0335
2492.00,0.0335
2491.00,0.0335
2490.00,0.0335
2489.00,0.0335
2488.00,0.0335
2487.00,0.0335
2486.00,0.0334
2485.00,0.0333
2484.00,0.0333
2483.00,0.0332
2482.00,0.0333
2481.00,0.0334
2480.00,0.0334
2479.00,0.0334
2478.00,0.0333
2477.00,0.0333
2476.00,0.0332
2475.00,0.0332
2474.00,0.0333
2473.00,0.0334
2472.00,0.0334
2471.00,0.0334
2470.00,0.0334
2469.00,0.0334
2468.00,0.0333
2467.00,0.0333
2466.00,0.0333
2465.00,0.0333
2464.00,0.0333
2463.00,0.0332
2462.00,0.0332
2461.00,0.0332
2460.00,0.0333
2459.00,0.0333
2458.00,0.0334
2457.00,0.0334
2456.00,0.0334
2455.00,0.0334
2454.00,0.0334
2453.00,0.0335
2452.00,0.0335
2451.00,0.0335
2450.00,0.0335
2449.00,0.0334
2448.00,0.0334
2447.00,0.0333
2446.00,0.0332
2445.00,0.0332
2444.00,0.0331
2443.00,0.0331
2442.00,0.0332
2441.00,0.0332
2440.00,0.0333
2439.00,0.0333
2438.00,0.0333
2437.00,0.0333
2436.00,0.0332
2435.00,0.0331
2434.00,0.0331
2433.00,0.0331
2432.00,0.0331
2431.00,0.0331
2430.00,0.0332
2429.00,0.0333
2428.00,0.0333
2427.00,0.0332
2426.00,0.0332
2425.00,0.0332
2424.00,0.0332
2423.00,0.0332
2422.00,0.0332
2421.00,0.0332
2420.00,0.0332
2419.00,0.0332
2418.00,0.0332
2417.00,0.0332
2416.00,0.0331
2415.00,0.0331
2414.00,0.0331
2413.00,0.0331
2412.00,0.0331
2411.00,0.0331
2410.00,0.0331
2409.00,0.0332
2408.00,0.0332
2407.00,0.0331
2406.00,0.0331
2405.00,0.0331
2404.00,0.0331
2403.00,0.0330
2402.00,0.0330
2401.00,0.0329
2400.00,0.0329
2399.00,0.0329
2398.00,0.0329
2397.00,0.0329
2396.00,0.0329
2395.00,0.0329
2394.00,0.0329
2393.00,0.0329
2392.00,0.0329
2391.00,0.0328
2390.00,0.0328
2389.00,0.0327
2388.00,0.0328
2387.00,0.0328
2386.00,0.0328
2385.00,0.0328
2384.00,0.0327
2383.00,0.0327
2382.00,0.0326
2381.00,0.0326
2380.00,0.0327
2379.00,0.0327
2378.00,0.0327
2377.00,0.0326
2376.00,0.0326
2375.00,0.0326
2374.00,0.0327
2373.00,0.0327
2372.00,0.0328
2371.00,0.0328
2370.00,0.0326
2369.00,0.0324
2368.00,0.0322
2367.00,0.0322
2366.00,0.0325
2365.00,0.0328
2364.00,0.0329
2363.00,0.0327
2362.00,0.0326
2361.00,0.0327
2360.00,0.0330
2359.00,0.0332
2358.00,0.0333
2357.00,0.0333
2356.00,0.0331
2355.00,0.0330
2354.00,0.0329
2353.00,0.0330
2352.00,0.0332
2351.00,0.0332
2350.00,0.0329
2349.00,0.0321
2348.00,0.0312
2347.00,0.0305
2346.00,0.0304
2345.00,0.0309
2344.00,0.0316
2343.00,0.0323
2342.00,0.0327
2341.00,0.0329
2340.00,0.0329
2339.00,0.0328
2338.00,0.0327
2337.00,0.0327
2336.00,0.0329
2335.00,0.0330
2334.00,0.0332
2333.00,0.0334
2332.00,0.0335
2331.00,0.0336
2330.00,0.0337
2329.00,0.0338
2328.00,0.0340
2327.00,0.0341
2326.00,0.0342
2325.00,0.0341
2324.00,0.0340
2323.00,0.0339
2322.00,0.0340
2321.00,0.0342
2320.00,0.0343
2319.00,0.0342
2318.00,0.0341
2317.00,0.0339
2316.00,0.0338
2315.00,0.0336
2314.00,0.0336
2313.00,0.0336
2312.00,0.0336
2311.00,0.0337
2310.00,0.0338
2309.00,0.0339
2308.00,0.0339
2307.00,0.0338
2306.00,0.0337
2305.00,0.0335
2304.00,0.0334
2303.00,0.0332
2302.00,0.0331
2301.00,0.0330
2300.00,0.0330
2299.00,0.0330
2298.00,0.0330
2297.00,0.0330
2296.00,0.0330
2295.00,0.0330
2294.00,0.0330
2293.00,0.0331
2292.00,0.0333
2291.00,0.0334
2290.00,0.0334
2289.00,0.0333
2288.00,0.0333
2287.00,0.0333
2286.00,0.0334
2285.00,0.0335
2284.00,0.0336
2283.00,0.0337
2282.00,0.0336
2281.00,0.0335
2280.00,0.0334
2279.00,0.0334
2278.00,0.0334
2277.00,0.0334
2276.00,0.0333
2275.00,0.0332
2274.00,0.0330
2273.00,0.0329
2272.00,0.0329
2271.00,0.0329
2270.00,0.0330
2269.00,0.0331
2268.00,0.0332
2267.00,0.0331
2266.00,0.0331
2265.00,0.0330
2264.00,0.0331
2263.00,0.0332
2262.00,0.0333
2261.00,0.0334
2260.00,0.0334
2259.00,0.0333
2258.00,0.0331
2257.00,0.0328
2256.00,0.0326
2255.00,0.0326
2254.00,0.0327
2253.00,0.0328
2252.00,0.0328
2251.00,0.0329
2250.00,0.0329
2249.00,0.0329
2248.00,0.0329
2247.00,0.0330
2246.00,0.0332
2245.00,0.0334
2244.00,0.0335
2243.00,0.0334
2242.00,0.0333
2241.00,0.0332
2240.00,0.0330
2239.00,0.0329
2238.00,0.0328
2237.00,0.0328
2236.00,0.0329
2235.00,0.0330
2234.00,0.0331
2233.00,0.0331
2232.00,0.0330
2231.00,0.0329
2230.00,0.0328
2229.00,0.0328
2228.00,0.0329
2227.00,0.0331
2226.00,0.0332
2225.00,0.0333
2224.00,0.0332
2223.00,0.0330
2222.00,0.0329
2221.00,0.0329
2220.00,0.0329
2219.00,0.0329
2218.00,0.0329
2217.00,0.0329
2216.00,0.0329
2215.00,0.0331
2214.00,0.0333
2213.00,0.0333
2212.00,0.0331
2211.00,0.0329
2210.00,0.0328
2209.00,0.0328
2208.00,0.0329
2207.00,0.0331
2206.00,0.0332
2205.00,0.0332
2204.00,0.0332
2203.00,0.0331
2202.00,0.0330
2201.00,0.0329
2200.00,0.0327
2199.00,0.0326
2198.00,0.0327
2197.00,0.0328
2196.00,0.0329
2195.00,0.0328
2194.00,0.0327
2193.00,0.0326
2192.00,0.0325
2191.00,0.0323
2190.00,0.0321
2189.00,0.0320
2188.00,0.0320
2187.00,0.0324
2186.00,0.0328
2185.00,0.0330
2184.00,0.0329
2183.00,0.0327
2182.00,0.0326
2181.00,0.0326
2180.00,0.0327
2179.00,0.0328
2178.00,0.0328
2177.00,0.0329
2176.00,0.0328
2175.00,0.0328
2174.00,0.0328
2173.00,0.0328
2172.00,0.0329
2171.00,0.0330
2170.00,0.0331
2169.00,0.0332
2168.00,0.0332
2167.00,0.0332
2166.00,0.0332
2165.00,0.0334
2164.00,0.0336
2163.00,0.0338
2162.00,0.0339
2161.00,0.0338
2160.00,0.0332
2159.00,0.0325
2158.00,0.0319
2157.00,0.0317
2156.00,0.0317
2155.00,0.0319
2154.00,0.0322
2153.00,0.0324
2152.00,0.0323
2151.00,0.0320
2150.00,0.0317
2149.00,0.0315
2148.00,0.0316
2147.00,0.0319
2146.00,0.0323
2145.00,0.0326
2144.00,0.0327
2143.00,0.0328
2142.00,0.0328
2141.00,0.0328
2140.00,0.0327
2139.00,0.0326
2138.00,0.0323
2137.00,0.0321
2136.00,0.0319
2135.00,0.0317
2134.00,0.0317
2133.00,0.0317
2132.00,0.0317
2131.00,0.0317
2130.00,0.0318
2129.00,0.0319
2128.00,0.0321
2127.00,0.0322
2126.00,0.0323
2125.00,0.0322
2124.00,0.0321
2123.00,0.0320
2122.00,0.0320
2121.00,0.0319
2120.00,0.0318
2119.00,0.0318
2118.00,0.0317
2117.00,0.0317
2116.00,0.0317
2115.00,0.0316
2114.00,0.0315
2113.00,0.0314
2112.00,0.0315
2111.00,0.0316
2110.00,0.0318
2109.00,0.0320
2108.00,0.0320
2107.00,0.0321
2106.00,0.0321
2105.00,0.0321
2104.00,0.0321
2103.00,0.0320
2102.00,0.0320
2101.00,0.0319
2100.00,0.0318
2099.00,0.0316
2098.00,0.0314
2097.00,0.0314
2096.00,0.0315
2095.00,0.0316
2094.00,0.0317
2093.00,0.0317
2092.00,0.0317
2091.00,0.0317
2090.00,0.0317
2089.00,0.0318
2088.00,0.0318
2087.00,0.0318
2086.00,0.0318
2085.00,0.0319
2084.00,0.0319
2083.00,0.0319
2082.00,0.0319
2081.00,0.0319
2080.00,0.0319
2079.00,0.0320
2078.00,0.0319
2077.00,0.0319
2076.00,0.0319
2075.00,0.0319
2074.00,0.0319
2073.00,0.0318
2072.00,0.0318
2071.00,0.0319
2070.00,0.0319
2069.00,0.0317
2068.00,0.0315
2067.00,0.0313
2066.00,0.0312
2065.00,0.0313
2064.00,0.0314
2063.00,0.0315
2062.00,0.0317
2061.00,0.0318
2060.00,0.0317
2059.00,0.0316
2058.00,0.0316
2057.00,0.0316
2056.00,0.0317
2055.00,0.0317
2054.00,0.0319
2053.00,0.0321
2052.00,0.0323
2051.00,0.0323
2050.00,0.0320
2049.00,0.0317
2048.00,0.0315
2047.00,0.0314
2046.00,0.0316
2045.00,0.0320
2044.00,0.0323
2043.00,0.0325
2042.00,0.0324
2041.00,0.0322
2040.00,0.0318
2039.00,0.0316
2038.00,0.0316
2037.00,0.0318
2036.00,0.0320
2035.00,0.0319
2034.00,0.0318
2033.00,0.0319
2032.00,0.0323
2031.00,0.0326
2030.00,0.0327
2029.00,0.0324
2028.00,0.0320
2027.00,0.0317
2026.00,0.0315
2025.00,0.0314
2024.00,0.0312
2023.00,0.0309
2022.00,0.0307
2021.00,0.0306
2020.00,0.0306
2019.00,0.0305
2018.00,0.0305
2017.00,0.0304
2016.00,0.0305
2015.00,0.0307
2014.00,0.0310
2013.00,0.0312
2012.00,0.0312
2011.00,0.0312
2010.00,0.0312
2009.00,0.0312
2008.00,0.0312
2007.00,0.0311
2006.00,0.0309
2005.00,0.0307
2004.00,0.0307
2003.00,0.0309
2002.00,0.0313
2001.00,0.0317
2000.00,0.0318
1999.00,0.0316
1998.00,0.0314
1997.00,0.0312
1996.00,0.0313
1995.00,0.0315
1994.00,0.0318
1993.00,0.0319
1992.00,0.0319
1991.00,0.0317
1990.00,0.0314
1989.00,0.0311
1988.00,0.0310
1987.00,0.0309
1986.00,0.0309
1985.00,0.0309
1984.00,0.0310
1983.00,0.0310
1982.00,0.0312
1981.00,0.0313
1980.00,0.0312
1979.00,0.0309
1978.00,0.0305
1977.00,0.0303
1976.00,0.0304
1975.00,0.0307
1974.00,0.0310
1973.00,0.0310
1972.00,0.0308
1971.00,0.0306
1970.00,0.0307
1969.00,0.0309
1968.00,0.0311
1967.00,0.0310
1966.00,0.0308
1965.00,0.0305
1964.00,0.0304
1963.00,0.0304
1962.00,0.0304
1961.00,0.0305
1960.00,0.0306
1959.00,0.0307
1958.00,0.0307
1957.00,0.0306
1956.00,0.0304
1955.00,0.0303
1954.00,0.0304
1953.00,0.0306
1952.00,0.0307
1951.00,0.0305
1950.00,0.0303
1949.00,0.0301
1948.00,0.0301
1947.00,0.0301
1946.00,0.0302
1945.00,0.0301
1944.00,0.0299
1943.00,0.0297
1942.00,0.0295
1941.00,0.0295
1940.00,0.0295
1939.00,0.0296
1938.00,0.0296
1937.00,0.0296
1936.00,0.0296
1935.00,0.0295
1934.00,0.0294
1933.00,0.0293
1932.00,0.0294
1931.00,0.0296
1930.00,0.0298
1929.00,0.0300
1928.00,0.0301
1927.00,0.0301
1926.00,0.0300
1925.00,0.0300
1924.00,0.0299
1923.00,0.0298
1922.00,0.0297
1921.00,0.0298
1920.00,0.0298
1919.00,0.0296
1918.00,0.0294
1917.00,0.0293
1916.00,0.0294
1915.00,0.0295
1914.00,0.0296
1913.00,0.0295
1912.00,0.0295
1911.00,0.0294
1910.00,0.0293
1909.00,0.0292
1908.00,0.0290
1907.00,0.0290
1906.00,0.0290
1905.00,0.0291
1904.00,0.0291
1903.00,0.0291
1902.00,0.0291
1901.00,0.0290
1900.00,0.0290
1899.00,0.0290
1898.00,0.0291
1897.00,0.0291
1896.00,0.0289
1895.00,0.0287
1894.00,0.0287
1893.00,0.0288
1892.00,0.0289
1891.00,0.0289
1890.00,0.0289
1889.00,0.0287
1888.00,0.0286
1887.00,0.0286
1886.00,0.0286
1885.00,0.0286
1884.00,0.0286
1883.00,0.0286
1882.00,0.0286
1881.00,0.0285
1880.00,0.0285
1879.00,0.0285
1878.00,0.0284
1877.00,0.0284
1876.00,0.0284
1875.00,0.0284
1874.00,0.0285
1873.00,0.0286
1872.00,0.0287
1871.00,0.0288
1870.00,0.0287
1869.00,0.0285
1868.00,0.0282
1867.00,0.0281
1866.00,0.0281
1865.00,0.0282
1864.00,0.0282
1863.00,0.0281
1862.00,0.0280
1861.00,0.0280
1860.00,0.0279
1859.00,0.0278
1858.00,0.0278
1857.00,0.0279
1856.00,0.0279
1855.00,0.0279
1854.00,0.0279
1853.00,0.0278
1852.00,0.0277
1851.00,0.0277
1850.00,0.0278
1849.00,0.0277
1848.00,0.0277
1847.00,0.0278
1846.00,0.0279
1845.00,0.0279
1844.00,0.0277
1843.00,0.0275
1842.00,0.0275
1841.00,0.0276
1840.00,0.0276
1839.00,0.0276
1838.00,0.0275
1837.00,0.0275
1836.00,0.0274
1835.00,0.0274
1834.00,0.0273
1833.00,0.0274
1832.00,0.0275
1831.00,0.0274
1830.00,0.0272
1829.00,0.0270
1828.00,0.0269
1827.00,0.0270
1826.00,0.0271
1825.00,0.0270
1824.00,0.0270
1823.00,0.0269
1822.00,0.0270
1821.00,0.0270
1820.00,0.0269
1819.00,0.0268
1818.00,0.0267
1817.00,0.0267
1816.00,0.0266
1815.00,0.0266
1814.00,0.0265
1813.00,0.0265
1812.00,0.0265
1811.00,0.0264
1810.00,0.0263
1809.00,0.0264
1808.00,0.0265
1807.00,0.0265
1806.00,0.0265
1805.00,0.0265
1804.00,0.0265
1803.00,0.0265
1802.00,0.0265
1801.00,0.0264
1800.00,0.0263
1799.00,0.0262
1798.00,0.0262
1797.00,0.0263
1796.00,0.0264
1795.00,0.0265
1794.00,0.0265
1793.00,0.0265
1792.00,0.0264
1791.00,0.0263
1790.00,0.0263
1789.00,0.0264
1788.00,0.0265
1787.00,0.0267
1786.00,0.0267
1785.00,0.0267
1784.00,0.0267
1783.00,0.0267
1782.00,0.0266
1781.00,0.0266
1780.00,0.0265
1779.00,0.0266
1778.00,0.0267
1777.00,0.0269
1776.00,0.0270
1775.00,0.0272
1774.00,0.0273
1773.00,0.0272
1772.00,0.0269
1771.00,0.0268
1770.00,0.0270
1769.00,0.0273
1768.00,0.0274
1767.00,0.0274
1766.00,0.0274
1765.00,0.0275
1764.00,0.0277
1763.00,0.0277
1762.00,0.0275
1761.00,0.0274
1760.00,0.0274
1759.00,0.0276
1758.00,0.0276
1757.00,0.0276
1756.00,0.0275
1755.00,0.0277
1754.00,0.0279
1753.00,0.0280
1752.00,0.0280
1751.00,0.0278
1750.00,0.0276
1749.00,0.0275
1748.00,0.0275
1747.00,0.0276
1746.00,0.0278
1745.00,0.0279
1744.00,0.0280
1743.00,0.0281
1742.00,0.0283
1741.00,0.0284
1740.00,0.0284
1739.00,0.0284
1738.00,0.0285
1737.00,0.0289
1736.00,0.0293
1735.00,0.0295
1734.00,0.0295
1733.00,0.0292
1732.00,0.0293
1731.00,0.0295
1730.00,0.0297
1729.00,0.0299
1728.00,0.0301
1727.00,0.0303
1726.00,0.0305
1725.00,0.0307
1724.00,0.0309
1723.00,0.0310
1722.00,0.0311
1721.00,0.0313
1720.00,0.0314
1719.00,0.0314
1718.00,0.0314
1717.00,0.0315
1716.00,0.0317
1715.00,0.0320
1714.00,0.0323
1713.00,0.0326
1712.00,0.0328
1711.00,0.0329
1710.00,0.0330
1709.00,0.0331
1708.00,0.0331
1707.00,0.0332
1706.00,0.0333
1705.00,0.0333
1704.00,0.0335
1703.00,0.0339
1702.00,0.0342
1701.00,0.0343
1700.00,0.0341
1699.00,0.0338
1698.00,0.0340
1697.00,0.0344
1696.00,0.0345
1695.00,0.0343
1694.00,0.0343
1693.00,0.0346
1692.00,0.0347
1691.00,0.0348
1690.00,0.0348
1689.00,0.0349
1688.00,0.0350
1687.00,0.0351
1686.00,0.0351
1685.00,0.0350
1684.00,0.0350
1683.00,0.0349
1682.00,0.0352
1681.00,0.0355
1680.00,0.0357
1679.00,0.0358
1678.00,0.0361
1677.00,0.0364
1676.00,0.0368
1675.00,0.0369
1674.00,0.0369
1673.00,0.0369
1672.00,0.0369
1671.00,0.0370
1670.00,0.0372
1669.00,0.0373
1668.00,0.0374
1667.00,0.0376
1666.00,0.0378
1665.00,0.0379
1664.00,0.0380
1663.00,0.0381
1662.00,0.0382
1661.00,0.0384
1660.00,0.0387
1659.00,0.0390
1658.00,0.0391
1657.00,0.0392
1656.00,0.0391
1655.00,0.0390
1654.00,0.0392
1653.00,0.0395
1652.00,0.0392
1651.00,0.0394
1650.00,0.0397
1649.00,0.0398
1648.00,0.0399
1647.00,0.0402
1646.00,0.0405
1645.00,0.0408
1644.00,0.0411
1643.00,0.0412
1642.00,0.0413
1641.00,0.0413
1640.00,0.0413
1639.00,0.0413
1638.00,0.0414
1637.00,0.0416
1636.00,0.0421
1635.00,0.0423
1634.00,0.0424
1633.00,0.0425
1632.00,0.0425
1631.00,0.0425
1630.00,0.0425
1629.00,0.0426
1628.00,0.0427
1627.00,0.0428
1626.00,0.0430
1625.00,0.0433
1624.00,0.0435
1623.00,0.0437
1622.00,0.0438
1621.00,0.0439
1620.00,0.0440
1619.00,0.0441
1618.00,0.0442
1617.00,0.0443
1616.00,0.0444
1615.00,0.0446
1614.00,0.0449
1613.00,0.0450
1612.00,0.0451
1611.00,0.0452
1610.00,0.0454
1609.00,0.0455
1608.00,0.0457
1607.00,0.0459
1606.00,0.0461
1605.00,0.0463
1604.00,0.0464
1603.00,0.0465
1602.00,0.0466
1601.00,0.0466
1600.00,0.0466
1599.00,0.0467
1598.00,0.0469
1597.00,0.0471
1596.00,0.0473
1595.00,0.0476
1594.00,0.0478
1593.00,0.0479
1592.00,0.0480
1591.00,0.0481
1590.00,0.0483
1589.00,0.0484
1588.00,0.0486
1587.00,0.0488
1586.00,0.0490
1585.00,0.0491
1584.00,0.0492
1583.00,0.0493
1582.00,0.0494
1581.00,0.0494
1580.00,0.0493
1579.00,0.0494
1578.00,0.0495
1577.00,0.0498
1576.00,0.0501
1575.00,0.0502
1574.00,0.0502
1573.00,0.0502
1572.00,0.0501
1571.00,0.0501
1570.00,0.0503
1569.00,0.0504
1568.00,0.0505
1567.00,0.0506
1566.00,0.0506
1565.00,0.0505
1564.00,0.0504
1563.00,0.0503
1562.00,0.0501
1561.00,0.0496
1560.00,0.0497
1559.00,0.0507
1558.00,0.0511
1557.00,0.0510
1556.00,0.0510
1555.00,0.0511
1554.00,0.0511
1553.00,0.0510
1552.00,0.0510
1551.00,0.0510
1550.00,0.0509
1549.00,0.0508
1548.00,0.0506
1547.00,0.0504
1546.00,0.0503
1545.00,0.0501
1544.00,0.0500
1543.00,0.0497
1542.00,0.0495
1541.00,0.0496
1540.00,0.0499
1539.00,0.0499
1538.00,0.0498
1537.00,0.0498
1536.00,0.0496
1535.00,0.0493
1534.00,0.0491
1533.00,0.0491
1532.00,0.0490
1531.00,0.0488
1530.00,0.0486
1529.00,0.0484
1528.00,0.0482
1527.00,0.0481
1526.00,0.0479
1525.00,0.0477
1524.00,0.0475
1523.00,0.0473
1522.00,0.0472
1521.00,0.0472
1520.00,0.0472
1519.00,0.0471
1518.00,0.0470
1517.00,0.0470
1516.00,0.0470
1515.00,0.0470
1514.00,0.0470
1513.00,0.0469
1512.00,0.0467
1511.00,0.0464
1510.00,0.0460
1509.00,0.0458
1508.00,0.0458
1507.00,0.0462
1506.00,0.0462
1505.00,0.0460
1504.00,0.0459
1503.00,0.0458
1502.00,0.0455
1501.00,0.0453
1500.00,0.0452
1499.00,0.0452
1498.00,0.0452
1497.00,0.0454
1496.00,0.0455
1495.00,0.0454
1494.00,0.0452
1493.00,0.0450
1492.00,0.0449
1491.00,0.0448
1490.00,0.0449
1489.00,0.0450
1488.00,0.0451
1487.00,0.0451
1486.00,0.0450
1485.00,0.0449
1484.00,0.0448
1483.00,0.0447
1482.00,0.0446
1481.00,0.0446
1480.00,0.0445
1479.00,0.0444
1478.00,0.0444
1477.00,0.0443
1476.00,0.0443
1475.00,0.0442
1474.00,0.0442
1473.00,0.0444
1472.00,0.0446
1471.00,0.0447
1470.00,0.0448
1469.00,0.0448
1468.00,0.0448
1467.00,0.0448
1466.00,0.0448
1465.00,0.0448
1464.00,0.0448
1463.00,0.0447
1462.00,0.0446
1461.00,0.0445
1460.00,0.0443
1459.00,0.0443
1458.00,0.0447
1457.00,0.0451
1456.00,0.0453
1455.00,0.0453
1454.00,0.0452
1453.00,0.0451
1452.00,0.0451
1451.00,0.0452
1450.00,0.0453
1449.00,0.0454
1448.00,0.0456
1447.00,0.0458
1446.00,0.0458
1445.00,0.0458
1444.00,0.0458
1443.00,0.0458
1442.00,0.0457
1441.00,0.0457
1440.00,0.0457
1439.00,0.0459
1438.00,0.0462
1437.00,0.0465
1436.00,0.0467
1435.00,0.0466
1434.00,0.0464
1433.00,0.0463
1432.00,0.0462
1431.00,0.0462
1430.00,0.0462
1429.00,0.0462
1428.00,0.0462
1427.00,0.0463
1426.00,0.0463
1425.00,0.0463
1424.00,0.0464
1423.00,0.0465
1422.00,0.0465
1421.00,0.0465
1420.00,0.0467
1419.00,0.0470
1418.00,0.0472
1417.00,0.0474
1416.00,0.0475
1415.00,0.0475
1414.00,0.0473
1413.00,0.0472
1412.00,0.0471
1411.00,0.0471
1410.00,0.0472
1409.00,0.0472
1408.00,0.0472
1407.00,0.0473
1406.00,0.0473
1405.00,0.0473
1404.00,0.0474
1403.00,0.0474
1402.00,0.0473
1401.00,0.0472
1400.00,0.0472
1399.00,0.0472
1398.00,0.0473
1397.00,0.0474
1396.00,0.0475
1395.00,0.0477
1394.00,0.0478
1393.00,0.0478
1392.00,0.0478
1391.00,0.0478
1390.00,0.0478
1389.00,0.0478
1388.00,0.0479
1387.00,0.0481
1386.00,0.0481
1385.00,0.0481
1384.00,0.0480
1383.00,0.0480
1382.00,0.0481
1381.00,0.0482
1380.00,0.0484
1379.00,0.0485
1378.00,0.0486
1377.00,0.0486
1376.00,0.0487
1375.00,0.0488
1374.00,0.0490
1373.00,0.0491
1372.00,0.0492
1371.00,0.0493
1370.00,0.0493
1369.00,0.0494
1368.00,0.0495
1367.00,0.0496
1366.00,0.0495
1365.00,0.0495
1364.00,0.0494
1363.00,0.0496
1362.00,0.0498
1361.00,0.0500
1360.00,0.0500
1359.00,0.0501
1358.00,0.0501
1357.00,0.0501
1356.00,0.0502
1355.00,0.0502
1354.00,0.0501
1353.00,0.0501
1352.00,0.0501
1351.00,0.0500
1350.00,0.0500
1349.00,0.0500
1348.00,0.0500
1347.00,0.0500
1346.00,0.0500
1345.00,0.0500
1344.00,0.0499
1343.00,0.0498
1342.00,0.0497
1341.00,0.0498
1340.00,0.0500
1339.00,0.0501
1338.00,0.0502
1337.00,0.0502
1336.00,0.0502
1335.00,0.0501
1334.00,0.0501
1333.00,0.0501
1332.00,0.0501
1331.00,0.0501
1330.00,0.0500
1329.00,0.0500
1328.00,0.0500
1327.00,0.0500
1326.00,0.0500
1325.00,0.0500
1324.00,0.0501
1323.00,0.0501
1322.00,0.0502
1321.00,0.0503
1320.00,0.0503
1319.00,0.0504
1318.00,0.0503
1317.00,0.0502
1316.00,0.0501
1315.00,0.0500
1314.00,0.0501
1313.00,0.0502
1312.00,0.0503
1311.00,0.0504
1310.00,0.0505
1309.00,0.0505
1308.00,0.0504
1307.00,0.0504
1306.00,0.0504
1305.00,0.0504
1304.00,0.0505
1303.00,0.0506
1302.00,0.0507
1301.00,0.0507
1300.00,0.0506
1299.00,0.0506
1298.00,0.0505
1297.00,0.0505
1296.00,0.0505
1295.00,0.0505
1294.00,0.0506
1293.00,0.0506
1292.00,0.0507
1291.00,0.0507
1290.00,0.0508
1289.00,0.0508
1288.00,0.0509
1287.00,0.0509
1286.00,0.0508
1285.00,0.0508
1284.00,0.0509
1283.00,0.0510
1282.00,0.0510
1281.00,0.0510
1280.00,0.0510
1279.00,0.0510
1278.00,0.0509
1277.00,0.0509
1276.00,0.0509
1275.00,0.0510
1274.00,0.0510
1273.00,0.0511
1272.00,0.0511
1271.00,0.0511
1270.00,0.0511
1269.00,0.0511
1268.00,0.0512
1267.00,0.0513
1266.00,0.0513
1265.00,0.0514
1264.00,0.0514
1263.00,0.0513
1262.00,0.0513
1261.00,0.0513
1260.00,0.0514
1259.00,0.0515
1258.00,0.0516
1257.00,0.0517
1256.00,0.0516
1255.00,0.0516
1254.00,0.0516
1253.00,0.0517
1252.00,0.0518
1251.00,0.0519
1250.00,0.0519
1249.00,0.0519
1248.00,0.0520
1247.00,0.0521
1246.00,0.0522
1245.00,0.0523
1244.00,0.0525
1243.00,0.0526
1242.00,0.0526
1241.00,0.0526
1240.00,0.0526
1239.00,0.0526
1238.00,0.0527
1237.00,0.0529
1236.00,0.0530
1235.00,0.0531
1234.00,0.0532
1233.00,0.0532
1232.00,0.0532
1231.00,0.0532
1230.00,0.0532
1229.00,0.0533
1228.00,0.0534
1227.00,0.0535
1226.00,0.0536
1225.00,0.0535
1224.00,0.0535
1223.00,0.0535
1222.00,0.0536
1221.00,0.0537
1220.00,0.0538
1219.00,0.0539
1218.00,0.0539
1217.00,0.0539
1216.00,0.0539
1215.00,0.0539
1214.00,0.0540
1213.00,0.0540
1212.00,0.0541
1211.00,0.0542
1210.00,0.0543
1209.00,0.0543
1208.00,0.0543
1207.00,0.0543
1206.00,0.0543
1205.00,0.0543
1204.00,0.0543
1203.00,0.0543
1202.00,0.0543
1201.00,0.0543
1200.00,0.0543
1199.00,0.0544
1198.00,0.0544
1197.00,0.0543
1196.00,0.0543
1195.00,0.0542
1194.00,0.0542
1193.00,0.0542
1192.00,0.0542
1191.00,0.0542
1190.00,0.0543
1189.00,0.0542
1188.00,0.0542
1187.00,0.0542
1186.00,0.0542
1185.00,0.0542
1184.00,0.0542
1183.00,0.0542
1182.00,0.0541
1181.00,0.0540
1180.00,0.0539
1179.00,0.0538
1178.00,0.0538
1177.00,0.0538
1176.00,0.0538
1175.00,0.0539
1174.00,0.0540
1173.00,0.0540
1172.00,0.0540
1171.00,0.0538
1170.00,0.0537
1169.00,0.0536
1168.00,0.0536
1167.00,0.0536
1166.00,0.0537
1165.00,0.0537
1164.00,0.0537
1163.00,0.0537
1162.00,0.0537
1161.00,0.0537
1160.00,0.0537
1159.00,0.0537
1158.00,0.0537
1157.00,0.0537
1156.00,0.0537
1155.00,0.0537
1154.00,0.0538
1153.00,0.0537
1152.00,0.0537
1151.00,0.0536
1150.00,0.0536
1149.00,0.0535
1148.00,0.0534
1147.00,0.0534
1146.00,0.0535
1145.00,0.0536
1144.00,0.0537
1143.00,0.0539
1142.00,0.0540
1141.00,0.0541
1140.00,0.0541
1139.00,0.0541
1138.00,0.0541
1137.00,0.0542
1136.00,0.0544
1135.00,0.0546
1134.00,0.0547
1133.00,0.0547
1132.00,0.0546
1131.00,0.0546
1130.00,0.0547
1129.00,0.0548
1128.00,0.0550
1127.00,0.0550
1126.00,0.0548
1125.00,0.0546
1124.00,0.0546
1123.00,0.0548
1122.00,0.0552
1121.00,0.0555
1120.00,0.0556
1119.00,0.0557
1118.00,0.0556
1117.00,0.0557
1116.00,0.0558
1115.00,0.0561
1114.00,0.0563
1113.00,0.0563
1112.00,0.0563
1111.00,0.0563
1110.00,0.0563
1109.00,0.0563
1108.00,0.0563
1107.00,0.0564
1106.00,0.0565
1105.00,0.0565
1104.00,0.0565
1103.00,0.0566
1102.00,0.0567
1101.00,0.0567
1100.00,0.0567
1099.00,0.0567
1098.00,0.0568
1097.00,0.0568
1096.00,0.0568
1095.00,0.0568
1094.00,0.0568
1093.00,0.0569
1092.00,0.0571
1091.00,0.0572
1090.00,0.0571
1089.00,0.0569
1088.00,0.0567
1087.00,0.0567
1086.00,0.0568
1085.00,0.0569
1084.00,0.0571
1083.00,0.0571
1082.00,0.0572
1081.00,0.0573
1080.00,0.0574
1079.00,0.0575
1078.00,0.0578
1077.00,0.0580
1076.00,0.0580
1075.00,0.0579
1074.00,0.0577
1073.00,0.0575
1072.00,0.0575
1071.00,0.0574
1070.00,0.0573
1069.00,0.0572
1068.00,0.0571
1067.00,0.0572
1066.00,0.0574
1065.00,0.0576
1064.00,0.0578
1063.00,0.0580
1062.00,0.0580
1061.00,0.0578
1060.00,0.0576
1059.00,0.0575
1058.00,0.0575
1057.00,0.0576
1056.00,0.0576
1055.00,0.0577
1054.00,0.0578
1053.00,0.0580
1052.00,0.0581
1051.00,0.0583
1050.00,0.0584
1049.00,0.0586
1048.00,0.0587
1047.00,0.0588
1046.00,0.0587
1045.00,0.0587
1044.00,0.0588
1043.00,0.0588
1042.00,0.0586
1041.00,0.0584
1040.00,0.0583
1039.00,0.0584
1038.00,0.0586
1037.00,0.0587
1036.00,0.0586
1035.00,0.0585
1034.00,0.0583
1033.00,0.0583
1032.00,0.0583
1031.00,0.0583
1030.00,0.0582
1029.00,0.0580
1028.00,0.0578
1027.00,0.0577
1026.00,0.0577
1025.00,0.0577
1024.00,0.0576
1023.00,0.0575
1022.00,0.0573
1021.00,0.0572
1020.00,0.0571
1019.00,0.0570
1018.00,0.0569
1017.00,0.0569
1016.00,0.0570
1015.00,0.0571
1014.00,0.0571
1013.00,0.0571
1012.00,0.0570
1011.00,0.0570
1010.00,0.0569
1009.00,0.0568
1008.00,0.0566
1007.00,0.0564
1006.00,0.0562
1005.00,0.0562
1004.00,0.0562
1003.00,0.0563
1002.00,0.0563
1001.00,0.0562
1000.00,0.0559
999.00,0.0556
998.00,0.0553
997.00,0.0551
996.00,0.0551
995.00,0.0552
994.00,0.0551
993.00,0.0549
992.00,0.0547
991.00,0.0545
990.00,0.0544
989.00,0.0544
988.00,0.0544
987.00,0.0545
986.00,0.0546
985.00,0.0545
984.00,0.0543
983.00,0.0541
982.00,0.0538
981.00,0.0537
980.00,0.0537
979.00,0.0537
978.00,0.0535
977.00,0.0533
976.00,0.0530
975.00,0.0528
974.00,0.0527
973.00,0.0527
972.00,0.0526
971.00,0.0525
970.00,0.0523
969.00,0.0520
968.00,0.0519
967.00,0.0518
966.00,0.0517
965.00,0.0515
964.00,0.0514
963.00,0.0514
962.00,0.0515
961.00,0.0516
960.00,0.0515
959.00,0.0514
958.00,0.0512
957.00,0.0511
956.00,0.0510
955.00,0.0510
954.00,0.0509
953.00,0.0508
952.00,0.0507
951.00,0.0508
950.00,0.0509
949.00,0.0510
948.00,0.0509
947.00,0.0508
946.00,0.0507
945.00,0.0506
944.00,0.0505
943.00,0.0505
942.00,0.0505
941.00,0.0505
940.00,0.0506
939.00,0.0508
938.00,0.0509
937.00,0.0510
936.00,0.0509
935.00,0.0508
934.00,0.0508
933.00,0.0510
932.00,0.0513
931.00,0.0515
930.00,0.0516
929.00,0.0516
928.00,0.0516
927.00,0.0517
926.00,0.0518
925.00,0.0520
924.00,0.0521
923.00,0.0522
922.00,0.0522
921.00,0.0522
920.00,0.0521
919.00,0.0521
918.00,0.0521
917.00,0.0522
916.00,0.0523
915.00,0.0524
914.00,0.0524
913.00,0.0524
912.00,0.0524
911.00,0.0524
910.00,0.0523
909.00,0.0520
908.00,0.0518
907.00,0.0517
906.00,0.0518
905.00,0.0521
904.00,0.0525
903.00,0.0529
902.00,0.0532
901.00,0.0532
900.00,0.0529
899.00,0.0528
898.00,0.0528
897.00,0.0529
896.00,0.0531
895.00,0.0531
894.00,0.0530
893.00,0.0529
892.00,0.0528
891.00,0.0528
890.00,0.0528
889.00,0.0530
888.00,0.0530
887.00,0.0528
886.00,0.0525
885.00,0.0522
884.00,0.0523
883.00,0.0526
882.00,0.0530
881.00,0.0532
880.00,0.0532
879.00,0.0530
878.00,0.0527
877.00,0.0523
876.00,0.0520
875.00,0.0518
874.00,0.0518
873.00,0.0519
872.00,0.0519
871.00,0.0519
870.00,0.0519
869.00,0.0518
868.00,0.0518
867.00,0.0518
866.00,0.0519
865.00,0.0520
864.00,0.0522
863.00,0.0524
862.00,0.0526
861.00,0.0527
860.00,0.0527
859.00,0.0524
858.00,0.0520
857.00,0.0516
856.00,0.0516
855.00,0.0519
854.00,0.0523
853.00,0.0526
852.00,0.0526
851.00,0.0526
850.00,0.0526
849.00,0.0527
848.00,0.0528
847.00,0.0530
846.00,0.0532
845.00,0.0534
844.00,0.0536
843.00,0.0536
842.00,0.0534
841.00,0.0532
840.00,0.0530
839.00,0.0529
838.00,0.0529
837.00,0.0530
836.00,0.0532
835.00,0.0533
834.00,0.0534
833.00,0.0534
832.00,0.0535
831.00,0.0535
830.00,0.0535
829.00,0.0535
828.00,0.0536
827.00,0.0539
826.00,0.0542
825.00,0.0545
824.00,0.0547
823.00,0.0548
822.00,0.0549
821.00,0.0550
820.00,0.0551
819.00,0.0553
818.00,0.0555
817.00,0.0554
816.00,0.0553
815.00,0.0551
814.00,0.0551
813.00,0.0552
812.00,0.0553
811.00,0.0555
810.00,0.0556
809.00,0.0557
808.00,0.0558
807.00,0.0559
806.00,0.0558
805.00,0.0556
804.00,0.0554
803.00,0.0553
802.00,0.0554
801.00,0.0557
800.00,0.0562
799.00,0.0565
798.00,0.0566
797.00,0.0564
796.00,0.0563
795.00,0.0562
794.00,0.0562
793.00,0.0562
792.00,0.0563
791.00,0.0564
790.00,0.0566
789.00,0.0566
788.00,0.0567
787.00,0.0567
786.00,0.0568
785.00,0.0571
784.00,0.0574
783.00,0.0575
782.00,0.0575
781.00,0.0574
780.00,0.0572
779.00,0.0571
778.00,0.0571
777.00,0.0572
776.00,0.0575
775.00,0.0576
774.00,0.0575
773.00,0.0574
772.00,0.0574
771.00,0.0575
770.00,0.0577
769.00,0.0578
768.00,0.0580
767.00,0.0580
766.00,0.0579
765.00,0.0578
764.00,0.0577
763.00,0.0577
762.00,0.0577
761.00,0.0576
760.00,0.0575
759.00,0.0577
758.00,0.0580
757.00,0.0583
756.00,0.0584
755.00,0.0584
754.00,0.0583
753.00,0.0582
752.00,0.0583
751.00,0.0585
750.00,0.0589
749.00,0.0593
748.00,0.0595
747.00,0.0595
746.00,0.0594
745.00,0.0592
744.00,0.0590
743.00,0.0589
742.00,0.0588
741.00,0.0586
740.00,0.0583
739.00,0.0581
738.00,0.0581
737.00,0.0582
736.00,0.0584
735.00,0.0585
734.00,0.0586
733.00,0.0587
732.00,0.0587
731.00,0.0587
730.00,0.0589
729.00,0.0592
728.00,0.0596
727.00,0.0600
726.00,0.0602
725.00,0.0602
724.00,0.0601
723.00,0.0599
722.00,0.0597
721.00,0.0596
720.00,0.0598
719.00,0.0599
718.00,0.0601
717.00,0.0601
716.00,0.0600
715.00,0.0598
714.00,0.0595
713.00,0.0596
712.00,0.0599
711.00,0.0601
710.00,0.0600
709.00,0.0598
708.00,0.0597
707.00,0.0598
706.00,0.0600
705.00,0.0603
704.00,0.0607
703.00,0.0610
702.00,0.0612
701.00,0.0611
700.00,0.0609
699.00,0.0607
698.00,0.0607
697.00,0.0607
696.00,0.0608
695.00,0.0609
694.00,0.0609
693.00,0.0610
692.00,0.0611
691.00,0.0611
690.00,0.0613
689.00,0.0615
688.00,0.0617
687.00,0.0618
686.00,0.0618
685.00,0.0617
684.00,0.0616
683.00,0.0614
682.00,0.0611
681.00,0.0609
680.00,0.0609
679.00,0.0609
678.00,0.0609
677.00,0.0611
676.00,0.0613
675.00,0.0613
674.00,0.0613
673.00,0.0614
672.00,0.0616
671.00,0.0620
670.00,0.0624
669.00,0.0628
668.00,0.0635
667.00,0.0641
666.00,0.0640
665.00,0.0637
664.00,0.0634
663.00,0.0632
662.00,0.0627
661.00,0.0620
660.00,0.0614
659.00,0.0611
658.00,0.0613
657.00,0.0620
656.00,0.0630
655.00,0.0636
654.00,0.0635
653.00,0.0626
652.00,0.0617
651.00,0.0614
650.00,0.0617
