Created as New Dataset,Monday, April 03 2023
cm-1,A
4000.00,0.0172
3999.00,0.0172
3998.00,0.0172
3997.00,0.0173
3996.00,0.0173
3995.00,0.0173
3994.00,0.0173
3993.00,0.0172
3992.00,0.0172
3991.00,0.0172
3990.00,0.0172
3989.00,0.0171
3988.00,0.0171
3987.00,0.0170
3986.00,0.0170
3985.00,0.0171
3984.00,0.0171
3983.00,0.0172
3982.00,0.0172
3981.00,0.0172
3980.00,0.0171
3979.00,0.0171
3978.00,0.0170
3977.00,0.0170
3976.00,0.0169
3975.00,0.0169
3974.00,0.0169
3973.00,0.0170
3972.00,0.0171
3971.00,0.0172
3970.00,0.0172
3969.00,0.0172
3968.00,0.0172
3967.00,0.0171
3966.00,0.0169
3965.00,0.0169
3964.00,0.0169
3963.00,0.0170
3962.00,0.0171
3961.00,0.0171
3960.00,0.0171
3959.00,0.0171
3958.00,0.0171
3957.00,0.0170
3956.00,0.0170
3955.00,0.0169
3954.00,0.0168
3953.00,0.0168
3952.00,0.0168
3951.00,0.0170
3950.00,0.0171
3949.00,0.0172
3948.00,0.0173
3947.00,0.0174
3946.00,0.0174
3945.00,0.0174
3944.00,0.0172
3943.00,0.0171
3942.00,0.0169
3941.00,0.0168
3940.00,0.0168
3939.00,0.0169
3938.00,0.0169
3937.00,0.0169
3936.00,0.0170
3935.00,0.0171
3934.00,0.0171
3933.00,0.0171
3932.00,0.0171
3931.00,0.0171
3930.00,0.0171
3929.00,0.0171
3928.00,0.0171
3927.00,0.0170
3926.00,0.0170
3925.00,0.0170
3924.00,0.0171
3923.00,0.0172
3922.00,0.0173
3921.00,0.0173
3920.00,0.0172
3919.00,0.0171
3918.00,0.0170
3917.00,0.0170
3916.00,0.0169
3915.00,0.0169
3914.00,0.0168
3913.00,0.0168
3912.00,0.0167
3911.00,0.0168
3910.00,0.0169
3909.00,0.0170
3908.00,0.0171
3907.00,0.0172
3906.00,0.0172
3905.00,0.0172
3904.00,0.0172
3903.00,0.0174
3902.00,0.0176
3901.00,0.0178
3900.00,0.0177
3899.00,0.0176
3898.00,0.0174
3897.00,0.0173
3896.00,0.0172
3895.00,0.0171
3894.00,0.0171
3893.00,0.0170
3892.00,0.0169
3891.00,0.0168
3890.00,0.0168
3889.00,0.0170
3888.00,0.0171
3887.00,0.0171
3886.00,0.0170
3885.00,0.0170
3884.00,0.0172
3883.00,0.0173
3882.00,0.0172
3881.00,0.0169
3880.00,0.0168
3879.00,0.0168
3878.00,0.0170
3877.00,0.0172
3876.00,0.0172
3875.00,0.0172
3874.00,0.0172
3873.00,0.0173
3872.00,0.0174
3871.00,0.0173
3870.00,0.0172
3869.00,0.0171
3868.00,0.0172
3867.00,0.0172
3866.00,0.0172
3865.00,0.0171
3864.00,0.0172
3863.00,0.0173
3862.00,0.0173
3861.00,0.0173
3860.00,0.0172
3859.00,0.0172
3858.00,0.0172
3857.00,0.0174
3856.00,0.0174
3855.00,0.0172
3854.00,0.0170
3853.00,0.0172
3852.00,0.0173
3851.00,0.0173
3850.00,0.0171
3849.00,0.0168
3848.00,0.0167
3847.00,0.0166
3846.00,0.0166
3845.00,0.0166
3844.00,0.0167
3843.00,0.0168
3842.00,0.0170
3841.00,0.0172
3840.00,0.0174
3839.00,0.0175
3838.00,0.0176
3837.00,0.0175
3836.00,0.0174
3835.00,0.0173
3834.00,0.0172
3833.00,0.0170
3832.00,0.0167
3831.00,0.0166
3830.00,0.0166
3829.00,0.0166
3828.00,0.0166
3827.00,0.0165
3826.00,0.0166
3825.00,0.0169
3824.00,0.0172
3823.00,0.0174
3822.00,0.0172
3821.00,0.0171
3820.00,0.0171
3819.00,0.0171
3818.00,0.0171
3817.00,0.0169
3816.00,0.0166
3815.00,0.0166
3814.00,0.0166
3813.00,0.0166
3812.00,0.0165
3811.00,0.0164
3810.00,0.0163
3809.00,0.0163
3808.00,0.0162
3807.00,0.0163
3806.00,0.0165
3805.00,0.0169
3804.00,0.0172
3803.00,0.0173
3802.00,0.0171
3801.00,0.0170
3800.00,0.0171
3799.00,0.0170
3798.00,0.0168
3797.00,0.0164
3796.00,0.0162
3795.00,0.0161
3794.00,0.0161
3793.00,0.0161
3792.00,0.0160
3791.00,0.0160
3790.00,0.0160
3789.00,0.0161
3788.00,0.0162
3787.00,0.0163
3786.00,0.0163
3785.00,0.0162
3784.00,0.0162
3783.00,0.0163
3782.00,0.0163
3781.00,0.0163
3780.00,0.0162
3779.00,0.0161
3778.00,0.0162
3777.00,0.0162
3776.00,0.0162
3775.00,0.0162
3774.00,0.0161
3773.00,0.0161
3772.00,0.0161
3771.00,0.0160
3770.00,0.0160
3769.00,0.0160
3768.00,0.0161
3767.00,0.0162
3766.00,0.0162
3765.00,0.0162
3764.00,0.0163
3763.00,0.0164
3762.00,0.0164
3761.00,0.0163
3760.00,0.0162
3759.00,0.0161
3758.00,0.0161
3757.00,0.0162
3756.00,0.0164
3755.00,0.0165
3754.00,0.0167
3753.00,0.0167
3752.00,0.0167
3751.00,0.0167
3750.00,0.0168
3749.00,0.0169
3748.00,0.0172
3747.00,0.0174
3746.00,0.0172
3745.00,0.0168
3744.00,0.0165
3743.00,0.0165
3742.00,0.0166
3741.00,0.0167
3740.00,0.0168
3739.00,0.0169
3738.00,0.0169
3737.00,0.0169
3736.00,0.0169
3735.00,0.0169
3734.00,0.0168
3733.00,0.0166
3732.00,0.0164
3731.00,0.0162
3730.00,0.0162
3729.00,0.0163
3728.00,0.0163
3727.00,0.0162
3726.00,0.0162
3725.00,0.0162
3724.00,0.0161
3723.00,0.0160
3722.00,0.0159
3721.00,0.0159
3720.00,0.0159
3719.00,0.0160
3718.00,0.0160
3717.00,0.0161
3716.00,0.0162
3715.00,0.0164
3714.00,0.0165
3713.00,0.0166
3712.00,0.0166
3711.00,0.0166
3710.00,0.0165
3709.00,0.0164
3708.00,0.0163
3707.00,0.0164
3706.00,0.0166
3705.00,0.0167
3704.00,0.0168
3703.00,0.0168
3702.00,0.0167
3701.00,0.0166
3700.00,0.0166
3699.00,0.0166
3698.00,0.0165
3697.00,0.0164
3696.00,0.0165
3695.00,0.0166
3694.00,0.0168
3693.00,0.0170
3692.00,0.0172
3691.00,0.0174
3690.00,0.0176
3689.00,0.0175
3688.00,0.0172
3687.00,0.0169
3686.00,0.0166
3685.00,0.0164
3684.00,0.0163
3683.00,0.0162
3682.00,0.0162
3681.00,0.0163
3680.00,0.0164
3679.00,0.0165
3678.00,0.0167
3677.00,0.0166
3676.00,0.0164
3675.00,0.0163
3674.00,0.0164
3673.00,0.0166
3672.00,0.0166
3671.00,0.0166
3670.00,0.0167
3669.00,0.0168
3668.00,0.0168
3667.00,0.0167
3666.00,0.0165
3665.00,0.0163
3664.00,0.0161
3663.00,0.0161
3662.00,0.0161
3661.00,0.0163
3660.00,0.0166
3659.00,0.0169
3658.00,0.0172
3657.00,0.0174
3656.00,0.0175
3655.00,0.0177
3654.00,0.0180
3653.00,0.0182
3652.00,0.0182
3651.00,0.0181
3650.00,0.0182
3649.00,0.0184
3648.00,0.0187
3647.00,0.0187
3646.00,0.0186
3645.00,0.0185
3644.00,0.0184
3643.00,0.0182
3642.00,0.0181
3641.00,0.0180
3640.00,0.0180
3639.00,0.0180
3638.00,0.0181
3637.00,0.0182
3636.00,0.0183
3635.00,0.0184
3634.00,0.0186
3633.00,0.0190
3632.00,0.0194
3631.00,0.0197
3630.00,0.0198
3629.00,0.0199
3628.00,0.0199
3627.00,0.0199
3626.00,0.0197
3625.00,0.0195
3624.00,0.0194
3623.00,0.0196
3622.00,0.0199
3621.00,0.0203
3620.00,0.0206
3619.00,0.0208
3618.00,0.0209
3617.00,0.0209
3616.00,0.0208
3615.00,0.0206
3614.00,0.0205
3613.00,0.0204
3612.00,0.0204
3611.00,0.0205
3610.00,0.0207
3609.00,0.0209
3608.00,0.0210
3607.00,0.0210
3606.00,0.0209
3605.00,0.0207
3604.00,0.0206
3603.00,0.0205
3602.00,0.0206
3601.00,0.0207
3600.00,0.0208
3599.00,0.0209
3598.00,0.0210
3597.00,0.0210
3596.00,0.0211
3595.00,0.0212
3594.00,0.0212
3593.00,0.0212
3592.00,0.0212
3591.00,0.0212
3590.00,0.0212
3589.00,0.0213
3588.00,0.0214
3587.00,0.0217
3586.00,0.0220
3585.00,0.0220
3584.00,0.0220
3583.00,0.0218
3582.00,0.0217
3581.00,0.0216
3580.00,0.0216
3579.00,0.0216
3578.00,0.0216
3577.00,0.0216
3576.00,0.0216
3575.00,0.0217
3574.00,0.0219
3573.00,0.0220
3572.00,0.0222
3571.00,0.0222
3570.00,0.0223
3569.00,0.0224
3568.00,0.0226
3567.00,0.0228
3566.00,0.0229
3565.00,0.0229
3564.00,0.0227
3563.00,0.0226
3562.00,0.0225
3561.00,0.0225
3560.00,0.0226
3559.00,0.0227
3558.00,0.0228
3557.00,0.0229
3556.00,0.0230
3555.00,0.0230
3554.00,0.0230
3553.00,0.0230
3552.00,0.0231
3551.00,0.0233
3550.00,0.0234
3549.00,0.0235
3548.00,0.0235
3547.00,0.0236
3546.00,0.0238
3545.00,0.0239
3544.00,0.0239
3543.00,0.0238
3542.00,0.0237
3541.00,0.0236
3540.00,0.0235
3539.00,0.0234
3538.00,0.0234
3537.00,0.0234
3536.00,0.0235
3535.00,0.0237
3534.00,0.0239
3533.00,0.0240
3532.00,0.0241
3531.00,0.0240
3530.00,0.0240
3529.00,0.0239
3528.00,0.0239
3527.00,0.0239
3526.00,0.0241
3525.00,0.0243
3524.00,0.0246
3523.00,0.0247
3522.00,0.0247
3521.00,0.0246
3520.00,0.0245
3519.00,0.0242
3518.00,0.0241
3517.00,0.0240
3516.00,0.0240
3515.00,0.0241
3514.00,0.0242
3513.00,0.0245
3512.00,0.0247
3511.00,0.0248
3510.00,0.0249
3509.00,0.0249
3508.00,0.0248
3507.00,0.0248
3506.00,0.0247
3505.00,0.0248
3504.00,0.0249
3503.00,0.0251
3502.00,0.0252
3501.00,0.0253
3500.00,0.0254
3499.00,0.0254
3498.00,0.0254
3497.00,0.0255
3496.00,0.0254
3495.00,0.0254
3494.00,0.0253
3493.00,0.0252
3492.00,0.0252
3491.00,0.0252
3490.00,0.0252
3489.00,0.0253
3488.00,0.0254
3487.00,0.0255
3486.00,0.0256
3485.00,0.0257
3484.00,0.0256
3483.00,0.0256
3482.00,0.0256
3481.00,0.0257
3480.00,0.0257
3479.00,0.0257
3478.00,0.0257
3477.00,0.0258
3476.00,0.0259
3475.00,0.0260
3474.00,0.0261
3473.00,0.0262
3472.00,0.0262
3471.00,0.0262
3470.00,0.0262
3469.00,0.0262
3468.00,0.0261
3467.00,0.0262
3466.00,0.0263
3465.00,0.0264
3464.00,0.0265
3463.00,0.0265
3462.00,0.0264
3461.00,0.0264
3460.00,0.0264
3459.00,0.0266
3458.00,0.0267
3457.00,0.0267
3456.00,0.0266
3455.00,0.0264
3454.00,0.0264
3453.00,0.0265
3452.00,0.0267
3451.00,0.0268
3450.00,0.0269
3449.00,0.0270
3448.00,0.0270
3447.00,0.0270
3446.00,0.0270
3445.00,0.0270
3444.00,0.0269
3443.00,0.0269
3442.00,0.0269
3441.00,0.0269
3440.00,0.0269
3439.00,0.0269
3438.00,0.0269
3437.00,0.0270
3436.00,0.0270
3435.00,0.0270
3434.00,0.0270
3433.00,0.0270
3432.00,0.0270
3431.00,0.0270
3430.00,0.0271
3429.00,0.0271
3428.00,0.0271
3427.00,0.0272
3426.00,0.0273
3425.00,0.0275
3424.00,0.0276
3423.00,0.0277
3422.00,0.0277
3421.00,0.0277
3420.00,0.0276
3419.00,0.0276
3418.00,0.0276
3417.00,0.0276
3416.00,0.0275
3415.00,0.0275
3414.00,0.0276
3413.00,0.0277
3412.00,0.0278
3411.00,0.0278
3410.00,0.0278
3409.00,0.0278
3408.00,0.0278
3407.00,0.0278
3406.00,0.0279
3405.00,0.0279
3404.00,0.0279
3403.00,0.0279
3402.00,0.0279
3401.00,0.0280
3400.00,0.0281
3399.00,0.0281
3398.00,0.0281
3397.00,0.0281
3396.00,0.0280
3395.00,0.0280
3394.00,0.0280
3393.00,0.0280
3392.00,0.0281
3391.00,0.0282
3390.00,0.0283
3389.00,0.0283
3388.00,0.0283
3387.00,0.0282
3386.00,0.0281
3385.00,0.0281
3384.00,0.0282
3383.00,0.0282
3382.00,0.0283
3381.00,0.0283
3380.00,0.0284
3379.00,0.0284
3378.00,0.0285
3377.00,0.0286
3376.00,0.0286
3375.00,0.0285
3374.00,0.0285
3373.00,0.0284
3372.00,0.0283
3371.00,0.0282
3370.00,0.0282
3369.00,0.0283
3368.00,0.0284
3367.00,0.0284
3366.00,0.0284
3365.00,0.0284
3364.00,0.0283
3363.00,0.0284
3362.00,0.0285
3361.00,0.0287
3360.00,0.0288
3359.00,0.0288
3358.00,0.0287
3357.00,0.0286
3356.00,0.0286
3355.00,0.0287
3354.00,0.0288
3353.00,0.0289
3352.00,0.0289
3351.00,0.0289
3350.00,0.0289
3349.00,0.0289
3348.00,0.0289
3347.00,0.0288
3346.00,0.0287
3345.00,0.0286
3344.00,0.0286
3343.00,0.0287
3342.00,0.0288
3341.00,0.0289
3340.00,0.0290
3339.00,0.0291
3338.00,0.0291
3337.00,0.0290
3336.00,0.0288
3335.00,0.0287
3334.00,0.0287
3333.00,0.0287
3332.00,0.0287
3331.00,0.0287
3330.00,0.0287
3329.00,0.0287
3328.00,0.0288
3327.00,0.0288
3326.00,0.0289
3325.00,0.0290
3324.00,0.0291
3323.00,0.0290
3322.00,0.0289
3321.00,0.0288
3320.00,0.0287
3319.00,0.0288
3318.00,0.0289
3317.00,0.0289
3316.00,0.0290
3315.00,0.0290
3314.00,0.0290
3313.00,0.0290
3312.00,0.0289
3311.00,0.0288
3310.00,0.0288
3309.00,0.0288
3308.00,0.0289
3307.00,0.0290
3306.00,0.0291
3305.00,0.0291
3304.00,0.0291
3303.00,0.0291
3302.00,0.0291
3301.00,0.0291
3300.00,0.0290
3299.00,0.0289
3298.00,0.0289
3297.00,0.0289
3296.00,0.0290
3295.00,0.0290
3294.00,0.0291
3293.00,0.0291
3292.00,0.0291
3291.00,0.0291
3290.00,0.0292
3289.00,0.0292
3288.00,0.0292
3287.00,0.0292
3286.00,0.0291
3285.00,0.0291
3284.00,0.0291
3283.00,0.0291
3282.00,0.0292
3281.00,0.0292
3280.00,0.0292
3279.00,0.0293
3278.00,0.0293
3277.00,0.0293
3276.00,0.0293
3275.00,0.0292
3274.00,0.0291
3273.00,0.0291
3272.00,0.0292
3271.00,0.0293
3270.00,0.0294
3269.00,0.0295
3268.00,0.0295
3267.00,0.0295
3266.00,0.0295
3265.00,0.0294
3264.00,0.0293
3263.00,0.0291
3262.00,0.0291
3261.00,0.0291
3260.00,0.0291
3259.00,0.0292
3258.00,0.0293
3257.00,0.0293
3256.00,0.0293
3255.00,0.0294
3254.00,0.0294
3253.00,0.0295
3252.00,0.0294
3251.00,0.0294
3250.00,0.0293
3249.00,0.0292
3248.00,0.0292
3247.00,0.0292
3246.00,0.0292
3245.00,0.0293
3244.00,0.0294
3243.00,0.0295
3242.00,0.0295
3241.00,0.0295
3240.00,0.0294
3239.00,0.0293
3238.00,0.0292
3237.00,0.0293
3236.00,0.0294
3235.00,0.0295
3234.00,0.0296
3233.00,0.0297
3232.00,0.0297
3231.00,0.0297
3230.00,0.0296
3229.00,0.0296
3228.00,0.0295
3227.00,0.0294
3226.00,0.0294
3225.00,0.0294
3224.00,0.0293
3223.00,0.0293
3222.00,0.0293
3221.00,0.0294
3220.00,0.0295
3219.00,0.0296
3218.00,0.0296
3217.00,0.0296
3216.00,0.0296
3215.00,0.0296
3214.00,0.0296
3213.00,0.0295
3212.00,0.0294
3211.00,0.0293
3210.00,0.0293
3209.00,0.0293
3208.00,0.0295
3207.00,0.0296
3206.00,0.0297
3205.00,0.0297
3204.00,0.0296
3203.00,0.0296
3202.00,0.0295
3201.00,0.0295
3200.00,0.0295
3199.00,0.0295
3198.00,0.0295
3197.00,0.0296
3196.00,0.0297
3195.00,0.0298
3194.00,0.0298
3193.00,0.0297
3192.00,0.0296
3191.00,0.0294
3190.00,0.0293
3189.00,0.0293
3188.00,0.0292
3187.00,0.0291
3186.00,0.0291
3185.00,0.0292
3184.00,0.0294
3183.00,0.0296
3182.00,0.0297
3181.00,0.0297
3180.00,0.0296
3179.00,0.0294
3178.00,0.0293
3177.00,0.0291
3176.00,0.0290
3175.00,0.0290
3174.00,0.0290
3173.00,0.0292
3172.00,0.0293
3171.00,0.0294
3170.00,0.0294
3169.00,0.0294
3168.00,0.0293
3167.00,0.0292
3166.00,0.0292
3165.00,0.0293
3164.00,0.0293
3163.00,0.0293
3162.00,0.0293
3161.00,0.0293
3160.00,0.0293
3159.00,0.0292
3158.00,0.0291
3157.00,0.0290
3156.00,0.0290
3155.00,0.0291
3154.00,0.0291
3153.00,0.0291
3152.00,0.0291
3151.00,0.0290
3150.00,0.0290
3149.00,0.0291
3148.00,0.0291
3147.00,0.0292
3146.00,0.0291
3145.00,0.0291
3144.00,0.0291
3143.00,0.0291
3142.00,0.0291
3141.00,0.0290
3140.00,0.0289
3139.00,0.0288
3138.00,0.0288
3137.00,0.0290
3136.00,0.0291
3135.00,0.0291
3134.00,0.0291
3133.00,0.0290
3132.00,0.0290
3131.00,0.0289
3130.00,0.0289
3129.00,0.0288
3128.00,0.0287
3127.00,0.0287
3126.00,0.0287
3125.00,0.0288
3124.00,0.0289
3123.00,0.0289
3122.00,0.0289
3121.00,0.0288
3120.00,0.0289
3119.00,0.0289
3118.00,0.0288
3117.00,0.0287
3116.00,0.0286
3115.00,0.0286
3114.00,0.0286
3113.00,0.0287
3112.00,0.0287
3111.00,0.0288
3110.00,0.0287
3109.00,0.0287
3108.00,0.0287
3107.00,0.0287
3106.00,0.0287
3105.00,0.0286
3104.00,0.0286
3103.00,0.0285
3102.00,0.0285
3101.00,0.0286
3100.00,0.0286
3099.00,0.0286
3098.00,0.0286
3097.00,0.0286
3096.00,0.0287
3095.00,0.0288
3094.00,0.0288
3093.00,0.0287
3092.00,0.0286
3091.00,0.0285
3090.00,0.0285
3089.00,0.0284
3088.00,0.0283
3087.00,0.0283
3086.00,0.0284
3085.00,0.0286
3084.00,0.0286
3083.00,0.0286
3082.00,0.0285
3081.00,0.0284
3080.00,0.0284
3079.00,0.0284
3078.00,0.0285
3077.00,0.0285
3076.00,0.0285
3075.00,0.0285
3074.00,0.0286
3073.00,0.0287
3072.00,0.0287
3071.00,0.0287
3070.00,0.0286
3069.00,0.0285
3068.00,0.0284
3067.00,0.0284
3066.00,0.0283
3065.00,0.0283
3064.00,0.0282
3063.00,0.0282
3062.00,0.0282
3061.00,0.0283
3060.00,0.0284
3059.00,0.0283
3058.00,0.0283
3057.00,0.0282
3056.00,0.0282
3055.00,0.0281
3054.00,0.0281
3053.00,0.0280
3052.00,0.0280
3051.00,0.0281
3050.00,0.0282
3049.00,0.0284
3048.00,0.0284
3047.00,0.0283
3046.00,0.0282
3045.00,0.0281
3044.00,0.0280
3043.00,0.0279
3042.00,0.0278
3041.00,0.0278
3040.00,0.0278
3039.00,0.0278
3038.00,0.0279
3037.00,0.0280
3036.00,0.0280
3035.00,0.0280
3034.00,0.0280
3033.00,0.0279
3032.00,0.0279
3031.00,0.0278
3030.00,0.0277
3029.00,0.0276
3028.00,0.0276
3027.00,0.0276
3026.00,0.0277
3025.00,0.0277
3024.00,0.0277
3023.00,0.0277
3022.00,0.0276
3021.00,0.0276
3020.00,0.0275
3019.00,0.0274
3018.00,0.0272
3017.00,0.0272
3016.00,0.0272
3015.00,0.0273
3014.00,0.0273
3013.00,0.0273
3012.00,0.0272
3011.00,0.0271
3010.00,0.0270
3009.00,0.0268
3008.00,0.0266
3007.00,0.0264
3006.00,0.0263
3005.00,0.0263
3004.00,0.0263
3003.00,0.0262
3002.00,0.0262
3001.00,0.0260
3000.00,0.0258
2999.00,0.0257
2998.00,0.0255
2997.00,0.0254
2996.00,0.0252
2995.00,0.0251
2994.00,0.0250
2993.00,0.0250
2992.00,0.0250
2991.00,0.0249
2990.00,0.0249
2989.00,0.0249
2988.00,0.0248
2987.00,0.0246
2986.00,0.0243
2985.00,0.0240
2984.00,0.0236
2983.00,0.0233
2982.00,0.0231
2981.00,0.0232
2980.00,0.0233
2979.00,0.0235
2978.00,0.0237
2977.00,0.0239
2976.00,0.0241
2975.00,0.0242
2974.00,0.0241
2973.00,0.0240
2972.00,0.0239
2971.00,0.0239
2970.00,0.0240
2969.00,0.0242
2968.00,0.0245
2967.00,0.0247
2966.00,0.0248
2965.00,0.0249
2964.00,0.0250
2963.00,0.0251
2962.00,0.0252
2961.00,0.0253
2960.00,0.0252
2959.00,0.0251
2958.00,0.0251
2957.00,0.0252
2956.00,0.0254
2955.00,0.0255
2954.00,0.0257
2953.00,0.0258
2952.00,0.0259
2951.00,0.0259
2950.00,0.0260
2949.00,0.0259
2948.00,0.0259
2947.00,0.0259
2946.00,0.0259
2945.00,0.0260
2944.00,0.0261
2943.00,0.0262
2942.00,0.0264
2941.00,0.0265
2940.00,0.0266
2939.00,0.0267
2938.00,0.0267
2937.00,0.0267
2936.00,0.0267
2935.00,0.0267
2934.00,0.0268
2933.00,0.0269
2932.00,0.0270
2931.00,0.0271
2930.00,0.0272
2929.00,0.0273
2928.00,0.0275
2927.00,0.0275
2926.00,0.0275
2925.00,0.0274
2924.00,0.0272
2923.00,0.0272
2922.00,0.0271
2921.00,0.0270
2920.00,0.0269
2919.00,0.0267
2918.00,0.0265
2917.00,0.0264
2916.00,0.0263
2915.00,0.0263
2914.00,0.0262
2913.00,0.0261
2912.00,0.0261
2911.00,0.0261
2910.00,0.0261
2909.00,0.0260
2908.00,0.0259
2907.00,0.0258
2906.00,0.0257
2905.00,0.0258
2904.00,0.0258
2903.00,0.0257
2902.00,0.0256
2901.00,0.0255
2900.00,0.0255
2899.00,0.0254
2898.00,0.0253
2897.00,0.0252
2896.00,0.0251
2895.00,0.0251
2894.00,0.0251
2893.00,0.0252
2892.00,0.0252
2891.00,0.0251
2890.00,0.0251
2889.00,0.0250
2888.00,0.0250
2887.00,0.0249
2886.00,0.0249
2885.00,0.0248
2884.00,0.0247
2883.00,0.0247
2882.00,0.0248
2881.00,0.0249
2880.00,0.0249
2879.00,0.0250
2878.00,0.0250
2877.00,0.0250
2876.00,0.0251
2875.00,0.0250
2874.00,0.0249
2873.00,0.0248
2872.00,0.0248
2871.00,0.0249
2870.00,0.0250
2869.00,0.0251
2868.00,0.0252
2867.00,0.0252
2866.00,0.0252
2865.00,0.0253
2864.00,0.0253
2863.00,0.0253
2862.00,0.0254
2861.00,0.0254
2860.00,0.0256
2859.00,0.0258
2858.00,0.0260
2857.00,0.0261
2856.00,0.0261
2855.00,0.0261
2854.00,0.0260
2853.00,0.0259
2852.00,0.0259
2851.00,0.0258
2850.00,0.0257
2849.00,0.0255
2848.00,0.0254
2847.00,0.0254
2846.00,0.0253
2845.00,0.0253
2844.00,0.0252
2843.00,0.0252
2842.00,0.0251
2841.00,0.0251
2840.00,0.0250
2839.00,0.0248
2838.00,0.0247
2837.00,0.0246
2836.00,0.0247
2835.00,0.0248
2834.00,0.0248
2833.00,0.0248
2832.00,0.0247
2831.00,0.0247
2830.00,0.0247
2829.00,0.0247
2828.00,0.0246
2827.00,0.0245
2826.00,0.0245
2825.00,0.0245
2824.00,0.0245
2823.00,0.0245
2822.00,0.0245
2821.00,0.0245
2820.00,0.0244
2819.00,0.0244
2818.00,0.0244
2817.00,0.0244
2816.00,0.0244
2815.00,0.0243
2814.00,0.0242
2813.00,0.0242
2812.00,0.0242
2811.00,0.0242
2810.00,0.0241
2809.00,0.0241
2808.00,0.0242
2807.00,0.0242
2806.00,0.0243
2805.00,0.0243
2804.00,0.0242
2803.00,0.0241
2802.00,0.0241
2801.00,0.0240
2800.00,0.0240
2799.00,0.0240
2798.00,0.0240
2797.00,0.0240
2796.00,0.0241
2795.00,0.0241
2794.00,0.0241
2793.00,0.0241
2792.00,0.0241
2791.00,0.0240
2790.00,0.0240
2789.00,0.0240
2788.00,0.0240
2787.00,0.0239
2786.00,0.0239
2785.00,0.0239
2784.00,0.0239
2783.00,0.0239
2782.00,0.0239
2781.00,0.0238
2780.00,0.0237
2779.00,0.0236
2778.00,0.0236
2777.00,0.0237
2776.00,0.0237
2775.00,0.0236
2774.00,0.0236
2773.00,0.0237
2772.00,0.0237
2771.00,0.0237
2770.00,0.0236
2769.00,0.0235
2768.00,0.0234
2767.00,0.0235
2766.00,0.0235
2765.00,0.0235
2764.00,0.0234
2763.00,0.0234
2762.00,0.0234
2761.00,0.0234
2760.00,0.0235
2759.00,0.0236
2758.00,0.0235
2757.00,0.0235
2756.00,0.0234
2755.00,0.0234
2754.00,0.0234
2753.00,0.0233
2752.00,0.0233
2751.00,0.0233
2750.00,0.0233
2749.00,0.0234
2748.00,0.0234
2747.00,0.0234
2746.00,0.0234
2745.00,0.0234
2744.00,0.0234
2743.00,0.0234
2742.00,0.0233
2741.00,0.0232
2740.00,0.0231
2739.00,0.0230
2738.00,0.0230
2737.00,0.0230
2736.00,0.0231
2735.00,0.0231
2734.00,0.0232
2733.00,0.0232
2732.00,0.0232
2731.00,0.0232
2730.00,0.0231
2729.00,0.0230
2728.00,0.0229
2727.00,0.0229
2726.00,0.0230
2725.00,0.0230
2724.00,0.0230
2723.00,0.0230
2722.00,0.0230
2721.00,0.0230
2720.00,0.0230
2719.00,0.0230
2718.00,0.0230
2717.00,0.0229
2716.00,0.0229
2715.00,0.0229
2714.00,0.0229
2713.00,0.0229
2712.00,0.0229
2711.00,0.0228
2710.00,0.0229
2709.00,0.0229
2708.00,0.0229
2707.00,0.0229
2706.00,0.0228
2705.00,0.0227
2704.00,0.0226
2703.00,0.0226
2702.00,0.0226
2701.00,0.0226
2700.00,0.0226
2699.00,0.0226
2698.00,0.0227
2697.00,0.0228
2696.00,0.0228
2695.00,0.0228
2694.00,0.0227
2693.00,0.0226
2692.00,0.0226
2691.00,0.0226
2690.00,0.0226
2689.00,0.0226
2688.00,0.0226
2687.00,0.0226
2686.00,0.0226
2685.00,0.0227
2684.00,0.0227
2683.00,0.0226
2682.00,0.0225
2681.00,0.0225
2680.00,0.0224
2679.00,0.0224
2678.00,0.0223
2677.00,0.0223
2676.00,0.0222
2675.00,0.0223
2674.00,0.0224
2673.00,0.0225
2672.00,0.0225
2671.00,0.0224
2670.00,0.0223
2669.00,0.0223
2668.00,0.0223
2667.00,0.0223
2666.00,0.0223
2665.00,0.0222
2664.00,0.0222
2663.00,0.0223
2662.00,0.0225
2661.00,0.0226
2660.00,0.0226
2659.00,0.0225
2658.00,0.0224
2657.00,0.0224
2656.00,0.0224
2655.00,0.0224
2654.00,0.0224
2653.00,0.0224
2652.00,0.0224
2651.00,0.0225
2650.00,0.0226
2649.00,0.0226
2648.00,0.0225
2647.00,0.0224
2646.00,0.0224
2645.00,0.0224
2644.00,0.0224
2643.00,0.0224
2642.00,0.0223
2641.00,0.0223
2640.00,0.0223
2639.00,0.0225
2638.00,0.0226
2637.00,0.0226
2636.00,0.0225
2635.00,0.0224
2634.00,0.0225
2633.00,0.0226
2632.00,0.0226
2631.00,0.0224
2630.00,0.0223
2629.00,0.0221
2628.00,0.0221
2627.00,0.0222
2626.00,0.0224
2625.00,0.0225
2624.00,0.0225
2623.00,0.0225
2622.00,0.0226
2621.00,0.0226
2620.00,0.0225
2619.00,0.0224
2618.00,0.0223
2617.00,0.0223
2616.00,0.0223
2615.00,0.0224
2614.00,0.0224
2613.00,0.0225
2612.00,0.0225
2611.00,0.0226
2610.00,0.0227
2609.00,0.0226
2608.00,0.0225
2607.00,0.0223
2606.00,0.0222
2605.00,0.0222
2604.00,0.0224
2603.00,0.0226
2602.00,0.0226
2601.00,0.0226
2600.00,0.0225
2599.00,0.0226
2598.00,0.0226
2597.00,0.0225
2596.00,0.0223
2595.00,0.0221
2594.00,0.0220
2593.00,0.0221
2592.00,0.0223
2591.00,0.0224
2590.00,0.0225
2589.00,0.0224
2588.00,0.0225
2587.00,0.0226
2586.00,0.0226
2585.00,0.0224
2584.00,0.0222
2583.00,0.0220
2582.00,0.0220
2581.00,0.0221
2580.00,0.0223
2579.00,0.0224
2578.00,0.0224
2577.00,0.0223
2576.00,0.0223
2575.00,0.0224
2574.00,0.0224
2573.00,0.0224
2572.00,0.0222
2571.00,0.0220
2570.00,0.0219
2569.00,0.0220
2568.00,0.0221
2567.00,0.0222
2566.00,0.0223
2565.00,0.0224
2564.00,0.0225
2563.00,0.0227
2562.00,0.0227
2561.00,0.0226
2560.00,0.0224
2559.00,0.0222
2558.00,0.0222
2557.00,0.0223
2556.00,0.0223
2555.00,0.0223
2554.00,0.0222
2553.00,0.0223
2552.00,0.0223
2551.00,0.0223
2550.00,0.0222
2549.00,0.0219
2548.00,0.0216
2547.00,0.0215
2546.00,0.0216
2545.00,0.0218
2544.00,0.0218
2543.00,0.0218
2542.00,0.0217
2541.00,0.0218
2540.00,0.0219
2539.00,0.0219
2538.00,0.0218
2537.00,0.0216
2536.00,0.0215
2535.00,0.0215
2534.00,0.0217
2533.00,0.0218
2532.00,0.0217
2531.00,0.0217
2530.00,0.0217
2529.00,0.0218
2528.00,0.0220
2527.00,0.0220
2526.00,0.0219
2525.00,0.0217
2524.00,0.0215
2523.00,0.0215
2522.00,0.0215
2521.00,0.0215
2520.00,0.0214
2519.00,0.0215
2518.00,0.0217
2517.00,0.0221
2516.00,0.0223
2515.00,0.0222
2514.00,0.0219
2513.00,0.0216
2512.00,0.0215
2511.00,0.0216
2510.00,0.0217
2509.00,0.0216
2508.00,0.0215
2507.00,0.0215
2506.00,0.0216
2505.00,0.0217
2504.00,0.0218
2503.00,0.0218
2502.00,0.0218
2501.00,0.0218
2500.00,0.0218
2499.00,0.0219
2498.00,0.0218
2497.00,0.0216
2496.00,0.0214
2495.00,0.0215
2494.00,0.0218
2493.00,0.0220
2492.00,0.0222
2491.00,0.0221
2490.00,0.0220
2489.00,0.0220
2488.00,0.0220
2487.00,0.0219
2486.00,0.0217
2485.00,0.0214
2484.00,0.0213
2483.00,0.0213
2482.00,0.0216
2481.00,0.0218
2480.00,0.0219
2479.00,0.0219
2478.00,0.0218
2477.00,0.0217
2476.00,0.0217
2475.00,0.0216
2474.00,0.0214
2473.00,0.0213
2472.00,0.0212
2471.00,0.0214
2470.00,0.0215
2469.00,0.0216
2468.00,0.0216
2467.00,0.0215
2466.00,0.0215
2465.00,0.0215
2464.00,0.0215
2463.00,0.0214
2462.00,0.0212
2461.00,0.0211
2460.00,0.0211
2459.00,0.0213
2458.00,0.0215
2457.00,0.0216
2456.00,0.0216
2455.00,0.0216
2454.00,0.0217
2453.00,0.0218
2452.00,0.0218
2451.00,0.0216
2450.00,0.0213
2449.00,0.0212
2448.00,0.0212
2447.00,0.0213
2446.00,0.0214
2445.00,0.0214
2444.00,0.0213
2443.00,0.0213
2442.00,0.0213
2441.00,0.0213
2440.00,0.0213
2439.00,0.0211
2438.00,0.0210
2437.00,0.0209
2436.00,0.0209
2435.00,0.0210
2434.00,0.0210
2433.00,0.0210
2432.00,0.0210
2431.00,0.0211
2430.00,0.0213
2429.00,0.0214
2428.00,0.0213
2427.00,0.0211
2426.00,0.0210
2425.00,0.0209
2424.00,0.0209
2423.00,0.0210
2422.00,0.0210
2421.00,0.0210
2420.00,0.0211
2419.00,0.0211
2418.00,0.0212
2417.00,0.0212
2416.00,0.0210
2415.00,0.0208
2414.00,0.0206
2413.00,0.0207
2412.00,0.0207
2411.00,0.0208
2410.00,0.0208
2409.00,0.0208
2408.00,0.0208
2407.00,0.0209
2406.00,0.0210
2405.00,0.0209
2404.00,0.0208
2403.00,0.0207
2402.00,0.0206
2401.00,0.0205
2400.00,0.0205
2399.00,0.0205
2398.00,0.0205
2397.00,0.0204
2396.00,0.0205
2395.00,0.0206
2394.00,0.0207
2393.00,0.0207
2392.00,0.0205
2391.00,0.0204
2390.00,0.0203
2389.00,0.0203
2388.00,0.0203
2387.00,0.0202
2386.00,0.0202
2385.00,0.0203
2384.00,0.0203
2383.00,0.0204
2382.00,0.0204
2381.00,0.0204
2380.00,0.0204
2379.00,0.0204
2378.00,0.0204
2377.00,0.0203
2376.00,0.0202
2375.00,0.0201
2374.00,0.0200
2373.00,0.0201
2372.00,0.0203
2371.00,0.0206
2370.00,0.0206
2369.00,0.0202
2368.00,0.0199
2367.00,0.0198
2366.00,0.0200
2365.00,0.0202
2364.00,0.0201
2363.00,0.0198
2362.00,0.0197
2361.00,0.0200
2360.00,0.0206
2359.00,0.0210
2358.00,0.0211
2357.00,0.0210
2356.00,0.0206
2355.00,0.0203
2354.00,0.0202
2353.00,0.0201
2352.00,0.0202
2351.00,0.0202
2350.00,0.0202
2349.00,0.0202
2348.00,0.0202
2347.00,0.0201
2346.00,0.0200
2345.00,0.0199
2344.00,0.0199
2343.00,0.0201
2342.00,0.0202
2341.00,0.0203
2340.00,0.0203
2339.00,0.0201
2338.00,0.0199
2337.00,0.0198
2336.00,0.0199
2335.00,0.0201
2334.00,0.0202
2333.00,0.0203
2332.00,0.0202
2331.00,0.0201
2330.00,0.0200
2329.00,0.0199
2328.00,0.0198
2327.00,0.0197
2326.00,0.0199
2325.00,0.0201
2324.00,0.0203
2323.00,0.0204
2322.00,0.0205
2321.00,0.0205
2320.00,0.0204
2319.00,0.0201
2318.00,0.0199
2317.00,0.0198
2316.00,0.0197
2315.00,0.0198
2314.00,0.0198
2313.00,0.0199
2312.00,0.0200
2311.00,0.0201
2310.00,0.0203
2309.00,0.0204
2308.00,0.0204
2307.00,0.0203
2306.00,0.0202
2305.00,0.0200
2304.00,0.0198
2303.00,0.0197
2302.00,0.0196
2301.00,0.0196
2300.00,0.0198
2299.00,0.0199
2298.00,0.0200
2297.00,0.0201
2296.00,0.0200
2295.00,0.0200
2294.00,0.0201
2293.00,0.0202
2292.00,0.0202
2291.00,0.0202
2290.00,0.0201
2289.00,0.0201
2288.00,0.0202
2287.00,0.0204
2286.00,0.0205
2285.00,0.0206
2284.00,0.0207
2283.00,0.0208
2282.00,0.0208
2281.00,0.0207
2280.00,0.0205
2279.00,0.0204
2278.00,0.0204
2277.00,0.0204
2276.00,0.0205
2275.00,0.0204
2274.00,0.0203
2273.00,0.0202
2272.00,0.0201
2271.00,0.0202
2270.00,0.0203
2269.00,0.0203
2268.00,0.0201
2267.00,0.0199
2266.00,0.0199
2265.00,0.0201
2264.00,0.0202
2263.00,0.0203
2262.00,0.0203
2261.00,0.0204
2260.00,0.0205
2259.00,0.0206
2258.00,0.0205
2257.00,0.0201
2256.00,0.0197
2255.00,0.0194
2254.00,0.0194
2253.00,0.0197
2252.00,0.0200
2251.00,0.0201
2250.00,0.0200
2249.00,0.0200
2248.00,0.0201
2247.00,0.0203
2246.00,0.0204
2245.00,0.0202
2244.00,0.0200
2243.00,0.0198
2242.00,0.0198
2241.00,0.0200
2240.00,0.0200
2239.00,0.0199
2238.00,0.0198
2237.00,0.0198
2236.00,0.0200
2235.00,0.0203
2234.00,0.0204
2233.00,0.0202
2232.00,0.0198
2231.00,0.0195
2230.00,0.0195
2229.00,0.0196
2228.00,0.0196
2227.00,0.0195
2226.00,0.0194
2225.00,0.0196
2224.00,0.0200
2223.00,0.0202
2222.00,0.0200
2221.00,0.0195
2220.00,0.0191
2219.00,0.0191
2218.00,0.0194
2217.00,0.0198
2216.00,0.0200
2215.00,0.0200
2214.00,0.0199
2213.00,0.0199
2212.00,0.0201
2211.00,0.0202
2210.00,0.0199
2209.00,0.0194
2208.00,0.0191
2207.00,0.0193
2206.00,0.0197
2205.00,0.0198
2204.00,0.0195
2203.00,0.0192
2202.00,0.0193
2201.00,0.0197
2200.00,0.0201
2199.00,0.0200
2198.00,0.0197
2197.00,0.0193
2196.00,0.0191
2195.00,0.0191
2194.00,0.0193
2193.00,0.0192
2192.00,0.0188
2191.00,0.0183
2190.00,0.0182
2189.00,0.0188
2188.00,0.0196
2187.00,0.0202
2186.00,0.0202
2185.00,0.0199
2184.00,0.0197
2183.00,0.0197
2182.00,0.0195
2181.00,0.0190
2180.00,0.0187
2179.00,0.0187
2178.00,0.0194
2177.00,0.0201
2176.00,0.0204
2175.00,0.0201
2174.00,0.0195
2173.00,0.0192
2172.00,0.0194
2171.00,0.0200
2170.00,0.0203
2169.00,0.0199
2168.00,0.0192
2167.00,0.0190
2166.00,0.0197
2165.00,0.0209
2164.00,0.0215
2163.00,0.0213
2162.00,0.0207
2161.00,0.0204
2160.00,0.0201
2159.00,0.0194
2158.00,0.0184
2157.00,0.0173
2156.00,0.0168
2155.00,0.0172
2154.00,0.0183
2153.00,0.0193
2152.00,0.0196
2151.00,0.0191
2150.00,0.0184
2149.00,0.0183
2148.00,0.0187
2147.00,0.0190
2146.00,0.0188
2145.00,0.0182
2144.00,0.0179
2143.00,0.0183
2142.00,0.0190
2141.00,0.0194
2140.00,0.0192
2139.00,0.0189
2138.00,0.0188
2137.00,0.0189
2136.00,0.0190
2135.00,0.0187
2134.00,0.0181
2133.00,0.0176
2132.00,0.0174
2131.00,0.0177
2130.00,0.0182
2129.00,0.0186
2128.00,0.0187
2127.00,0.0186
2126.00,0.0187
2125.00,0.0189
2124.00,0.0190
2123.00,0.0187
2122.00,0.0182
2121.00,0.0177
2120.00,0.0176
2119.00,0.0179
2118.00,0.0182
2117.00,0.0183
2116.00,0.0182
2115.00,0.0182
2114.00,0.0183
2113.00,0.0184
2112.00,0.0185
2111.00,0.0183
2110.00,0.0181
2109.00,0.0180
2108.00,0.0182
2107.00,0.0186
2106.00,0.0188
2105.00,0.0187
2104.00,0.0184
2103.00,0.0184
2102.00,0.0187
2101.00,0.0189
2100.00,0.0187
2099.00,0.0182
2098.00,0.0177
2097.00,0.0176
2096.00,0.0179
2095.00,0.0181
2094.00,0.0181
2093.00,0.0180
2092.00,0.0179
2091.00,0.0181
2090.00,0.0183
2089.00,0.0186
2088.00,0.0186
2087.00,0.0182
2086.00,0.0179
2085.00,0.0179
2084.00,0.0181
2083.00,0.0183
2082.00,0.0182
2081.00,0.0180
2080.00,0.0181
2079.00,0.0185
2078.00,0.0189
2077.00,0.0189
2076.00,0.0186
2075.00,0.0182
2074.00,0.0180
2073.00,0.0180
2072.00,0.0181
2071.00,0.0181
2070.00,0.0180
2069.00,0.0178
2068.00,0.0177
2067.00,0.0179
2066.00,0.0184
2065.00,0.0186
2064.00,0.0186
2063.00,0.0183
2062.00,0.0183
2061.00,0.0183
2060.00,0.0183
2059.00,0.0180
2058.00,0.0176
2057.00,0.0175
2056.00,0.0178
2055.00,0.0183
2054.00,0.0187
2053.00,0.0190
2052.00,0.0190
2051.00,0.0187
2050.00,0.0183
2049.00,0.0179
2048.00,0.0176
2047.00,0.0173
2046.00,0.0173
2045.00,0.0176
2044.00,0.0182
2043.00,0.0189
2042.00,0.0193
2041.00,0.0191
2040.00,0.0186
2039.00,0.0183
2038.00,0.0183
2037.00,0.0186
2036.00,0.0185
2035.00,0.0180
2034.00,0.0177
2033.00,0.0179
2032.00,0.0186
2031.00,0.0192
2030.00,0.0194
2029.00,0.0192
2028.00,0.0189
2027.00,0.0186
2026.00,0.0182
2025.00,0.0176
2024.00,0.0169
2023.00,0.0162
2022.00,0.0159
2021.00,0.0161
2020.00,0.0167
2019.00,0.0171
2018.00,0.0171
2017.00,0.0171
2016.00,0.0174
2015.00,0.0178
2014.00,0.0179
2013.00,0.0173
2012.00,0.0165
2011.00,0.0162
2010.00,0.0164
2009.00,0.0169
2008.00,0.0172
2007.00,0.0174
2006.00,0.0175
2005.00,0.0176
2004.00,0.0178
2003.00,0.0179
2002.00,0.0180
2001.00,0.0180
2000.00,0.0177
1999.00,0.0172
1998.00,0.0170
1997.00,0.0170
1996.00,0.0173
1995.00,0.0175
1994.00,0.0179
1993.00,0.0185
1992.00,0.0188
1991.00,0.0186
1990.00,0.0179
1989.00,0.0171
1988.00,0.0167
1987.00,0.0166
1986.00,0.0166
1985.00,0.0166
1984.00,0.0168
1983.00,0.0173
1982.00,0.0179
1981.00,0.0184
1980.00,0.0183
1979.00,0.0176
1978.00,0.0167
1977.00,0.0158
1976.00,0.0155
1975.00,0.0157
1974.00,0.0161
1973.00,0.0162
1972.00,0.0161
1971.00,0.0163
1970.00,0.0170
1969.00,0.0178
1968.00,0.0179
1967.00,0.0173
1966.00,0.0164
1965.00,0.0160
1964.00,0.0161
1963.00,0.0160
1962.00,0.0157
1961.00,0.0154
1960.00,0.0155
1959.00,0.0160
1958.00,0.0166
1957.00,0.0170
1956.00,0.0170
1955.00,0.0168
1954.00,0.0165
1953.00,0.0164
1952.00,0.0163
1951.00,0.0159
1950.00,0.0153
1949.00,0.0149
1948.00,0.0151
1947.00,0.0160
1946.00,0.0168
1945.00,0.0170
1944.00,0.0165
1943.00,0.0158
1942.00,0.0154
1941.00,0.0154
1940.00,0.0152
1939.00,0.0147
1938.00,0.0143
1937.00,0.0142
1936.00,0.0145
1935.00,0.0149
1934.00,0.0153
1933.00,0.0153
1932.00,0.0152
1931.00,0.0152
1930.00,0.0155
1929.00,0.0159
1928.00,0.0160
1927.00,0.0156
1926.00,0.0150
1925.00,0.0147
1924.00,0.0150
1923.00,0.0154
1922.00,0.0156
1921.00,0.0155
1920.00,0.0154
1919.00,0.0153
1918.00,0.0153
1917.00,0.0152
1916.00,0.0149
1915.00,0.0146
1914.00,0.0142
1913.00,0.0143
1912.00,0.0146
1911.00,0.0151
1910.00,0.0152
1909.00,0.0149
1908.00,0.0146
1907.00,0.0146
1906.00,0.0149
1905.00,0.0150
1904.00,0.0147
1903.00,0.0141
1902.00,0.0138
1901.00,0.0140
1900.00,0.0144
1899.00,0.0147
1898.00,0.0147
1897.00,0.0145
1896.00,0.0144
1895.00,0.0144
1894.00,0.0146
1893.00,0.0146
1892.00,0.0143
1891.00,0.0138
1890.00,0.0135
1889.00,0.0137
1888.00,0.0140
1887.00,0.0142
1886.00,0.0141
1885.00,0.0140
1884.00,0.0141
1883.00,0.0144
1882.00,0.0145
1881.00,0.0142
1880.00,0.0136
1879.00,0.0131
1878.00,0.0130
1877.00,0.0133
1876.00,0.0135
1875.00,0.0136
1874.00,0.0136
1873.00,0.0137
1872.00,0.0140
1871.00,0.0144
1870.00,0.0144
1869.00,0.0138
1868.00,0.0130
1867.00,0.0126
1866.00,0.0128
1865.00,0.0132
1864.00,0.0133
1863.00,0.0131
1862.00,0.0128
1861.00,0.0128
1860.00,0.0132
1859.00,0.0135
1858.00,0.0135
1857.00,0.0131
1856.00,0.0127
1855.00,0.0126
1854.00,0.0126
1853.00,0.0127
1852.00,0.0127
1851.00,0.0126
1850.00,0.0125
1849.00,0.0128
1848.00,0.0132
1847.00,0.0136
1846.00,0.0135
1845.00,0.0127
1844.00,0.0119
1843.00,0.0117
1842.00,0.0120
1841.00,0.0123
1840.00,0.0123
1839.00,0.0121
1838.00,0.0121
1837.00,0.0124
1836.00,0.0128
1835.00,0.0128
1834.00,0.0124
1833.00,0.0121
1832.00,0.0120
1831.00,0.0121
1830.00,0.0122
1829.00,0.0121
1828.00,0.0118
1827.00,0.0117
1826.00,0.0117
1825.00,0.0120
1824.00,0.0122
1823.00,0.0121
1822.00,0.0118
1821.00,0.0114
1820.00,0.0113
1819.00,0.0114
1818.00,0.0114
1817.00,0.0111
1816.00,0.0108
1815.00,0.0108
1814.00,0.0111
1813.00,0.0116
1812.00,0.0119
1811.00,0.0117
1810.00,0.0114
1809.00,0.0111
1808.00,0.0111
1807.00,0.0113
1806.00,0.0113
1805.00,0.0111
1804.00,0.0109
1803.00,0.0110
1802.00,0.0113
1801.00,0.0117
1800.00,0.0118
1799.00,0.0115
1798.00,0.0113
1797.00,0.0113
1796.00,0.0115
1795.00,0.0117
1794.00,0.0116
1793.00,0.0112
1792.00,0.0110
1791.00,0.0111
1790.00,0.0115
1789.00,0.0118
1788.00,0.0120
1787.00,0.0120
1786.00,0.0119
1785.00,0.0120
1784.00,0.0123
1783.00,0.0125
1782.00,0.0124
1781.00,0.0121
1780.00,0.0120
1779.00,0.0123
1778.00,0.0129
1777.00,0.0133
1776.00,0.0135
1775.00,0.0135
1774.00,0.0136
1773.00,0.0137
1772.00,0.0136
1771.00,0.0134
1770.00,0.0131
1769.00,0.0131
1768.00,0.0133
1767.00,0.0137
1766.00,0.0141
1765.00,0.0144
1764.00,0.0145
1763.00,0.0145
1762.00,0.0144
1761.00,0.0146
1760.00,0.0148
1759.00,0.0148
1758.00,0.0146
1757.00,0.0145
1756.00,0.0146
1755.00,0.0151
1754.00,0.0156
1753.00,0.0158
1752.00,0.0157
1751.00,0.0157
1750.00,0.0161
1749.00,0.0166
1748.00,0.0167
1747.00,0.0166
1746.00,0.0164
1745.00,0.0164
1744.00,0.0167
1743.00,0.0171
1742.00,0.0174
1741.00,0.0174
1740.00,0.0174
1739.00,0.0174
1738.00,0.0177
1737.00,0.0181
1736.00,0.0183
1735.00,0.0179
1734.00,0.0174
1733.00,0.0176
1732.00,0.0182
1731.00,0.0188
1730.00,0.0191
1729.00,0.0191
1728.00,0.0193
1727.00,0.0196
1726.00,0.0201
1725.00,0.0204
1724.00,0.0204
1723.00,0.0203
1722.00,0.0203
1721.00,0.0206
1720.00,0.0209
1719.00,0.0211
1718.00,0.0210
1717.00,0.0211
1716.00,0.0214
1715.00,0.0221
1714.00,0.0226
1713.00,0.0228
1712.00,0.0227
1711.00,0.0225
1710.00,0.0225
1709.00,0.0227
1708.00,0.0230
1707.00,0.0230
1706.00,0.0228
1705.00,0.0227
1704.00,0.0230
1703.00,0.0235
1702.00,0.0238
1701.00,0.0234
1700.00,0.0226
1699.00,0.0222
1698.00,0.0226
1697.00,0.0233
1696.00,0.0235
1695.00,0.0232
1694.00,0.0229
1693.00,0.0230
1692.00,0.0235
1691.00,0.0239
1690.00,0.0241
1689.00,0.0239
1688.00,0.0236
1687.00,0.0236
1686.00,0.0238
1685.00,0.0239
1684.00,0.0236
1683.00,0.0232
1682.00,0.0231
1681.00,0.0234
1680.00,0.0238
1679.00,0.0241
1678.00,0.0242
1677.00,0.0241
1676.00,0.0240
1675.00,0.0240
1674.00,0.0242
1673.00,0.0243
1672.00,0.0243
1671.00,0.0240
1670.00,0.0240
1669.00,0.0245
1668.00,0.0249
1667.00,0.0250
1666.00,0.0249
1665.00,0.0247
1664.00,0.0246
1663.00,0.0248
1662.00,0.0250
1661.00,0.0251
1660.00,0.0251
1659.00,0.0252
1658.00,0.0253
1657.00,0.0255
1656.00,0.0258
1655.00,0.0260
1654.00,0.0256
1653.00,0.0253
1652.00,0.0255
1651.00,0.0259
1650.00,0.0263
1649.00,0.0265
1648.00,0.0262
1647.00,0.0260
1646.00,0.0265
1645.00,0.0271
1644.00,0.0274
1643.00,0.0275
1642.00,0.0275
1641.00,0.0275
1640.00,0.0277
1639.00,0.0280
1638.00,0.0281
1637.00,0.0279
1636.00,0.0278
1635.00,0.0280
1634.00,0.0283
1633.00,0.0287
1632.00,0.0289
1631.00,0.0289
1630.00,0.0289
1629.00,0.0291
1628.00,0.0294
1627.00,0.0298
1626.00,0.0298
1625.00,0.0297
1624.00,0.0297
1623.00,0.0300
1622.00,0.0305
1621.00,0.0308
1620.00,0.0308
1619.00,0.0306
1618.00,0.0306
1617.00,0.0310
1616.00,0.0315
1615.00,0.0318
1614.00,0.0318
1613.00,0.0316
1612.00,0.0315
1611.00,0.0317
1610.00,0.0322
1609.00,0.0325
1608.00,0.0325
1607.00,0.0325
1606.00,0.0327
1605.00,0.0332
1604.00,0.0336
1603.00,0.0336
1602.00,0.0333
1601.00,0.0330
1600.00,0.0330
1599.00,0.0332
1598.00,0.0336
1597.00,0.0338
1596.00,0.0339
1595.00,0.0341
1594.00,0.0343
1593.00,0.0346
1592.00,0.0348
1591.00,0.0348
1590.00,0.0346
1589.00,0.0346
1588.00,0.0347
1587.00,0.0351
1586.00,0.0353
1585.00,0.0353
1584.00,0.0352
1583.00,0.0352
1582.00,0.0355
1581.00,0.0358
1580.00,0.0360
1579.00,0.0359
1578.00,0.0358
1577.00,0.0358
1576.00,0.0361
1575.00,0.0362
1574.00,0.0362
1573.00,0.0360
1572.00,0.0358
1571.00,0.0360
1570.00,0.0364
1569.00,0.0369
1568.00,0.0370
1567.00,0.0368
1566.00,0.0365
1565.00,0.0363
1564.00,0.0363
1563.00,0.0363
1562.00,0.0360
1561.00,0.0354
1560.00,0.0350
1559.00,0.0359
1558.00,0.0368
1557.00,0.0368
1556.00,0.0364
1555.00,0.0361
1554.00,0.0360
1553.00,0.0361
1552.00,0.0362
1551.00,0.0362
1550.00,0.0359
1549.00,0.0355
1548.00,0.0351
1547.00,0.0350
1546.00,0.0352
1545.00,0.0353
1544.00,0.0351
1543.00,0.0346
1542.00,0.0342
1541.00,0.0343
1540.00,0.0347
1539.00,0.0344
1538.00,0.0337
1537.00,0.0334
1536.00,0.0334
1535.00,0.0336
1534.00,0.0339
1533.00,0.0339
1532.00,0.0338
1531.00,0.0335
1530.00,0.0333
1529.00,0.0333
1528.00,0.0333
1527.00,0.0330
1526.00,0.0325
1525.00,0.0320
1524.00,0.0319
1523.00,0.0320
1522.00,0.0321
1521.00,0.0321
1520.00,0.0319
1519.00,0.0319
1518.00,0.0320
1517.00,0.0320
1516.00,0.0318
1515.00,0.0313
1514.00,0.0309
1513.00,0.0306
1512.00,0.0305
1511.00,0.0305
1510.00,0.0305
1509.00,0.0305
1508.00,0.0306
1507.00,0.0306
1506.00,0.0305
1505.00,0.0302
1504.00,0.0299
1503.00,0.0296
1502.00,0.0293
1501.00,0.0291
1500.00,0.0291
1499.00,0.0293
1498.00,0.0293
1497.00,0.0292
1496.00,0.0292
1495.00,0.0292
1494.00,0.0292
1493.00,0.0291
1492.00,0.0289
1491.00,0.0286
1490.00,0.0286
1489.00,0.0287
1488.00,0.0288
1487.00,0.0288
1486.00,0.0287
1485.00,0.0286
1484.00,0.0285
1483.00,0.0286
1482.00,0.0286
1481.00,0.0286
1480.00,0.0284
1479.00,0.0282
1478.00,0.0280
1477.00,0.0280
1476.00,0.0281
1475.00,0.0281
1474.00,0.0280
1473.00,0.0281
1472.00,0.0285
1471.00,0.0288
1470.00,0.0290
1469.00,0.0290
1468.00,0.0290
1467.00,0.0289
1466.00,0.0288
1465.00,0.0287
1464.00,0.0287
1463.00,0.0287
1462.00,0.0287
1461.00,0.0287
1460.00,0.0287
1459.00,0.0290
1458.00,0.0293
1457.00,0.0293
1456.00,0.0291
1455.00,0.0291
1454.00,0.0292
1453.00,0.0293
1452.00,0.0294
1451.00,0.0295
1450.00,0.0296
1449.00,0.0299
1448.00,0.0302
1447.00,0.0305
1446.00,0.0306
1445.00,0.0306
1444.00,0.0306
1443.00,0.0305
1442.00,0.0303
1441.00,0.0303
1440.00,0.0303
1439.00,0.0304
1438.00,0.0304
1437.00,0.0306
1436.00,0.0309
1435.00,0.0312
1434.00,0.0312
1433.00,0.0312
1432.00,0.0312
1431.00,0.0313
1430.00,0.0312
1429.00,0.0312
1428.00,0.0312
1427.00,0.0313
1426.00,0.0314
1425.00,0.0315
1424.00,0.0317
1423.00,0.0318
1422.00,0.0319
1421.00,0.0319
1420.00,0.0319
1419.00,0.0320
1418.00,0.0321
1417.00,0.0322
1416.00,0.0323
1415.00,0.0323
1414.00,0.0323
1413.00,0.0323
1412.00,0.0324
1411.00,0.0325
1410.00,0.0325
1409.00,0.0325
1408.00,0.0325
1407.00,0.0324
1406.00,0.0323
1405.00,0.0322
1404.00,0.0322
1403.00,0.0322
1402.00,0.0321
1401.00,0.0321
1400.00,0.0323
1399.00,0.0325
1398.00,0.0327
1397.00,0.0327
1396.00,0.0327
1395.00,0.0327
1394.00,0.0326
1393.00,0.0326
1392.00,0.0325
1391.00,0.0326
1390.00,0.0326
1389.00,0.0327
1388.00,0.0329
1387.00,0.0332
1386.00,0.0334
1385.00,0.0334
1384.00,0.0333
1383.00,0.0332
1382.00,0.0332
1381.00,0.0333
1380.00,0.0334
1379.00,0.0334
1378.00,0.0334
1377.00,0.0336
1376.00,0.0339
1375.00,0.0343
1374.00,0.0344
1373.00,0.0344
1372.00,0.0344
1371.00,0.0343
1370.00,0.0343
1369.00,0.0343
1368.00,0.0342
1367.00,0.0342
1366.00,0.0342
1365.00,0.0342
1364.00,0.0344
1363.00,0.0347
1362.00,0.0350
1361.00,0.0350
1360.00,0.0349
1359.00,0.0348
1358.00,0.0348
1357.00,0.0347
1356.00,0.0346
1355.00,0.0346
1354.00,0.0346
1353.00,0.0347
1352.00,0.0348
1351.00,0.0348
1350.00,0.0347
1349.00,0.0347
1348.00,0.0346
1347.00,0.0346
1346.00,0.0345
1345.00,0.0345
1344.00,0.0343
1343.00,0.0341
1342.00,0.0340
1341.00,0.0342
1340.00,0.0345
1339.00,0.0348
1338.00,0.0348
1337.00,0.0346
1336.00,0.0346
1335.00,0.0346
1334.00,0.0345
1333.00,0.0343
1332.00,0.0340
1331.00,0.0339
1330.00,0.0339
1329.00,0.0340
1328.00,0.0341
1327.00,0.0342
1326.00,0.0342
1325.00,0.0342
1324.00,0.0342
1323.00,0.0343
1322.00,0.0344
1321.00,0.0343
1320.00,0.0341
1319.00,0.0340
1318.00,0.0340
1317.00,0.0341
1316.00,0.0341
1315.00,0.0340
1314.00,0.0340
1313.00,0.0342
1312.00,0.0344
1311.00,0.0346
1310.00,0.0345
1309.00,0.0343
1308.00,0.0340
1307.00,0.0339
1306.00,0.0340
1305.00,0.0340
1304.00,0.0342
1303.00,0.0343
1302.00,0.0344
1301.00,0.0346
1300.00,0.0347
1299.00,0.0347
1298.00,0.0344
1297.00,0.0340
1296.00,0.0338
1295.00,0.0338
1294.00,0.0340
1293.00,0.0342
1292.00,0.0342
1291.00,0.0343
1290.00,0.0345
1289.00,0.0347
1288.00,0.0349
1287.00,0.0348
1286.00,0.0346
1285.00,0.0343
1284.00,0.0343
1283.00,0.0344
1282.00,0.0345
1281.00,0.0346
1280.00,0.0344
1279.00,0.0343
1278.00,0.0344
1277.00,0.0347
1276.00,0.0350
1275.00,0.0350
1274.00,0.0347
1273.00,0.0344
1272.00,0.0343
1271.00,0.0344
1270.00,0.0344
1269.00,0.0343
1268.00,0.0343
1267.00,0.0344
1266.00,0.0348
1265.00,0.0351
1264.00,0.0352
1263.00,0.0350
1262.00,0.0347
1261.00,0.0344
1260.00,0.0343
1259.00,0.0345
1258.00,0.0346
1257.00,0.0346
1256.00,0.0345
1255.00,0.0346
1254.00,0.0349
1253.00,0.0354
1252.00,0.0356
1251.00,0.0353
1250.00,0.0350
1249.00,0.0348
1248.00,0.0349
1247.00,0.0351
1246.00,0.0352
1245.00,0.0351
1244.00,0.0352
1243.00,0.0354
1242.00,0.0356
1241.00,0.0358
1240.00,0.0359
1239.00,0.0358
1238.00,0.0357
1237.00,0.0356
1236.00,0.0357
1235.00,0.0358
1234.00,0.0356
1233.00,0.0352
1232.00,0.0351
1231.00,0.0354
1230.00,0.0359
1229.00,0.0363
1228.00,0.0363
1227.00,0.0361
1226.00,0.0359
1225.00,0.0358
1224.00,0.0357
1223.00,0.0355
1222.00,0.0354
1221.00,0.0353
1220.00,0.0355
1219.00,0.0358
1218.00,0.0362
1217.00,0.0364
1216.00,0.0364
1215.00,0.0361
1214.00,0.0358
1213.00,0.0359
1212.00,0.0361
1211.00,0.0360
1210.00,0.0357
1209.00,0.0354
1208.00,0.0355
1207.00,0.0358
1206.00,0.0362
1205.00,0.0363
1204.00,0.0363
1203.00,0.0363
1202.00,0.0363
1201.00,0.0363
1200.00,0.0361
1199.00,0.0358
1198.00,0.0354
1197.00,0.0351
1196.00,0.0352
1195.00,0.0357
1194.00,0.0362
1193.00,0.0364
1192.00,0.0362
1191.00,0.0360
1190.00,0.0359
1189.00,0.0359
1188.00,0.0357
1187.00,0.0353
1186.00,0.0350
1185.00,0.0350
1184.00,0.0352
1183.00,0.0354
1182.00,0.0355
1181.00,0.0355
1180.00,0.0354
1179.00,0.0352
1178.00,0.0352
1177.00,0.0353
1176.00,0.0353
1175.00,0.0350
1174.00,0.0345
1173.00,0.0342
1172.00,0.0343
1171.00,0.0347
1170.00,0.0349
1169.00,0.0350
1168.00,0.0350
1167.00,0.0351
1166.00,0.0352
1165.00,0.0350
1164.00,0.0346
1163.00,0.0341
1162.00,0.0337
1161.00,0.0336
1160.00,0.0338
1159.00,0.0342
1158.00,0.0346
1157.00,0.0348
1156.00,0.0347
1155.00,0.0346
1154.00,0.0346
1153.00,0.0346
1152.00,0.0342
1151.00,0.0336
1150.00,0.0331
1149.00,0.0331
1148.00,0.0334
1147.00,0.0338
1146.00,0.0340
1145.00,0.0342
1144.00,0.0344
1143.00,0.0346
1142.00,0.0347
1141.00,0.0347
1140.00,0.0346
1139.00,0.0342
1138.00,0.0337
1137.00,0.0333
1136.00,0.0336
1135.00,0.0342
1134.00,0.0348
1133.00,0.0351
1132.00,0.0352
1131.00,0.0353
1130.00,0.0355
1129.00,0.0354
1128.00,0.0351
1127.00,0.0347
1126.00,0.0343
1125.00,0.0342
1124.00,0.0344
1123.00,0.0351
1122.00,0.0359
1121.00,0.0366
1120.00,0.0368
1119.00,0.0369
1118.00,0.0369
1117.00,0.0370
1116.00,0.0369
1115.00,0.0366
1114.00,0.0362
1113.00,0.0361
1112.00,0.0364
1111.00,0.0367
1110.00,0.0370
1109.00,0.0371
1108.00,0.0373
1107.00,0.0375
1106.00,0.0377
1105.00,0.0377
1104.00,0.0376
1103.00,0.0372
1102.00,0.0367
1101.00,0.0364
1100.00,0.0367
1099.00,0.0373
1098.00,0.0378
1097.00,0.0379
1096.00,0.0377
1095.00,0.0378
1094.00,0.0380
1093.00,0.0381
1092.00,0.0377
1091.00,0.0370
1090.00,0.0364
1089.00,0.0364
1088.00,0.0367
1087.00,0.0372
1086.00,0.0375
1085.00,0.0376
1084.00,0.0375
1083.00,0.0377
1082.00,0.0381
1081.00,0.0383
1080.00,0.0381
1079.00,0.0373
1078.00,0.0368
1077.00,0.0370
1076.00,0.0376
1075.00,0.0379
1074.00,0.0375
1073.00,0.0369
1072.00,0.0369
1071.00,0.0375
1070.00,0.0382
1069.00,0.0381
1068.00,0.0373
1067.00,0.0364
1066.00,0.0360
1065.00,0.0363
1064.00,0.0373
1063.00,0.0381
1062.00,0.0382
1061.00,0.0377
1060.00,0.0373
1059.00,0.0376
1058.00,0.0382
1057.00,0.0384
1056.00,0.0378
1055.00,0.0369
1054.00,0.0368
1053.00,0.0376
1052.00,0.0386
1051.00,0.0387
1050.00,0.0382
1049.00,0.0379
1048.00,0.0385
1047.00,0.0395
1046.00,0.0401
1045.00,0.0401
1044.00,0.0394
1043.00,0.0386
1042.00,0.0383
1041.00,0.0387
1040.00,0.0392
1039.00,0.0393
1038.00,0.0390
1037.00,0.0389
1036.00,0.0396
1035.00,0.0408
1034.00,0.0413
1033.00,0.0407
1032.00,0.0394
1031.00,0.0386
1030.00,0.0387
1029.00,0.0392
1028.00,0.0394
1027.00,0.0389
1026.00,0.0382
1025.00,0.0381
1024.00,0.0386
1023.00,0.0392
1022.00,0.0393
1021.00,0.0385
1020.00,0.0376
1019.00,0.0371
1018.00,0.0376
1017.00,0.0384
1016.00,0.0385
1015.00,0.0379
1014.00,0.0372
1013.00,0.0374
1012.00,0.0384
1011.00,0.0393
1010.00,0.0393
1009.00,0.0385
1008.00,0.0377
1007.00,0.0376
1006.00,0.0381
1005.00,0.0386
1004.00,0.0384
1003.00,0.0377
1002.00,0.0372
1001.00,0.0375
1000.00,0.0382
999.00,0.0386
998.00,0.0380
997.00,0.0367
996.00,0.0359
995.00,0.0362
994.00,0.0369
993.00,0.0371
992.00,0.0362
991.00,0.0349
990.00,0.0344
989.00,0.0349
988.00,0.0358
987.00,0.0362
986.00,0.0357
985.00,0.0349
984.00,0.0345
983.00,0.0348
982.00,0.0353
981.00,0.0352
980.00,0.0342
979.00,0.0331
978.00,0.0328
977.00,0.0335
976.00,0.0344
975.00,0.0346
974.00,0.0338
973.00,0.0329
972.00,0.0328
971.00,0.0334
970.00,0.0338
969.00,0.0333
968.00,0.0321
967.00,0.0312
966.00,0.0314
965.00,0.0324
964.00,0.0333
963.00,0.0332
962.00,0.0323
961.00,0.0315
960.00,0.0317
959.00,0.0326
958.00,0.0332
957.00,0.0327
956.00,0.0315
955.00,0.0307
954.00,0.0310
953.00,0.0320
952.00,0.0325
951.00,0.0321
950.00,0.0313
949.00,0.0311
948.00,0.0320
947.00,0.0329
946.00,0.0329
945.00,0.0318
944.00,0.0306
943.00,0.0302
942.00,0.0311
941.00,0.0324
940.00,0.0329
939.00,0.0324
938.00,0.0315
937.00,0.0314
936.00,0.0322
935.00,0.0331
934.00,0.0332
933.00,0.0323
932.00,0.0315
931.00,0.0318
930.00,0.0329
929.00,0.0338
928.00,0.0335
927.00,0.0324
926.00,0.0317
925.00,0.0322
924.00,0.0335
923.00,0.0346
922.00,0.0345
921.00,0.0334
920.00,0.0325
919.00,0.0327
918.00,0.0337
917.00,0.0344
916.00,0.0341
915.00,0.0333
914.00,0.0332
913.00,0.0342
912.00,0.0356
911.00,0.0358
910.00,0.0344
909.00,0.0324
908.00,0.0316
907.00,0.0324
906.00,0.0338
905.00,0.0343
904.00,0.0337
903.00,0.0329
902.00,0.0329
901.00,0.0339
900.00,0.0349
899.00,0.0348
898.00,0.0337
897.00,0.0327
896.00,0.0328
895.00,0.0339
894.00,0.0347
893.00,0.0341
892.00,0.0322
891.00,0.0309
890.00,0.0314
889.00,0.0333
888.00,0.0347
887.00,0.0345
886.00,0.0330
885.00,0.0319
884.00,0.0322
883.00,0.0332
882.00,0.0336
881.00,0.0326
880.00,0.0311
879.00,0.0306
878.00,0.0316
877.00,0.0332
876.00,0.0338
875.00,0.0327
874.00,0.0310
873.00,0.0303
872.00,0.0314
871.00,0.0330
870.00,0.0333
869.00,0.0319
868.00,0.0301
867.00,0.0297
866.00,0.0310
865.00,0.0325
864.00,0.0330
863.00,0.0324
862.00,0.0318
861.00,0.0322
860.00,0.0333
859.00,0.0337
858.00,0.0328
857.00,0.0308
856.00,0.0293
855.00,0.0296
854.00,0.0314
853.00,0.0330
852.00,0.0333
851.00,0.0326
850.00,0.0322
849.00,0.0330
848.00,0.0341
847.00,0.0342
846.00,0.0329
845.00,0.0314
844.00,0.0312
843.00,0.0325
842.00,0.0339
841.00,0.0343
840.00,0.0334
839.00,0.0323
838.00,0.0321
837.00,0.0333
836.00,0.0346
835.00,0.0347
834.00,0.0333
833.00,0.0317
832.00,0.0313
831.00,0.0324
830.00,0.0335
829.00,0.0334
828.00,0.0323
827.00,0.0321
826.00,0.0338
825.00,0.0364
824.00,0.0375
823.00,0.0362
822.00,0.0336
821.00,0.0320
820.00,0.0323
819.00,0.0336
818.00,0.0346
817.00,0.0344
816.00,0.0338
815.00,0.0340
814.00,0.0354
813.00,0.0369
812.00,0.0371
811.00,0.0356
810.00,0.0336
809.00,0.0329
808.00,0.0341
807.00,0.0356
806.00,0.0360
805.00,0.0350
804.00,0.0342
803.00,0.0348
802.00,0.0367
801.00,0.0385
800.00,0.0389
799.00,0.0379
798.00,0.0365
797.00,0.0357
796.00,0.0357
795.00,0.0359
794.00,0.0357
793.00,0.0353
792.00,0.0356
791.00,0.0371
790.00,0.0391
789.00,0.0402
788.00,0.0393
787.00,0.0375
786.00,0.0362
785.00,0.0363
784.00,0.0370
783.00,0.0372
782.00,0.0366
781.00,0.0363
780.00,0.0371
779.00,0.0388
778.00,0.0402
777.00,0.0402
776.00,0.0390
775.00,0.0376
774.00,0.0369
773.00,0.0372
772.00,0.0376
771.00,0.0373
770.00,0.0365
769.00,0.0361
768.00,0.0371
767.00,0.0389
766.00,0.0403
765.00,0.0402
764.00,0.0390
763.00,0.0379
762.00,0.0377
761.00,0.0378
760.00,0.0373
759.00,0.0361
758.00,0.0353
757.00,0.0359
756.00,0.0379
755.00,0.0400
754.00,0.0410
753.00,0.0406
752.00,0.0395
751.00,0.0388
750.00,0.0387
749.00,0.0387
748.00,0.0380
747.00,0.0367
746.00,0.0359
745.00,0.0367
744.00,0.0388
743.00,0.0408
742.00,0.0412
741.00,0.0402
740.00,0.0390
739.00,0.0387
738.00,0.0390
737.00,0.0387
736.00,0.0373
735.00,0.0356
734.00,0.0351
733.00,0.0361
732.00,0.0379
731.00,0.0394
730.00,0.0399
729.00,0.0400
728.00,0.0403
727.00,0.0408
726.00,0.0410
725.00,0.0399
724.00,0.0377
723.00,0.0359
722.00,0.0360
721.00,0.0381
720.00,0.0405
719.00,0.0415
718.00,0.0411
717.00,0.0406
716.00,0.0408
715.00,0.0411
714.00,0.0405
713.00,0.0388
712.00,0.0369
711.00,0.0362
710.00,0.0372
709.00,0.0392
708.00,0.0408
707.00,0.0412
706.00,0.0408
705.00,0.0410
704.00,0.0424
703.00,0.0438
702.00,0.0435
701.00,0.0410
700.00,0.0380
699.00,0.0369
698.00,0.0384
697.00,0.0407
696.00,0.0419
695.00,0.0420
694.00,0.0423
693.00,0.0439
692.00,0.0459
691.00,0.0465
690.00,0.0446
689.00,0.0410
688.00,0.0381
687.00,0.0376
686.00,0.0395
685.00,0.0418
684.00,0.0426
683.00,0.0421
682.00,0.0422
681.00,0.0442
680.00,0.0468
679.00,0.0472
678.00,0.0440
677.00,0.0395
676.00,0.0371
675.00,0.0379
674.00,0.0403
673.00,0.0419
672.00,0.0421
671.00,0.0424
670.00,0.0448
669.00,0.0501
668.00,0.0537
667.00,0.0509
666.00,0.0452
665.00,0.0406
664.00,0.0385
663.00,0.0389
662.00,0.0405
661.00,0.0408
660.00,0.0401
659.00,0.0402
658.00,0.0434
657.00,0.0495
656.00,0.0519
655.00,0.0478
654.00,0.0399
653.00,0.0342
652.00,0.0340
651.00,0.0369
650.00,0.0393
