Created as New Dataset,Monday, April 03 2023
cm-1,A
4000.00,0.0246
3999.00,0.0246
3998.00,0.0246
3997.00,0.0246
3996.00,0.0246
3995.00,0.0246
3994.00,0.0246
3993.00,0.0246
3992.00,0.0246
3991.00,0.0246
3990.00,0.0246
3989.00,0.0246
3988.00,0.0246
3987.00,0.0245
3986.00,0.0245
3985.00,0.0245
3984.00,0.0245
3983.00,0.0245
3982.00,0.0245
3981.00,0.0244
3980.00,0.0244
3979.00,0.0243
3978.00,0.0243
3977.00,0.0243
3976.00,0.0243
3975.00,0.0243
3974.00,0.0243
3973.00,0.0244
3972.00,0.0244
3971.00,0.0245
3970.00,0.0245
3969.00,0.0245
3968.00,0.0244
3967.00,0.0244
3966.00,0.0243
3965.00,0.0243
3964.00,0.0244
3963.00,0.0245
3962.00,0.0245
3961.00,0.0245
3960.00,0.0244
3959.00,0.0243
3958.00,0.0243
3957.00,0.0242
3956.00,0.0242
3955.00,0.0242
3954.00,0.0241
3953.00,0.0241
3952.00,0.0242
3951.00,0.0243
3950.00,0.0244
3949.00,0.0245
3948.00,0.0246
3947.00,0.0246
3946.00,0.0246
3945.00,0.0246
3944.00,0.0245
3943.00,0.0243
3942.00,0.0242
3941.00,0.0242
3940.00,0.0242
3939.00,0.0242
3938.00,0.0242
3937.00,0.0242
3936.00,0.0242
3935.00,0.0242
3934.00,0.0243
3933.00,0.0243
3932.00,0.0243
3931.00,0.0243
3930.00,0.0243
3929.00,0.0244
3928.00,0.0244
3927.00,0.0244
3926.00,0.0243
3925.00,0.0243
3924.00,0.0243
3923.00,0.0244
3922.00,0.0245
3921.00,0.0245
3920.00,0.0244
3919.00,0.0244
3918.00,0.0244
3917.00,0.0244
3916.00,0.0244
3915.00,0.0243
3914.00,0.0242
3913.00,0.0241
3912.00,0.0240
3911.00,0.0240
3910.00,0.0240
3909.00,0.0240
3908.00,0.0241
3907.00,0.0242
3906.00,0.0243
3905.00,0.0243
3904.00,0.0244
3903.00,0.0246
3902.00,0.0248
3901.00,0.0249
3900.00,0.0247
3899.00,0.0246
3898.00,0.0244
3897.00,0.0243
3896.00,0.0242
3895.00,0.0242
3894.00,0.0242
3893.00,0.0241
3892.00,0.0241
3891.00,0.0240
3890.00,0.0239
3889.00,0.0240
3888.00,0.0241
3887.00,0.0240
3886.00,0.0238
3885.00,0.0238
3884.00,0.0240
3883.00,0.0242
3882.00,0.0242
3881.00,0.0240
3880.00,0.0238
3879.00,0.0239
3878.00,0.0241
3877.00,0.0242
3876.00,0.0242
3875.00,0.0240
3874.00,0.0239
3873.00,0.0240
3872.00,0.0241
3871.00,0.0242
3870.00,0.0241
3869.00,0.0240
3868.00,0.0241
3867.00,0.0242
3866.00,0.0242
3865.00,0.0241
3864.00,0.0241
3863.00,0.0242
3862.00,0.0242
3861.00,0.0242
3860.00,0.0240
3859.00,0.0239
3858.00,0.0238
3857.00,0.0238
3856.00,0.0237
3855.00,0.0236
3854.00,0.0235
3853.00,0.0236
3852.00,0.0239
3851.00,0.0240
3850.00,0.0239
3849.00,0.0238
3848.00,0.0236
3847.00,0.0236
3846.00,0.0236
3845.00,0.0236
3844.00,0.0236
3843.00,0.0236
3842.00,0.0237
3841.00,0.0238
3840.00,0.0239
3839.00,0.0240
3838.00,0.0240
3837.00,0.0240
3836.00,0.0239
3835.00,0.0239
3834.00,0.0239
3833.00,0.0239
3832.00,0.0238
3831.00,0.0237
3830.00,0.0237
3829.00,0.0237
3828.00,0.0236
3827.00,0.0234
3826.00,0.0233
3825.00,0.0235
3824.00,0.0237
3823.00,0.0239
3822.00,0.0237
3821.00,0.0236
3820.00,0.0236
3819.00,0.0238
3818.00,0.0238
3817.00,0.0237
3816.00,0.0234
3815.00,0.0234
3814.00,0.0235
3813.00,0.0235
3812.00,0.0234
3811.00,0.0232
3810.00,0.0231
3809.00,0.0231
3808.00,0.0231
3807.00,0.0231
3806.00,0.0232
3805.00,0.0235
3804.00,0.0238
3803.00,0.0238
3802.00,0.0236
3801.00,0.0235
3800.00,0.0236
3799.00,0.0237
3798.00,0.0236
3797.00,0.0234
3796.00,0.0232
3795.00,0.0232
3794.00,0.0233
3793.00,0.0233
3792.00,0.0232
3791.00,0.0231
3790.00,0.0231
3789.00,0.0231
3788.00,0.0232
3787.00,0.0232
3786.00,0.0233
3785.00,0.0233
3784.00,0.0233
3783.00,0.0233
3782.00,0.0234
3781.00,0.0233
3780.00,0.0232
3779.00,0.0231
3778.00,0.0231
3777.00,0.0231
3776.00,0.0231
3775.00,0.0230
3774.00,0.0230
3773.00,0.0230
3772.00,0.0230
3771.00,0.0230
3770.00,0.0230
3769.00,0.0230
3768.00,0.0231
3767.00,0.0232
3766.00,0.0231
3765.00,0.0230
3764.00,0.0230
3763.00,0.0231
3762.00,0.0232
3761.00,0.0232
3760.00,0.0231
3759.00,0.0231
3758.00,0.0231
3757.00,0.0230
3756.00,0.0230
3755.00,0.0230
3754.00,0.0229
3753.00,0.0227
3752.00,0.0226
3751.00,0.0227
3750.00,0.0228
3749.00,0.0230
3748.00,0.0233
3747.00,0.0236
3746.00,0.0237
3745.00,0.0234
3744.00,0.0231
3743.00,0.0230
3742.00,0.0231
3741.00,0.0231
3740.00,0.0231
3739.00,0.0231
3738.00,0.0233
3737.00,0.0233
3736.00,0.0234
3735.00,0.0234
3734.00,0.0234
3733.00,0.0233
3732.00,0.0230
3731.00,0.0228
3730.00,0.0228
3729.00,0.0228
3728.00,0.0228
3727.00,0.0228
3726.00,0.0227
3725.00,0.0228
3724.00,0.0228
3723.00,0.0227
3722.00,0.0226
3721.00,0.0226
3720.00,0.0227
3719.00,0.0227
3718.00,0.0225
3717.00,0.0224
3716.00,0.0224
3715.00,0.0224
3714.00,0.0224
3713.00,0.0225
3712.00,0.0226
3711.00,0.0227
3710.00,0.0227
3709.00,0.0226
3708.00,0.0225
3707.00,0.0225
3706.00,0.0225
3705.00,0.0226
3704.00,0.0226
3703.00,0.0225
3702.00,0.0224
3701.00,0.0224
3700.00,0.0224
3699.00,0.0224
3698.00,0.0223
3697.00,0.0222
3696.00,0.0221
3695.00,0.0221
3694.00,0.0222
3693.00,0.0222
3692.00,0.0222
3691.00,0.0224
3690.00,0.0226
3689.00,0.0226
3688.00,0.0226
3687.00,0.0225
3686.00,0.0224
3685.00,0.0223
3684.00,0.0222
3683.00,0.0222
3682.00,0.0221
3681.00,0.0220
3680.00,0.0219
3679.00,0.0220
3678.00,0.0220
3677.00,0.0220
3676.00,0.0220
3675.00,0.0220
3674.00,0.0222
3673.00,0.0224
3672.00,0.0226
3671.00,0.0226
3670.00,0.0226
3669.00,0.0227
3668.00,0.0228
3667.00,0.0227
3666.00,0.0226
3665.00,0.0225
3664.00,0.0225
3663.00,0.0225
3662.00,0.0225
3661.00,0.0227
3660.00,0.0228
3659.00,0.0231
3658.00,0.0233
3657.00,0.0234
3656.00,0.0234
3655.00,0.0235
3654.00,0.0238
3653.00,0.0241
3652.00,0.0242
3651.00,0.0241
3650.00,0.0243
3649.00,0.0246
3648.00,0.0249
3647.00,0.0249
3646.00,0.0248
3645.00,0.0247
3644.00,0.0247
3643.00,0.0246
3642.00,0.0246
3641.00,0.0247
3640.00,0.0248
3639.00,0.0250
3638.00,0.0251
3637.00,0.0252
3636.00,0.0253
3635.00,0.0254
3634.00,0.0255
3633.00,0.0257
3632.00,0.0259
3631.00,0.0262
3630.00,0.0263
3629.00,0.0263
3628.00,0.0265
3627.00,0.0265
3626.00,0.0265
3625.00,0.0264
3624.00,0.0264
3623.00,0.0264
3622.00,0.0266
3621.00,0.0268
3620.00,0.0271
3619.00,0.0274
3618.00,0.0276
3617.00,0.0277
3616.00,0.0277
3615.00,0.0277
3614.00,0.0277
3613.00,0.0278
3612.00,0.0278
3611.00,0.0280
3610.00,0.0281
3609.00,0.0282
3608.00,0.0283
3607.00,0.0284
3606.00,0.0283
3605.00,0.0282
3604.00,0.0282
3603.00,0.0282
3602.00,0.0283
3601.00,0.0284
3600.00,0.0286
3599.00,0.0287
3598.00,0.0287
3597.00,0.0287
3596.00,0.0287
3595.00,0.0288
3594.00,0.0288
3593.00,0.0289
3592.00,0.0290
3591.00,0.0291
3590.00,0.0292
3589.00,0.0294
3588.00,0.0295
3587.00,0.0297
3586.00,0.0299
3585.00,0.0299
3584.00,0.0299
3583.00,0.0298
3582.00,0.0297
3581.00,0.0296
3580.00,0.0296
3579.00,0.0297
3578.00,0.0298
3577.00,0.0299
3576.00,0.0299
3575.00,0.0300
3574.00,0.0300
3573.00,0.0301
3572.00,0.0302
3571.00,0.0303
3570.00,0.0305
3569.00,0.0306
3568.00,0.0309
3567.00,0.0312
3566.00,0.0314
3565.00,0.0314
3564.00,0.0313
3563.00,0.0311
3562.00,0.0311
3561.00,0.0311
3560.00,0.0311
3559.00,0.0312
3558.00,0.0313
3557.00,0.0314
3556.00,0.0315
3555.00,0.0315
3554.00,0.0315
3553.00,0.0316
3552.00,0.0317
3551.00,0.0319
3550.00,0.0320
3549.00,0.0321
3548.00,0.0322
3547.00,0.0323
3546.00,0.0325
3545.00,0.0326
3544.00,0.0327
3543.00,0.0326
3542.00,0.0326
3541.00,0.0325
3540.00,0.0324
3539.00,0.0324
3538.00,0.0323
3537.00,0.0324
3536.00,0.0324
3535.00,0.0326
3534.00,0.0327
3533.00,0.0328
3532.00,0.0329
3531.00,0.0329
3530.00,0.0329
3529.00,0.0329
3528.00,0.0329
3527.00,0.0330
3526.00,0.0331
3525.00,0.0333
3524.00,0.0335
3523.00,0.0336
3522.00,0.0337
3521.00,0.0336
3520.00,0.0335
3519.00,0.0334
3518.00,0.0333
3517.00,0.0333
3516.00,0.0333
3515.00,0.0334
3514.00,0.0336
3513.00,0.0338
3512.00,0.0339
3511.00,0.0340
3510.00,0.0340
3509.00,0.0340
3508.00,0.0341
3507.00,0.0341
3506.00,0.0342
3505.00,0.0343
3504.00,0.0344
3503.00,0.0346
3502.00,0.0347
3501.00,0.0347
3500.00,0.0347
3499.00,0.0347
3498.00,0.0347
3497.00,0.0348
3496.00,0.0348
3495.00,0.0349
3494.00,0.0349
3493.00,0.0349
3492.00,0.0349
3491.00,0.0349
3490.00,0.0349
3489.00,0.0349
3488.00,0.0349
3487.00,0.0350
3486.00,0.0351
3485.00,0.0351
3484.00,0.0352
3483.00,0.0353
3482.00,0.0354
3481.00,0.0355
3480.00,0.0355
3479.00,0.0355
3478.00,0.0355
3477.00,0.0356
3476.00,0.0356
3475.00,0.0357
3474.00,0.0357
3473.00,0.0358
3472.00,0.0358
3471.00,0.0359
3470.00,0.0360
3469.00,0.0360
3468.00,0.0361
3467.00,0.0361
3466.00,0.0362
3465.00,0.0363
3464.00,0.0363
3463.00,0.0362
3462.00,0.0361
3461.00,0.0361
3460.00,0.0362
3459.00,0.0363
3458.00,0.0364
3457.00,0.0365
3456.00,0.0364
3455.00,0.0364
3454.00,0.0365
3453.00,0.0366
3452.00,0.0367
3451.00,0.0369
3450.00,0.0369
3449.00,0.0370
3448.00,0.0370
3447.00,0.0370
3446.00,0.0371
3445.00,0.0372
3444.00,0.0372
3443.00,0.0372
3442.00,0.0372
3441.00,0.0371
3440.00,0.0371
3439.00,0.0370
3438.00,0.0370
3437.00,0.0371
3436.00,0.0371
3435.00,0.0371
3434.00,0.0371
3433.00,0.0372
3432.00,0.0373
3431.00,0.0374
3430.00,0.0374
3429.00,0.0374
3428.00,0.0374
3427.00,0.0374
3426.00,0.0375
3425.00,0.0377
3424.00,0.0378
3423.00,0.0379
3422.00,0.0380
3421.00,0.0380
3420.00,0.0380
3419.00,0.0380
3418.00,0.0380
3417.00,0.0380
3416.00,0.0379
3415.00,0.0379
3414.00,0.0379
3413.00,0.0380
3412.00,0.0381
3411.00,0.0382
3410.00,0.0383
3409.00,0.0383
3408.00,0.0383
3407.00,0.0384
3406.00,0.0383
3405.00,0.0383
3404.00,0.0383
3403.00,0.0383
3402.00,0.0383
3401.00,0.0384
3400.00,0.0385
3399.00,0.0386
3398.00,0.0386
3397.00,0.0385
3396.00,0.0385
3395.00,0.0385
3394.00,0.0385
3393.00,0.0386
3392.00,0.0387
3391.00,0.0387
3390.00,0.0387
3389.00,0.0387
3388.00,0.0387
3387.00,0.0388
3386.00,0.0388
3385.00,0.0389
3384.00,0.0389
3383.00,0.0390
3382.00,0.0391
3381.00,0.0391
3380.00,0.0392
3379.00,0.0392
3378.00,0.0392
3377.00,0.0392
3376.00,0.0392
3375.00,0.0392
3374.00,0.0391
3373.00,0.0391
3372.00,0.0391
3371.00,0.0390
3370.00,0.0390
3369.00,0.0391
3368.00,0.0392
3367.00,0.0392
3366.00,0.0392
3365.00,0.0392
3364.00,0.0392
3363.00,0.0392
3362.00,0.0394
3361.00,0.0395
3360.00,0.0396
3359.00,0.0396
3358.00,0.0396
3357.00,0.0396
3356.00,0.0395
3355.00,0.0395
3354.00,0.0396
3353.00,0.0396
3352.00,0.0396
3351.00,0.0396
3350.00,0.0396
3349.00,0.0396
3348.00,0.0396
3347.00,0.0396
3346.00,0.0396
3345.00,0.0396
3344.00,0.0396
3343.00,0.0396
3342.00,0.0396
3341.00,0.0396
3340.00,0.0397
3339.00,0.0397
3338.00,0.0398
3337.00,0.0398
3336.00,0.0398
3335.00,0.0398
3334.00,0.0397
3333.00,0.0397
3332.00,0.0397
3331.00,0.0396
3330.00,0.0396
3329.00,0.0395
3328.00,0.0396
3327.00,0.0396
3326.00,0.0397
3325.00,0.0398
3324.00,0.0399
3323.00,0.0399
3322.00,0.0399
3321.00,0.0398
3320.00,0.0398
3319.00,0.0398
3318.00,0.0398
3317.00,0.0398
3316.00,0.0398
3315.00,0.0398
3314.00,0.0398
3313.00,0.0397
3312.00,0.0397
3311.00,0.0397
3310.00,0.0398
3309.00,0.0399
3308.00,0.0400
3307.00,0.0400
3306.00,0.0400
3305.00,0.0400
3304.00,0.0399
3303.00,0.0399
3302.00,0.0399
3301.00,0.0399
3300.00,0.0399
3299.00,0.0399
3298.00,0.0399
3297.00,0.0400
3296.00,0.0400
3295.00,0.0401
3294.00,0.0401
3293.00,0.0401
3292.00,0.0401
3291.00,0.0400
3290.00,0.0400
3289.00,0.0400
3288.00,0.0400
3287.00,0.0400
3286.00,0.0401
3285.00,0.0402
3284.00,0.0402
3283.00,0.0401
3282.00,0.0401
3281.00,0.0401
3280.00,0.0401
3279.00,0.0401
3278.00,0.0401
3277.00,0.0401
3276.00,0.0401
3275.00,0.0401
3274.00,0.0401
3273.00,0.0402
3272.00,0.0402
3271.00,0.0403
3270.00,0.0404
3269.00,0.0404
3268.00,0.0404
3267.00,0.0404
3266.00,0.0403
3265.00,0.0402
3264.00,0.0402
3263.00,0.0401
3262.00,0.0402
3261.00,0.0402
3260.00,0.0403
3259.00,0.0403
3258.00,0.0403
3257.00,0.0402
3256.00,0.0402
3255.00,0.0402
3254.00,0.0402
3253.00,0.0403
3252.00,0.0403
3251.00,0.0403
3250.00,0.0403
3249.00,0.0403
3248.00,0.0403
3247.00,0.0403
3246.00,0.0403
3245.00,0.0403
3244.00,0.0404
3243.00,0.0404
3242.00,0.0403
3241.00,0.0403
3240.00,0.0403
3239.00,0.0403
3238.00,0.0404
3237.00,0.0405
3236.00,0.0405
3235.00,0.0406
3234.00,0.0406
3233.00,0.0406
3232.00,0.0406
3231.00,0.0406
3230.00,0.0405
3229.00,0.0405
3228.00,0.0404
3227.00,0.0404
3226.00,0.0405
3225.00,0.0405
3224.00,0.0405
3223.00,0.0405
3222.00,0.0405
3221.00,0.0405
3220.00,0.0405
3219.00,0.0404
3218.00,0.0404
3217.00,0.0405
3216.00,0.0405
3215.00,0.0406
3214.00,0.0407
3213.00,0.0407
3212.00,0.0406
3211.00,0.0405
3210.00,0.0404
3209.00,0.0404
3208.00,0.0404
3207.00,0.0405
3206.00,0.0405
3205.00,0.0406
3204.00,0.0406
3203.00,0.0406
3202.00,0.0406
3201.00,0.0405
3200.00,0.0405
3199.00,0.0405
3198.00,0.0405
3197.00,0.0405
3196.00,0.0405
3195.00,0.0404
3194.00,0.0404
3193.00,0.0404
3192.00,0.0404
3191.00,0.0404
3190.00,0.0403
3189.00,0.0403
3188.00,0.0402
3187.00,0.0402
3186.00,0.0402
3185.00,0.0402
3184.00,0.0402
3183.00,0.0403
3182.00,0.0403
3181.00,0.0403
3180.00,0.0403
3179.00,0.0403
3178.00,0.0402
3177.00,0.0402
3176.00,0.0401
3175.00,0.0401
3174.00,0.0401
3173.00,0.0401
3172.00,0.0401
3171.00,0.0401
3170.00,0.0401
3169.00,0.0400
3168.00,0.0400
3167.00,0.0400
3166.00,0.0401
3165.00,0.0401
3164.00,0.0402
3163.00,0.0402
3162.00,0.0401
3161.00,0.0400
3160.00,0.0399
3159.00,0.0398
3158.00,0.0397
3157.00,0.0397
3156.00,0.0397
3155.00,0.0398
3154.00,0.0399
3153.00,0.0399
3152.00,0.0399
3151.00,0.0399
3150.00,0.0398
3149.00,0.0398
3148.00,0.0398
3147.00,0.0398
3146.00,0.0397
3145.00,0.0397
3144.00,0.0397
3143.00,0.0397
3142.00,0.0396
3141.00,0.0396
3140.00,0.0396
3139.00,0.0396
3138.00,0.0396
3137.00,0.0397
3136.00,0.0397
3135.00,0.0397
3134.00,0.0397
3133.00,0.0396
3132.00,0.0396
3131.00,0.0396
3130.00,0.0396
3129.00,0.0395
3128.00,0.0395
3127.00,0.0394
3126.00,0.0394
3125.00,0.0394
3124.00,0.0394
3123.00,0.0394
3122.00,0.0394
3121.00,0.0394
3120.00,0.0393
3119.00,0.0393
3118.00,0.0393
3117.00,0.0393
3116.00,0.0393
3115.00,0.0393
3114.00,0.0392
3113.00,0.0392
3112.00,0.0391
3111.00,0.0391
3110.00,0.0391
3109.00,0.0391
3108.00,0.0390
3107.00,0.0391
3106.00,0.0391
3105.00,0.0391
3104.00,0.0391
3103.00,0.0391
3102.00,0.0390
3101.00,0.0390
3100.00,0.0389
3099.00,0.0389
3098.00,0.0389
3097.00,0.0389
3096.00,0.0389
3095.00,0.0390
3094.00,0.0390
3093.00,0.0390
3092.00,0.0390
3091.00,0.0389
3090.00,0.0389
3089.00,0.0388
3088.00,0.0387
3087.00,0.0387
3086.00,0.0388
3085.00,0.0388
3084.00,0.0389
3083.00,0.0389
3082.00,0.0388
3081.00,0.0388
3080.00,0.0388
3079.00,0.0388
3078.00,0.0388
3077.00,0.0388
3076.00,0.0388
3075.00,0.0388
3074.00,0.0388
3073.00,0.0387
3072.00,0.0387
3071.00,0.0387
3070.00,0.0387
3069.00,0.0387
3068.00,0.0387
3067.00,0.0387
3066.00,0.0387
3065.00,0.0386
3064.00,0.0385
3063.00,0.0385
3062.00,0.0385
3061.00,0.0385
3060.00,0.0385
3059.00,0.0384
3058.00,0.0384
3057.00,0.0384
3056.00,0.0384
3055.00,0.0384
3054.00,0.0383
3053.00,0.0383
3052.00,0.0383
3051.00,0.0383
3050.00,0.0383
3049.00,0.0383
3048.00,0.0383
3047.00,0.0383
3046.00,0.0383
3045.00,0.0382
3044.00,0.0382
3043.00,0.0381
3042.00,0.0379
3041.00,0.0379
3040.00,0.0378
3039.00,0.0378
3038.00,0.0379
3037.00,0.0379
3036.00,0.0379
3035.00,0.0380
3034.00,0.0380
3033.00,0.0379
3032.00,0.0379
3031.00,0.0378
3030.00,0.0377
3029.00,0.0376
3028.00,0.0375
3027.00,0.0375
3026.00,0.0374
3025.00,0.0374
3024.00,0.0374
3023.00,0.0374
3022.00,0.0374
3021.00,0.0374
3020.00,0.0373
3019.00,0.0373
3018.00,0.0372
3017.00,0.0371
3016.00,0.0371
3015.00,0.0370
3014.00,0.0370
3013.00,0.0369
3012.00,0.0368
3011.00,0.0367
3010.00,0.0366
3009.00,0.0365
3008.00,0.0362
3007.00,0.0361
3006.00,0.0359
3005.00,0.0359
3004.00,0.0358
3003.00,0.0356
3002.00,0.0354
3001.00,0.0353
3000.00,0.0351
2999.00,0.0350
2998.00,0.0348
2997.00,0.0347
2996.00,0.0346
2995.00,0.0346
2994.00,0.0345
2993.00,0.0345
2992.00,0.0343
2991.00,0.0342
2990.00,0.0341
2989.00,0.0340
2988.00,0.0339
2987.00,0.0337
2986.00,0.0335
2985.00,0.0331
2984.00,0.0327
2983.00,0.0324
2982.00,0.0322
2981.00,0.0322
2980.00,0.0324
2979.00,0.0326
2978.00,0.0328
2977.00,0.0330
2976.00,0.0332
2975.00,0.0332
2974.00,0.0332
2973.00,0.0331
2972.00,0.0330
2971.00,0.0330
2970.00,0.0331
2969.00,0.0333
2968.00,0.0335
2967.00,0.0336
2966.00,0.0336
2965.00,0.0337
2964.00,0.0337
2963.00,0.0338
2962.00,0.0339
2961.00,0.0340
2960.00,0.0340
2959.00,0.0340
2958.00,0.0340
2957.00,0.0340
2956.00,0.0341
2955.00,0.0342
2954.00,0.0343
2953.00,0.0344
2952.00,0.0345
2951.00,0.0345
2950.00,0.0346
2949.00,0.0346
2948.00,0.0347
2947.00,0.0347
2946.00,0.0347
2945.00,0.0348
2944.00,0.0349
2943.00,0.0349
2942.00,0.0350
2941.00,0.0350
2940.00,0.0350
2939.00,0.0350
2938.00,0.0350
2937.00,0.0350
2936.00,0.0350
2935.00,0.0350
2934.00,0.0350
2933.00,0.0349
2932.00,0.0349
2931.00,0.0349
2930.00,0.0348
2929.00,0.0348
2928.00,0.0348
2927.00,0.0348
2926.00,0.0348
2925.00,0.0347
2924.00,0.0347
2923.00,0.0347
2922.00,0.0346
2921.00,0.0345
2920.00,0.0343
2919.00,0.0341
2918.00,0.0340
2917.00,0.0339
2916.00,0.0339
2915.00,0.0339
2914.00,0.0340
2913.00,0.0340
2912.00,0.0341
2911.00,0.0342
2910.00,0.0342
2909.00,0.0342
2908.00,0.0342
2907.00,0.0341
2906.00,0.0341
2905.00,0.0341
2904.00,0.0340
2903.00,0.0340
2902.00,0.0339
2901.00,0.0339
2900.00,0.0339
2899.00,0.0338
2898.00,0.0338
2897.00,0.0338
2896.00,0.0337
2895.00,0.0337
2894.00,0.0337
2893.00,0.0337
2892.00,0.0337
2891.00,0.0336
2890.00,0.0336
2889.00,0.0336
2888.00,0.0336
2887.00,0.0335
2886.00,0.0335
2885.00,0.0335
2884.00,0.0334
2883.00,0.0334
2882.00,0.0334
2881.00,0.0334
2880.00,0.0335
2879.00,0.0336
2878.00,0.0337
2877.00,0.0337
2876.00,0.0337
2875.00,0.0337
2874.00,0.0336
2873.00,0.0336
2872.00,0.0335
2871.00,0.0336
2870.00,0.0336
2869.00,0.0336
2868.00,0.0336
2867.00,0.0336
2866.00,0.0336
2865.00,0.0336
2864.00,0.0336
2863.00,0.0336
2862.00,0.0337
2861.00,0.0337
2860.00,0.0338
2859.00,0.0339
2858.00,0.0339
2857.00,0.0340
2856.00,0.0339
2855.00,0.0339
2854.00,0.0338
2853.00,0.0338
2852.00,0.0337
2851.00,0.0338
2850.00,0.0338
2849.00,0.0337
2848.00,0.0337
2847.00,0.0336
2846.00,0.0336
2845.00,0.0336
2844.00,0.0336
2843.00,0.0336
2842.00,0.0336
2841.00,0.0336
2840.00,0.0335
2839.00,0.0334
2838.00,0.0334
2837.00,0.0334
2836.00,0.0335
2835.00,0.0335
2834.00,0.0336
2833.00,0.0335
2832.00,0.0334
2831.00,0.0333
2830.00,0.0333
2829.00,0.0333
2828.00,0.0333
2827.00,0.0333
2826.00,0.0333
2825.00,0.0333
2824.00,0.0333
2823.00,0.0333
2822.00,0.0332
2821.00,0.0332
2820.00,0.0331
2819.00,0.0331
2818.00,0.0331
2817.00,0.0330
2816.00,0.0330
2815.00,0.0329
2814.00,0.0329
2813.00,0.0329
2812.00,0.0329
2811.00,0.0329
2810.00,0.0329
2809.00,0.0329
2808.00,0.0329
2807.00,0.0328
2806.00,0.0329
2805.00,0.0329
2804.00,0.0329
2803.00,0.0328
2802.00,0.0328
2801.00,0.0328
2800.00,0.0328
2799.00,0.0327
2798.00,0.0327
2797.00,0.0327
2796.00,0.0327
2795.00,0.0327
2794.00,0.0327
2793.00,0.0327
2792.00,0.0327
2791.00,0.0327
2790.00,0.0326
2789.00,0.0326
2788.00,0.0326
2787.00,0.0325
2786.00,0.0325
2785.00,0.0325
2784.00,0.0325
2783.00,0.0325
2782.00,0.0324
2781.00,0.0323
2780.00,0.0322
2779.00,0.0322
2778.00,0.0323
2777.00,0.0323
2776.00,0.0323
2775.00,0.0323
2774.00,0.0323
2773.00,0.0323
2772.00,0.0322
2771.00,0.0322
2770.00,0.0321
2769.00,0.0320
2768.00,0.0319
2767.00,0.0319
2766.00,0.0320
2765.00,0.0320
2764.00,0.0320
2763.00,0.0320
2762.00,0.0320
2761.00,0.0320
2760.00,0.0320
2759.00,0.0320
2758.00,0.0320
2757.00,0.0319
2756.00,0.0319
2755.00,0.0319
2754.00,0.0319
2753.00,0.0319
2752.00,0.0319
2751.00,0.0319
2750.00,0.0319
2749.00,0.0319
2748.00,0.0318
2747.00,0.0318
2746.00,0.0318
2745.00,0.0318
2744.00,0.0318
2743.00,0.0318
2742.00,0.0318
2741.00,0.0318
2740.00,0.0317
2739.00,0.0317
2738.00,0.0316
2737.00,0.0316
2736.00,0.0316
2735.00,0.0316
2734.00,0.0316
2733.00,0.0316
2732.00,0.0316
2731.00,0.0316
2730.00,0.0316
2729.00,0.0315
2728.00,0.0315
2727.00,0.0315
2726.00,0.0314
2725.00,0.0314
2724.00,0.0314
2723.00,0.0314
2722.00,0.0314
2721.00,0.0313
2720.00,0.0313
2719.00,0.0313
2718.00,0.0313
2717.00,0.0314
2716.00,0.0314
2715.00,0.0313
2714.00,0.0313
2713.00,0.0313
2712.00,0.0313
2711.00,0.0313
2710.00,0.0313
2709.00,0.0312
2708.00,0.0312
2707.00,0.0312
2706.00,0.0311
2705.00,0.0311
2704.00,0.0311
2703.00,0.0311
2702.00,0.0310
2701.00,0.0310
2700.00,0.0310
2699.00,0.0310
2698.00,0.0310
2697.00,0.0309
2696.00,0.0309
2695.00,0.0309
2694.00,0.0310
2693.00,0.0310
2692.00,0.0310
2691.00,0.0310
2690.00,0.0310
2689.00,0.0310
2688.00,0.0310
2687.00,0.0310
2686.00,0.0310
2685.00,0.0309
2684.00,0.0309
2683.00,0.0309
2682.00,0.0308
2681.00,0.0308
2680.00,0.0307
2679.00,0.0307
2678.00,0.0306
2677.00,0.0306
2676.00,0.0306
2675.00,0.0306
2674.00,0.0306
2673.00,0.0306
2672.00,0.0306
2671.00,0.0306
2670.00,0.0306
2669.00,0.0306
2668.00,0.0306
2667.00,0.0306
2666.00,0.0306
2665.00,0.0306
2664.00,0.0306
2663.00,0.0306
2662.00,0.0306
2661.00,0.0306
2660.00,0.0306
2659.00,0.0306
2658.00,0.0307
2657.00,0.0307
2656.00,0.0307
2655.00,0.0307
2654.00,0.0307
2653.00,0.0307
2652.00,0.0307
2651.00,0.0307
2650.00,0.0307
2649.00,0.0307
2648.00,0.0307
2647.00,0.0306
2646.00,0.0306
2645.00,0.0306
2644.00,0.0306
2643.00,0.0307
2642.00,0.0307
2641.00,0.0307
2640.00,0.0307
2639.00,0.0307
2638.00,0.0307
2637.00,0.0307
2636.00,0.0306
2635.00,0.0306
2634.00,0.0307
2633.00,0.0307
2632.00,0.0307
2631.00,0.0307
2630.00,0.0307
2629.00,0.0306
2628.00,0.0306
2627.00,0.0305
2626.00,0.0305
2625.00,0.0306
2624.00,0.0307
2623.00,0.0307
2622.00,0.0307
2621.00,0.0308
2620.00,0.0308
2619.00,0.0308
2618.00,0.0308
2617.00,0.0308
2616.00,0.0308
2615.00,0.0307
2614.00,0.0307
2613.00,0.0307
2612.00,0.0307
2611.00,0.0308
2610.00,0.0308
2609.00,0.0307
2608.00,0.0307
2607.00,0.0306
2606.00,0.0307
2605.00,0.0308
2604.00,0.0308
2603.00,0.0308
2602.00,0.0308
2601.00,0.0308
2600.00,0.0308
2599.00,0.0308
2598.00,0.0308
2597.00,0.0307
2596.00,0.0306
2595.00,0.0305
2594.00,0.0305
2593.00,0.0306
2592.00,0.0306
2591.00,0.0307
2590.00,0.0307
2589.00,0.0307
2588.00,0.0307
2587.00,0.0306
2586.00,0.0306
2585.00,0.0305
2584.00,0.0304
2583.00,0.0304
2582.00,0.0305
2581.00,0.0306
2580.00,0.0307
2579.00,0.0307
2578.00,0.0307
2577.00,0.0307
2576.00,0.0306
2575.00,0.0306
2574.00,0.0306
2573.00,0.0306
2572.00,0.0306
2571.00,0.0305
2570.00,0.0304
2569.00,0.0304
2568.00,0.0304
2567.00,0.0305
2566.00,0.0307
2565.00,0.0307
2564.00,0.0307
2563.00,0.0306
2562.00,0.0306
2561.00,0.0306
2560.00,0.0306
2559.00,0.0306
2558.00,0.0306
2557.00,0.0307
2556.00,0.0307
2555.00,0.0307
2554.00,0.0306
2553.00,0.0306
2552.00,0.0305
2551.00,0.0304
2550.00,0.0303
2549.00,0.0302
2548.00,0.0302
2547.00,0.0301
2546.00,0.0302
2545.00,0.0303
2544.00,0.0303
2543.00,0.0303
2542.00,0.0302
2541.00,0.0301
2540.00,0.0299
2539.00,0.0299
2538.00,0.0298
2537.00,0.0298
2536.00,0.0299
2535.00,0.0299
2534.00,0.0300
2533.00,0.0301
2532.00,0.0301
2531.00,0.0300
2530.00,0.0299
2529.00,0.0299
2528.00,0.0299
2527.00,0.0299
2526.00,0.0298
2525.00,0.0298
2524.00,0.0298
2523.00,0.0298
2522.00,0.0299
2521.00,0.0299
2520.00,0.0299
2519.00,0.0300
2518.00,0.0300
2517.00,0.0301
2516.00,0.0301
2515.00,0.0301
2514.00,0.0300
2513.00,0.0299
2512.00,0.0298
2511.00,0.0299
2510.00,0.0300
2509.00,0.0301
2508.00,0.0301
2507.00,0.0301
2506.00,0.0300
2505.00,0.0300
2504.00,0.0299
2503.00,0.0299
2502.00,0.0299
2501.00,0.0299
2500.00,0.0300
2499.00,0.0300
2498.00,0.0300
2497.00,0.0300
2496.00,0.0300
2495.00,0.0300
2494.00,0.0300
2493.00,0.0300
2492.00,0.0300
2491.00,0.0300
2490.00,0.0300
2489.00,0.0299
2488.00,0.0299
2487.00,0.0299
2486.00,0.0298
2485.00,0.0298
2484.00,0.0297
2483.00,0.0297
2482.00,0.0297
2481.00,0.0298
2480.00,0.0299
2479.00,0.0299
2478.00,0.0299
2477.00,0.0298
2476.00,0.0297
2475.00,0.0296
2474.00,0.0296
2473.00,0.0296
2472.00,0.0296
2471.00,0.0296
2470.00,0.0295
2469.00,0.0295
2468.00,0.0294
2467.00,0.0294
2466.00,0.0294
2465.00,0.0294
2464.00,0.0294
2463.00,0.0294
2462.00,0.0294
2461.00,0.0295
2460.00,0.0295
2459.00,0.0295
2458.00,0.0296
2457.00,0.0296
2456.00,0.0296
2455.00,0.0296
2454.00,0.0297
2453.00,0.0297
2452.00,0.0298
2451.00,0.0297
2450.00,0.0296
2449.00,0.0295
2448.00,0.0295
2447.00,0.0294
2446.00,0.0294
2445.00,0.0293
2444.00,0.0292
2443.00,0.0292
2442.00,0.0292
2441.00,0.0292
2440.00,0.0293
2439.00,0.0293
2438.00,0.0293
2437.00,0.0293
2436.00,0.0292
2435.00,0.0292
2434.00,0.0291
2433.00,0.0291
2432.00,0.0291
2431.00,0.0291
2430.00,0.0291
2429.00,0.0291
2428.00,0.0291
2427.00,0.0291
2426.00,0.0291
2425.00,0.0291
2424.00,0.0291
2423.00,0.0291
2422.00,0.0290
2421.00,0.0290
2420.00,0.0290
2419.00,0.0290
2418.00,0.0290
2417.00,0.0289
2416.00,0.0289
2415.00,0.0289
2414.00,0.0289
2413.00,0.0289
2412.00,0.0289
2411.00,0.0289
2410.00,0.0289
2409.00,0.0289
2408.00,0.0288
2407.00,0.0288
2406.00,0.0287
2405.00,0.0287
2404.00,0.0287
2403.00,0.0286
2402.00,0.0286
2401.00,0.0286
2400.00,0.0285
2399.00,0.0285
2398.00,0.0285
2397.00,0.0284
2396.00,0.0284
2395.00,0.0283
2394.00,0.0283
2393.00,0.0283
2392.00,0.0283
2391.00,0.0283
2390.00,0.0283
2389.00,0.0283
2388.00,0.0282
2387.00,0.0282
2386.00,0.0281
2385.00,0.0280
2384.00,0.0279
2383.00,0.0278
2382.00,0.0277
2381.00,0.0277
2380.00,0.0278
2379.00,0.0278
2378.00,0.0278
2377.00,0.0277
2376.00,0.0276
2375.00,0.0276
2374.00,0.0276
2373.00,0.0276
2372.00,0.0276
2371.00,0.0275
2370.00,0.0272
2369.00,0.0269
2368.00,0.0267
2367.00,0.0267
2366.00,0.0270
2365.00,0.0273
2364.00,0.0275
2363.00,0.0275
2362.00,0.0274
2361.00,0.0274
2360.00,0.0274
2359.00,0.0273
2358.00,0.0272
2357.00,0.0272
2356.00,0.0271
2355.00,0.0271
2354.00,0.0271
2353.00,0.0271
2352.00,0.0271
2351.00,0.0270
2350.00,0.0269
2349.00,0.0269
2348.00,0.0270
2347.00,0.0270
2346.00,0.0270
2345.00,0.0270
2344.00,0.0271
2343.00,0.0272
2342.00,0.0274
2341.00,0.0275
2340.00,0.0275
2339.00,0.0273
2338.00,0.0271
2337.00,0.0268
2336.00,0.0267
2335.00,0.0267
2334.00,0.0268
2333.00,0.0269
2332.00,0.0269
2331.00,0.0269
2330.00,0.0268
2329.00,0.0268
2328.00,0.0269
2327.00,0.0270
2326.00,0.0272
2325.00,0.0273
2324.00,0.0272
2323.00,0.0271
2322.00,0.0271
2321.00,0.0271
2320.00,0.0271
2319.00,0.0271
2318.00,0.0270
2317.00,0.0270
2316.00,0.0270
2315.00,0.0271
2314.00,0.0271
2313.00,0.0271
2312.00,0.0271
2311.00,0.0272
2310.00,0.0273
2309.00,0.0274
2308.00,0.0274
2307.00,0.0274
2306.00,0.0273
2305.00,0.0272
2304.00,0.0272
2303.00,0.0271
2302.00,0.0271
2301.00,0.0271
2300.00,0.0272
2299.00,0.0273
2298.00,0.0273
2297.00,0.0273
2296.00,0.0273
2295.00,0.0273
2294.00,0.0275
2293.00,0.0277
2292.00,0.0279
2291.00,0.0280
2290.00,0.0279
2289.00,0.0279
2288.00,0.0279
2287.00,0.0279
2286.00,0.0280
2285.00,0.0281
2284.00,0.0282
2283.00,0.0283
2282.00,0.0282
2281.00,0.0281
2280.00,0.0280
2279.00,0.0280
2278.00,0.0281
2277.00,0.0281
2276.00,0.0281
2275.00,0.0279
2274.00,0.0278
2273.00,0.0277
2272.00,0.0277
2271.00,0.0277
2270.00,0.0277
2269.00,0.0277
2268.00,0.0276
2267.00,0.0276
2266.00,0.0276
2265.00,0.0277
2264.00,0.0278
2263.00,0.0278
2262.00,0.0279
2261.00,0.0279
2260.00,0.0279
2259.00,0.0279
2258.00,0.0277
2257.00,0.0275
2256.00,0.0274
2255.00,0.0274
2254.00,0.0274
2253.00,0.0275
2252.00,0.0276
2251.00,0.0276
2250.00,0.0276
2249.00,0.0276
2248.00,0.0276
2247.00,0.0276
2246.00,0.0277
2245.00,0.0278
2244.00,0.0278
2243.00,0.0278
2242.00,0.0277
2241.00,0.0277
2240.00,0.0277
2239.00,0.0277
2238.00,0.0276
2237.00,0.0276
2236.00,0.0275
2235.00,0.0274
2234.00,0.0274
2233.00,0.0275
2232.00,0.0274
2231.00,0.0274
2230.00,0.0274
2229.00,0.0275
2228.00,0.0276
2227.00,0.0277
2226.00,0.0277
2225.00,0.0276
2224.00,0.0275
2223.00,0.0274
2222.00,0.0273
2221.00,0.0273
2220.00,0.0273
2219.00,0.0273
2218.00,0.0273
2217.00,0.0273
2216.00,0.0274
2215.00,0.0275
2214.00,0.0277
2213.00,0.0277
2212.00,0.0275
2211.00,0.0273
2210.00,0.0271
2209.00,0.0272
2208.00,0.0273
2207.00,0.0275
2206.00,0.0276
2205.00,0.0276
2204.00,0.0275
2203.00,0.0274
2202.00,0.0274
2201.00,0.0274
2200.00,0.0273
2199.00,0.0272
2198.00,0.0272
2197.00,0.0273
2196.00,0.0273
2195.00,0.0272
2194.00,0.0271
2193.00,0.0270
2192.00,0.0269
2191.00,0.0267
2190.00,0.0265
2189.00,0.0264
2188.00,0.0265
2187.00,0.0269
2186.00,0.0274
2185.00,0.0276
2184.00,0.0273
2183.00,0.0270
2182.00,0.0268
2181.00,0.0268
2180.00,0.0270
2179.00,0.0272
2178.00,0.0274
2177.00,0.0276
2176.00,0.0276
2175.00,0.0275
2174.00,0.0273
2173.00,0.0272
2172.00,0.0272
2171.00,0.0273
2170.00,0.0275
2169.00,0.0276
2168.00,0.0277
2167.00,0.0277
2166.00,0.0277
2165.00,0.0278
2164.00,0.0281
2163.00,0.0283
2162.00,0.0283
2161.00,0.0279
2160.00,0.0272
2159.00,0.0264
2158.00,0.0258
2157.00,0.0256
2156.00,0.0257
2155.00,0.0259
2154.00,0.0262
2153.00,0.0265
2152.00,0.0265
2151.00,0.0262
2150.00,0.0258
2149.00,0.0256
2148.00,0.0257
2147.00,0.0261
2146.00,0.0264
2145.00,0.0266
2144.00,0.0266
2143.00,0.0265
2142.00,0.0264
2141.00,0.0264
2140.00,0.0264
2139.00,0.0263
2138.00,0.0262
2137.00,0.0260
2136.00,0.0259
2135.00,0.0259
2134.00,0.0259
2133.00,0.0259
2132.00,0.0259
2131.00,0.0259
2130.00,0.0259
2129.00,0.0259
2128.00,0.0261
2127.00,0.0261
2126.00,0.0260
2125.00,0.0259
2124.00,0.0258
2123.00,0.0258
2122.00,0.0257
2121.00,0.0257
2120.00,0.0257
2119.00,0.0257
2118.00,0.0257
2117.00,0.0256
2116.00,0.0256
2115.00,0.0254
2114.00,0.0253
2113.00,0.0252
2112.00,0.0253
2111.00,0.0255
2110.00,0.0258
2109.00,0.0259
2108.00,0.0260
2107.00,0.0261
2106.00,0.0261
2105.00,0.0261
2104.00,0.0261
2103.00,0.0260
2102.00,0.0259
2101.00,0.0258
2100.00,0.0257
2099.00,0.0255
2098.00,0.0254
2097.00,0.0253
2096.00,0.0254
2095.00,0.0254
2094.00,0.0254
2093.00,0.0255
2092.00,0.0254
2091.00,0.0254
2090.00,0.0253
2089.00,0.0253
2088.00,0.0253
2087.00,0.0254
2086.00,0.0255
2085.00,0.0256
2084.00,0.0257
2083.00,0.0257
2082.00,0.0256
2081.00,0.0256
2080.00,0.0255
2079.00,0.0255
2078.00,0.0255
2077.00,0.0256
2076.00,0.0256
2075.00,0.0257
2074.00,0.0256
2073.00,0.0256
2072.00,0.0256
2071.00,0.0256
2070.00,0.0256
2069.00,0.0255
2068.00,0.0252
2067.00,0.0250
2066.00,0.0250
2065.00,0.0251
2064.00,0.0253
2063.00,0.0255
2062.00,0.0256
2061.00,0.0255
2060.00,0.0253
2059.00,0.0252
2058.00,0.0251
2057.00,0.0252
2056.00,0.0253
2055.00,0.0254
2054.00,0.0255
2053.00,0.0258
2052.00,0.0260
2051.00,0.0260
2050.00,0.0258
2049.00,0.0255
2048.00,0.0253
2047.00,0.0254
2046.00,0.0255
2045.00,0.0257
2044.00,0.0259
2043.00,0.0260
2042.00,0.0260
2041.00,0.0258
2040.00,0.0255
2039.00,0.0253
2038.00,0.0253
2037.00,0.0255
2036.00,0.0257
2035.00,0.0256
2034.00,0.0254
2033.00,0.0253
2032.00,0.0254
2031.00,0.0257
2030.00,0.0258
2029.00,0.0256
2028.00,0.0253
2027.00,0.0250
2026.00,0.0248
2025.00,0.0246
2024.00,0.0244
2023.00,0.0242
2022.00,0.0241
2021.00,0.0240
2020.00,0.0239
2019.00,0.0237
2018.00,0.0235
2017.00,0.0234
2016.00,0.0236
2015.00,0.0239
2014.00,0.0242
2013.00,0.0244
2012.00,0.0244
2011.00,0.0244
2010.00,0.0245
2009.00,0.0247
2008.00,0.0248
2007.00,0.0247
2006.00,0.0246
2005.00,0.0244
2004.00,0.0243
2003.00,0.0244
2002.00,0.0246
2001.00,0.0248
2000.00,0.0247
1999.00,0.0244
1998.00,0.0242
1997.00,0.0243
1996.00,0.0245
1995.00,0.0248
1994.00,0.0250
1993.00,0.0250
1992.00,0.0248
1991.00,0.0245
1990.00,0.0242
1989.00,0.0241
1988.00,0.0241
1987.00,0.0241
1986.00,0.0242
1985.00,0.0243
1984.00,0.0243
1983.00,0.0244
1982.00,0.0244
1981.00,0.0244
1980.00,0.0243
1979.00,0.0240
1978.00,0.0237
1977.00,0.0234
1976.00,0.0233
1975.00,0.0234
1974.00,0.0237
1973.00,0.0238
1972.00,0.0237
1971.00,0.0234
1970.00,0.0233
1969.00,0.0235
1968.00,0.0237
1967.00,0.0237
1966.00,0.0235
1965.00,0.0234
1964.00,0.0233
1963.00,0.0234
1962.00,0.0234
1961.00,0.0233
1960.00,0.0233
1959.00,0.0233
1958.00,0.0233
1957.00,0.0232
1956.00,0.0231
1955.00,0.0230
1954.00,0.0231
1953.00,0.0232
1952.00,0.0232
1951.00,0.0231
1950.00,0.0229
1949.00,0.0228
1948.00,0.0229
1947.00,0.0229
1946.00,0.0230
1945.00,0.0229
1944.00,0.0226
1943.00,0.0224
1942.00,0.0222
1941.00,0.0221
1940.00,0.0221
1939.00,0.0220
1938.00,0.0220
1937.00,0.0220
1936.00,0.0221
1935.00,0.0220
1934.00,0.0219
1933.00,0.0218
1932.00,0.0219
1931.00,0.0220
1930.00,0.0221
1929.00,0.0223
1928.00,0.0224
1927.00,0.0225
1926.00,0.0225
1925.00,0.0224
1924.00,0.0224
1923.00,0.0223
1922.00,0.0222
1921.00,0.0221
1920.00,0.0221
1919.00,0.0219
1918.00,0.0217
1917.00,0.0216
1916.00,0.0217
1915.00,0.0218
1914.00,0.0218
1913.00,0.0218
1912.00,0.0218
1911.00,0.0217
1910.00,0.0216
1909.00,0.0214
1908.00,0.0213
1907.00,0.0213
1906.00,0.0213
1905.00,0.0213
1904.00,0.0213
1903.00,0.0213
1902.00,0.0212
1901.00,0.0211
1900.00,0.0211
1899.00,0.0211
1898.00,0.0212
1897.00,0.0212
1896.00,0.0210
1895.00,0.0208
1894.00,0.0207
1893.00,0.0208
1892.00,0.0209
1891.00,0.0210
1890.00,0.0209
1889.00,0.0209
1888.00,0.0208
1887.00,0.0206
1886.00,0.0205
1885.00,0.0205
1884.00,0.0205
1883.00,0.0204
1882.00,0.0203
1881.00,0.0202
1880.00,0.0202
1879.00,0.0202
1878.00,0.0202
1877.00,0.0201
1876.00,0.0201
1875.00,0.0201
1874.00,0.0202
1873.00,0.0203
1872.00,0.0203
1871.00,0.0204
1870.00,0.0203
1869.00,0.0201
1868.00,0.0200
1867.00,0.0198
1866.00,0.0197
1865.00,0.0197
1864.00,0.0196
1863.00,0.0195
1862.00,0.0194
1861.00,0.0193
1860.00,0.0193
1859.00,0.0192
1858.00,0.0193
1857.00,0.0193
1856.00,0.0194
1855.00,0.0194
1854.00,0.0194
1853.00,0.0193
1852.00,0.0192
1851.00,0.0192
1850.00,0.0192
1849.00,0.0191
1848.00,0.0191
1847.00,0.0192
1846.00,0.0192
1845.00,0.0191
1844.00,0.0188
1843.00,0.0186
1842.00,0.0185
1841.00,0.0186
1840.00,0.0187
1839.00,0.0186
1838.00,0.0186
1837.00,0.0185
1836.00,0.0185
1835.00,0.0185
1834.00,0.0185
1833.00,0.0186
1832.00,0.0187
1831.00,0.0187
1830.00,0.0186
1829.00,0.0184
1828.00,0.0183
1827.00,0.0183
1826.00,0.0183
1825.00,0.0182
1824.00,0.0180
1823.00,0.0179
1822.00,0.0179
1821.00,0.0179
1820.00,0.0178
1819.00,0.0177
1818.00,0.0175
1817.00,0.0174
1816.00,0.0173
1815.00,0.0173
1814.00,0.0173
1813.00,0.0173
1812.00,0.0174
1811.00,0.0173
1810.00,0.0173
1809.00,0.0173
1808.00,0.0174
1807.00,0.0174
1806.00,0.0174
1805.00,0.0174
1804.00,0.0174
1803.00,0.0175
1802.00,0.0174
1801.00,0.0173
1800.00,0.0173
1799.00,0.0173
1798.00,0.0173
1797.00,0.0174
1796.00,0.0175
1795.00,0.0176
1794.00,0.0177
1793.00,0.0177
1792.00,0.0177
1791.00,0.0177
1790.00,0.0177
1789.00,0.0178
1788.00,0.0179
1787.00,0.0181
1786.00,0.0182
1785.00,0.0184
1784.00,0.0185
1783.00,0.0187
1782.00,0.0189
1781.00,0.0190
1780.00,0.0191
1779.00,0.0192
1778.00,0.0194
1777.00,0.0197
1776.00,0.0199
1775.00,0.0201
1774.00,0.0203
1773.00,0.0203
1772.00,0.0203
1771.00,0.0203
1770.00,0.0205
1769.00,0.0207
1768.00,0.0209
1767.00,0.0210
1766.00,0.0212
1765.00,0.0214
1764.00,0.0217
1763.00,0.0217
1762.00,0.0217
1761.00,0.0217
1760.00,0.0218
1759.00,0.0220
1758.00,0.0221
1757.00,0.0222
1756.00,0.0223
1755.00,0.0225
1754.00,0.0227
1753.00,0.0229
1752.00,0.0229
1751.00,0.0230
1750.00,0.0231
1749.00,0.0233
1748.00,0.0235
1747.00,0.0237
1746.00,0.0239
1745.00,0.0240
1744.00,0.0242
1743.00,0.0244
1742.00,0.0246
1741.00,0.0248
1740.00,0.0249
1739.00,0.0250
1738.00,0.0252
1737.00,0.0255
1736.00,0.0258
1735.00,0.0260
1734.00,0.0262
1733.00,0.0264
1732.00,0.0267
1731.00,0.0271
1730.00,0.0274
1729.00,0.0277
1728.00,0.0280
1727.00,0.0283
1726.00,0.0286
1725.00,0.0290
1724.00,0.0293
1723.00,0.0296
1722.00,0.0299
1721.00,0.0302
1720.00,0.0305
1719.00,0.0307
1718.00,0.0309
1717.00,0.0314
1716.00,0.0318
1715.00,0.0321
1714.00,0.0324
1713.00,0.0326
1712.00,0.0329
1711.00,0.0331
1710.00,0.0333
1709.00,0.0335
1708.00,0.0337
1707.00,0.0340
1706.00,0.0341
1705.00,0.0342
1704.00,0.0343
1703.00,0.0344
1702.00,0.0345
1701.00,0.0344
1700.00,0.0343
1699.00,0.0343
1698.00,0.0346
1697.00,0.0349
1696.00,0.0351
1695.00,0.0351
1694.00,0.0350
1693.00,0.0351
1692.00,0.0352
1691.00,0.0353
1690.00,0.0353
1689.00,0.0354
1688.00,0.0354
1687.00,0.0355
1686.00,0.0355
1685.00,0.0354
1684.00,0.0355
1683.00,0.0356
1682.00,0.0356
1681.00,0.0357
1680.00,0.0357
1679.00,0.0357
1678.00,0.0359
1677.00,0.0361
1676.00,0.0363
1675.00,0.0364
1674.00,0.0365
1673.00,0.0365
1672.00,0.0366
1671.00,0.0368
1670.00,0.0369
1669.00,0.0371
1668.00,0.0371
1667.00,0.0371
1666.00,0.0371
1665.00,0.0372
1664.00,0.0373
1663.00,0.0374
1662.00,0.0376
1661.00,0.0377
1660.00,0.0379
1659.00,0.0381
1658.00,0.0383
1657.00,0.0383
1656.00,0.0384
1655.00,0.0384
1654.00,0.0383
1653.00,0.0387
1652.00,0.0390
1651.00,0.0391
1650.00,0.0393
1649.00,0.0396
1648.00,0.0398
1647.00,0.0401
1646.00,0.0403
1645.00,0.0405
1644.00,0.0406
1643.00,0.0407
1642.00,0.0408
1641.00,0.0409
1640.00,0.0410
1639.00,0.0412
1638.00,0.0414
1637.00,0.0417
1636.00,0.0423
1635.00,0.0427
1634.00,0.0427
1633.00,0.0426
1632.00,0.0426
1631.00,0.0426
1630.00,0.0428
1629.00,0.0430
1628.00,0.0433
1627.00,0.0436
1626.00,0.0439
1625.00,0.0442
1624.00,0.0446
1623.00,0.0449
1622.00,0.0451
1621.00,0.0452
1620.00,0.0453
1619.00,0.0454
1618.00,0.0456
1617.00,0.0459
1616.00,0.0463
1615.00,0.0466
1614.00,0.0468
1613.00,0.0469
1612.00,0.0470
1611.00,0.0473
1610.00,0.0476
1609.00,0.0478
1608.00,0.0481
1607.00,0.0483
1606.00,0.0486
1605.00,0.0488
1604.00,0.0490
1603.00,0.0492
1602.00,0.0493
1601.00,0.0494
1600.00,0.0496
1599.00,0.0498
1598.00,0.0500
1597.00,0.0503
1596.00,0.0506
1595.00,0.0509
1594.00,0.0511
1593.00,0.0513
1592.00,0.0514
1591.00,0.0516
1590.00,0.0518
1589.00,0.0520
1588.00,0.0523
1587.00,0.0526
1586.00,0.0528
1585.00,0.0530
1584.00,0.0531
1583.00,0.0533
1582.00,0.0535
1581.00,0.0535
1580.00,0.0536
1579.00,0.0537
1578.00,0.0540
1577.00,0.0544
1576.00,0.0548
1575.00,0.0549
1574.00,0.0548
1573.00,0.0546
1572.00,0.0546
1571.00,0.0547
1570.00,0.0549
1569.00,0.0551
1568.00,0.0552
1567.00,0.0552
1566.00,0.0552
1565.00,0.0550
1564.00,0.0549
1563.00,0.0547
1562.00,0.0545
1561.00,0.0543
1560.00,0.0545
1559.00,0.0553
1558.00,0.0557
1557.00,0.0553
1556.00,0.0548
1555.00,0.0546
1554.00,0.0545
1553.00,0.0543
1552.00,0.0542
1551.00,0.0541
1550.00,0.0539
1549.00,0.0536
1548.00,0.0532
1547.00,0.0529
1546.00,0.0526
1545.00,0.0524
1544.00,0.0523
1543.00,0.0521
1542.00,0.0518
1541.00,0.0516
1540.00,0.0514
1539.00,0.0511
1538.00,0.0506
1537.00,0.0502
1536.00,0.0499
1535.00,0.0497
1534.00,0.0495
1533.00,0.0494
1532.00,0.0492
1531.00,0.0489
1530.00,0.0486
1529.00,0.0484
1528.00,0.0481
1527.00,0.0478
1526.00,0.0475
1525.00,0.0472
1524.00,0.0469
1523.00,0.0466
1522.00,0.0464
1521.00,0.0463
1520.00,0.0462
1519.00,0.0461
1518.00,0.0460
1517.00,0.0457
1516.00,0.0454
1515.00,0.0451
1514.00,0.0448
1513.00,0.0445
1512.00,0.0442
1511.00,0.0440
1510.00,0.0439
1509.00,0.0438
1508.00,0.0439
1507.00,0.0439
1506.00,0.0436
1505.00,0.0432
1504.00,0.0428
1503.00,0.0426
1502.00,0.0424
1501.00,0.0422
1500.00,0.0421
1499.00,0.0420
1498.00,0.0420
1497.00,0.0419
1496.00,0.0418
1495.00,0.0417
1494.00,0.0414
1493.00,0.0413
1492.00,0.0412
1491.00,0.0411
1490.00,0.0412
1489.00,0.0413
1488.00,0.0413
1487.00,0.0412
1486.00,0.0410
1485.00,0.0408
1484.00,0.0406
1483.00,0.0405
1482.00,0.0405
1481.00,0.0405
1480.00,0.0404
1479.00,0.0404
1478.00,0.0404
1477.00,0.0404
1476.00,0.0404
1475.00,0.0405
1474.00,0.0405
1473.00,0.0406
1472.00,0.0408
1471.00,0.0409
1470.00,0.0410
1469.00,0.0410
1468.00,0.0411
1467.00,0.0412
1466.00,0.0413
1465.00,0.0413
1464.00,0.0413
1463.00,0.0413
1462.00,0.0412
1461.00,0.0412
1460.00,0.0412
1459.00,0.0414
1458.00,0.0416
1457.00,0.0419
1456.00,0.0421
1455.00,0.0422
1454.00,0.0422
1453.00,0.0423
1452.00,0.0425
1451.00,0.0427
1450.00,0.0429
1449.00,0.0432
1448.00,0.0435
1447.00,0.0437
1446.00,0.0438
1445.00,0.0439
1444.00,0.0440
1443.00,0.0440
1442.00,0.0441
1441.00,0.0442
1440.00,0.0443
1439.00,0.0444
1438.00,0.0446
1437.00,0.0449
1436.00,0.0451
1435.00,0.0453
1434.00,0.0453
1433.00,0.0453
1432.00,0.0454
1431.00,0.0455
1430.00,0.0456
1429.00,0.0457
1428.00,0.0457
1427.00,0.0458
1426.00,0.0459
1425.00,0.0461
1424.00,0.0462
1423.00,0.0464
1422.00,0.0464
1421.00,0.0465
1420.00,0.0467
1419.00,0.0470
1418.00,0.0472
1417.00,0.0474
1416.00,0.0475
1415.00,0.0476
1414.00,0.0475
1413.00,0.0475
1412.00,0.0475
1411.00,0.0476
1410.00,0.0476
1409.00,0.0477
1408.00,0.0478
1407.00,0.0479
1406.00,0.0480
1405.00,0.0481
1404.00,0.0482
1403.00,0.0482
1402.00,0.0482
1401.00,0.0482
1400.00,0.0483
1399.00,0.0484
1398.00,0.0486
1397.00,0.0487
1396.00,0.0489
1395.00,0.0490
1394.00,0.0491
1393.00,0.0492
1392.00,0.0492
1391.00,0.0493
1390.00,0.0493
1389.00,0.0494
1388.00,0.0496
1387.00,0.0498
1386.00,0.0499
1385.00,0.0499
1384.00,0.0499
1383.00,0.0500
1382.00,0.0501
1381.00,0.0502
1380.00,0.0504
1379.00,0.0505
1378.00,0.0506
1377.00,0.0507
1376.00,0.0509
1375.00,0.0511
1374.00,0.0513
1373.00,0.0514
1372.00,0.0514
1371.00,0.0513
1370.00,0.0513
1369.00,0.0514
1368.00,0.0515
1367.00,0.0515
1366.00,0.0514
1365.00,0.0514
1364.00,0.0514
1363.00,0.0515
1362.00,0.0516
1361.00,0.0516
1360.00,0.0516
1359.00,0.0515
1358.00,0.0515
1357.00,0.0515
1356.00,0.0515
1355.00,0.0515
1354.00,0.0515
1353.00,0.0514
1352.00,0.0513
1351.00,0.0512
1350.00,0.0511
1349.00,0.0510
1348.00,0.0509
1347.00,0.0508
1346.00,0.0508
1345.00,0.0507
1344.00,0.0506
1343.00,0.0505
1342.00,0.0504
1341.00,0.0505
1340.00,0.0505
1339.00,0.0506
1338.00,0.0506
1337.00,0.0505
1336.00,0.0504
1335.00,0.0503
1334.00,0.0503
1333.00,0.0502
1332.00,0.0501
1331.00,0.0500
1330.00,0.0500
1329.00,0.0499
1328.00,0.0498
1327.00,0.0498
1326.00,0.0498
1325.00,0.0497
1324.00,0.0498
1323.00,0.0498
1322.00,0.0499
1321.00,0.0499
1320.00,0.0500
1319.00,0.0499
1318.00,0.0498
1317.00,0.0497
1316.00,0.0496
1315.00,0.0495
1314.00,0.0496
1313.00,0.0496
1312.00,0.0497
1311.00,0.0498
1310.00,0.0498
1309.00,0.0499
1308.00,0.0499
1307.00,0.0498
1306.00,0.0498
1305.00,0.0498
1304.00,0.0499
1303.00,0.0500
1302.00,0.0500
1301.00,0.0500
1300.00,0.0500
1299.00,0.0500
1298.00,0.0500
1297.00,0.0500
1296.00,0.0500
1295.00,0.0501
1294.00,0.0502
1293.00,0.0503
1292.00,0.0504
1291.00,0.0505
1290.00,0.0505
1289.00,0.0506
1288.00,0.0507
1287.00,0.0507
1286.00,0.0507
1285.00,0.0507
1284.00,0.0508
1283.00,0.0509
1282.00,0.0509
1281.00,0.0509
1280.00,0.0509
1279.00,0.0509
1278.00,0.0509
1277.00,0.0509
1276.00,0.0509
1275.00,0.0510
1274.00,0.0510
1273.00,0.0510
1272.00,0.0510
1271.00,0.0510
1270.00,0.0511
1269.00,0.0511
1268.00,0.0511
1267.00,0.0512
1266.00,0.0512
1265.00,0.0513
1264.00,0.0513
1263.00,0.0513
1262.00,0.0513
1261.00,0.0513
1260.00,0.0513
1259.00,0.0514
1258.00,0.0515
1257.00,0.0515
1256.00,0.0514
1255.00,0.0513
1254.00,0.0513
1253.00,0.0514
1252.00,0.0514
1251.00,0.0514
1250.00,0.0514
1249.00,0.0514
1248.00,0.0515
1247.00,0.0515
1246.00,0.0516
1245.00,0.0517
1244.00,0.0517
1243.00,0.0517
1242.00,0.0517
1241.00,0.0516
1240.00,0.0515
1239.00,0.0515
1238.00,0.0516
1237.00,0.0516
1236.00,0.0517
1235.00,0.0517
1234.00,0.0516
1233.00,0.0516
1232.00,0.0516
1231.00,0.0516
1230.00,0.0516
1229.00,0.0516
1228.00,0.0516
1227.00,0.0517
1226.00,0.0516
1225.00,0.0516
1224.00,0.0515
1223.00,0.0514
1222.00,0.0514
1221.00,0.0514
1220.00,0.0514
1219.00,0.0514
1218.00,0.0514
1217.00,0.0514
1216.00,0.0514
1215.00,0.0513
1214.00,0.0512
1213.00,0.0511
1212.00,0.0512
1211.00,0.0512
1210.00,0.0513
1209.00,0.0513
1208.00,0.0512
1207.00,0.0512
1206.00,0.0511
1205.00,0.0510
1204.00,0.0509
1203.00,0.0509
1202.00,0.0509
1201.00,0.0508
1200.00,0.0508
1199.00,0.0508
1198.00,0.0507
1197.00,0.0506
1196.00,0.0505
1195.00,0.0505
1194.00,0.0504
1193.00,0.0504
1192.00,0.0504
1191.00,0.0503
1190.00,0.0501
1189.00,0.0500
1188.00,0.0499
1187.00,0.0499
1186.00,0.0499
1185.00,0.0499
1184.00,0.0498
1183.00,0.0496
1182.00,0.0494
1181.00,0.0492
1180.00,0.0491
1179.00,0.0489
1178.00,0.0488
1177.00,0.0488
1176.00,0.0488
1175.00,0.0488
1174.00,0.0488
1173.00,0.0487
1172.00,0.0485
1171.00,0.0483
1170.00,0.0482
1169.00,0.0481
1168.00,0.0480
1167.00,0.0479
1166.00,0.0479
1165.00,0.0478
1164.00,0.0477
1163.00,0.0477
1162.00,0.0477
1161.00,0.0476
1160.00,0.0475
1159.00,0.0474
1158.00,0.0473
1157.00,0.0471
1156.00,0.0471
1155.00,0.0471
1154.00,0.0471
1153.00,0.0471
1152.00,0.0469
1151.00,0.0467
1150.00,0.0465
1149.00,0.0464
1148.00,0.0463
1147.00,0.0463
1146.00,0.0463
1145.00,0.0463
1144.00,0.0464
1143.00,0.0465
1142.00,0.0465
1141.00,0.0465
1140.00,0.0464
1139.00,0.0464
1138.00,0.0463
1137.00,0.0463
1136.00,0.0464
1135.00,0.0464
1134.00,0.0465
1133.00,0.0465
1132.00,0.0465
1131.00,0.0464
1130.00,0.0464
1129.00,0.0464
1128.00,0.0465
1127.00,0.0465
1126.00,0.0463
1125.00,0.0460
1124.00,0.0459
1123.00,0.0460
1122.00,0.0463
1121.00,0.0466
1120.00,0.0468
1119.00,0.0468
1118.00,0.0467
1117.00,0.0466
1116.00,0.0467
1115.00,0.0469
1114.00,0.0470
1113.00,0.0468
1112.00,0.0467
1111.00,0.0466
1110.00,0.0466
1109.00,0.0466
1108.00,0.0466
1107.00,0.0465
1106.00,0.0464
1105.00,0.0462
1104.00,0.0462
1103.00,0.0463
1102.00,0.0464
1101.00,0.0464
1100.00,0.0464
1099.00,0.0464
1098.00,0.0463
1097.00,0.0463
1096.00,0.0461
1095.00,0.0460
1094.00,0.0460
1093.00,0.0461
1092.00,0.0462
1091.00,0.0462
1090.00,0.0461
1089.00,0.0460
1088.00,0.0458
1087.00,0.0458
1086.00,0.0459
1085.00,0.0459
1084.00,0.0459
1083.00,0.0459
1082.00,0.0460
1081.00,0.0460
1080.00,0.0461
1079.00,0.0462
1078.00,0.0463
1077.00,0.0465
1076.00,0.0465
1075.00,0.0463
1074.00,0.0461
1073.00,0.0459
1072.00,0.0458
1071.00,0.0458
1070.00,0.0456
1069.00,0.0456
1068.00,0.0456
1067.00,0.0457
1066.00,0.0459
1065.00,0.0461
1064.00,0.0463
1063.00,0.0464
1062.00,0.0464
1061.00,0.0463
1060.00,0.0461
1059.00,0.0461
1058.00,0.0461
1057.00,0.0463
1056.00,0.0464
1055.00,0.0465
1054.00,0.0467
1053.00,0.0468
1052.00,0.0469
1051.00,0.0469
1050.00,0.0469
1049.00,0.0470
1048.00,0.0472
1047.00,0.0473
1046.00,0.0474
1045.00,0.0474
1044.00,0.0475
1043.00,0.0475
1042.00,0.0474
1041.00,0.0473
1040.00,0.0472
1039.00,0.0472
1038.00,0.0473
1037.00,0.0474
1036.00,0.0475
1035.00,0.0474
1034.00,0.0474
1033.00,0.0474
1032.00,0.0474
1031.00,0.0474
1030.00,0.0473
1029.00,0.0471
1028.00,0.0470
1027.00,0.0470
1026.00,0.0470
1025.00,0.0471
1024.00,0.0472
1023.00,0.0471
1022.00,0.0470
1021.00,0.0469
1020.00,0.0468
1019.00,0.0468
1018.00,0.0468
1017.00,0.0467
1016.00,0.0468
1015.00,0.0469
1014.00,0.0470
1013.00,0.0471
1012.00,0.0470
1011.00,0.0470
1010.00,0.0469
1009.00,0.0469
1008.00,0.0468
1007.00,0.0466
1006.00,0.0464
1005.00,0.0464
1004.00,0.0464
1003.00,0.0465
1002.00,0.0465
1001.00,0.0465
1000.00,0.0463
999.00,0.0460
998.00,0.0458
997.00,0.0457
996.00,0.0458
995.00,0.0459
994.00,0.0459
993.00,0.0457
992.00,0.0455
991.00,0.0453
990.00,0.0452
989.00,0.0451
988.00,0.0451
987.00,0.0452
986.00,0.0452
985.00,0.0452
984.00,0.0451
983.00,0.0449
982.00,0.0447
981.00,0.0446
980.00,0.0446
979.00,0.0445
978.00,0.0444
977.00,0.0442
976.00,0.0440
975.00,0.0439
974.00,0.0438
973.00,0.0438
972.00,0.0437
971.00,0.0436
970.00,0.0433
969.00,0.0431
968.00,0.0430
967.00,0.0429
966.00,0.0428
965.00,0.0426
964.00,0.0425
963.00,0.0425
962.00,0.0425
961.00,0.0425
960.00,0.0424
959.00,0.0423
958.00,0.0422
957.00,0.0421
956.00,0.0421
955.00,0.0420
954.00,0.0419
953.00,0.0419
952.00,0.0419
951.00,0.0421
950.00,0.0423
949.00,0.0423
948.00,0.0422
947.00,0.0421
946.00,0.0420
945.00,0.0419
944.00,0.0419
943.00,0.0419
942.00,0.0418
941.00,0.0418
940.00,0.0419
939.00,0.0420
938.00,0.0422
937.00,0.0422
936.00,0.0421
935.00,0.0420
934.00,0.0420
933.00,0.0422
932.00,0.0425
931.00,0.0428
930.00,0.0430
929.00,0.0432
928.00,0.0433
927.00,0.0435
926.00,0.0436
925.00,0.0437
924.00,0.0438
923.00,0.0438
922.00,0.0438
921.00,0.0439
920.00,0.0439
919.00,0.0440
918.00,0.0440
917.00,0.0441
916.00,0.0443
915.00,0.0444
914.00,0.0444
913.00,0.0444
912.00,0.0444
911.00,0.0444
910.00,0.0443
909.00,0.0441
908.00,0.0439
907.00,0.0437
906.00,0.0439
905.00,0.0443
904.00,0.0449
903.00,0.0453
902.00,0.0455
901.00,0.0455
900.00,0.0454
899.00,0.0453
898.00,0.0454
897.00,0.0455
896.00,0.0457
895.00,0.0457
894.00,0.0456
893.00,0.0454
892.00,0.0452
891.00,0.0451
890.00,0.0451
889.00,0.0453
888.00,0.0455
887.00,0.0454
886.00,0.0452
885.00,0.0450
884.00,0.0450
883.00,0.0453
882.00,0.0456
881.00,0.0457
880.00,0.0458
879.00,0.0457
878.00,0.0454
877.00,0.0450
876.00,0.0447
875.00,0.0446
874.00,0.0447
873.00,0.0448
872.00,0.0450
871.00,0.0450
870.00,0.0451
869.00,0.0451
868.00,0.0450
867.00,0.0448
866.00,0.0447
865.00,0.0447
864.00,0.0449
863.00,0.0450
862.00,0.0452
861.00,0.0454
860.00,0.0454
859.00,0.0453
858.00,0.0450
857.00,0.0448
856.00,0.0448
855.00,0.0449
854.00,0.0452
853.00,0.0453
852.00,0.0454
851.00,0.0455
850.00,0.0456
849.00,0.0459
848.00,0.0462
847.00,0.0464
846.00,0.0467
845.00,0.0469
844.00,0.0471
843.00,0.0472
842.00,0.0471
841.00,0.0471
840.00,0.0470
839.00,0.0470
838.00,0.0471
837.00,0.0472
836.00,0.0474
835.00,0.0475
834.00,0.0476
833.00,0.0476
832.00,0.0476
831.00,0.0476
830.00,0.0475
829.00,0.0475
828.00,0.0476
827.00,0.0479
826.00,0.0482
825.00,0.0486
824.00,0.0490
823.00,0.0491
822.00,0.0491
821.00,0.0491
820.00,0.0492
819.00,0.0494
818.00,0.0494
817.00,0.0494
816.00,0.0493
815.00,0.0493
814.00,0.0495
813.00,0.0498
812.00,0.0501
811.00,0.0503
810.00,0.0504
809.00,0.0504
808.00,0.0504
807.00,0.0503
806.00,0.0502
805.00,0.0501
804.00,0.0500
803.00,0.0501
802.00,0.0503
801.00,0.0507
800.00,0.0511
799.00,0.0514
798.00,0.0513
797.00,0.0512
796.00,0.0511
795.00,0.0511
794.00,0.0511
793.00,0.0512
792.00,0.0515
791.00,0.0518
790.00,0.0521
789.00,0.0524
788.00,0.0525
787.00,0.0526
786.00,0.0527
785.00,0.0530
784.00,0.0532
783.00,0.0535
782.00,0.0537
781.00,0.0538
780.00,0.0538
779.00,0.0538
778.00,0.0538
777.00,0.0539
776.00,0.0541
775.00,0.0542
774.00,0.0541
773.00,0.0540
772.00,0.0540
771.00,0.0541
770.00,0.0544
769.00,0.0546
768.00,0.0547
767.00,0.0547
766.00,0.0547
765.00,0.0547
764.00,0.0548
763.00,0.0548
762.00,0.0548
761.00,0.0548
760.00,0.0549
759.00,0.0552
758.00,0.0556
757.00,0.0558
756.00,0.0560
755.00,0.0560
754.00,0.0561
753.00,0.0561
752.00,0.0562
751.00,0.0564
750.00,0.0566
749.00,0.0567
748.00,0.0568
747.00,0.0569
746.00,0.0569
745.00,0.0567
744.00,0.0563
743.00,0.0561
742.00,0.0562
741.00,0.0564
740.00,0.0565
739.00,0.0564
738.00,0.0562
737.00,0.0561
736.00,0.0562
735.00,0.0562
734.00,0.0562
733.00,0.0562
732.00,0.0562
731.00,0.0564
730.00,0.0566
729.00,0.0569
728.00,0.0574
727.00,0.0579
726.00,0.0581
725.00,0.0581
724.00,0.0579
723.00,0.0578
722.00,0.0578
721.00,0.0580
720.00,0.0581
719.00,0.0581
718.00,0.0582
717.00,0.0584
716.00,0.0584
715.00,0.0583
714.00,0.0581
713.00,0.0580
712.00,0.0582
711.00,0.0583
710.00,0.0584
709.00,0.0584
708.00,0.0584
707.00,0.0585
706.00,0.0586
705.00,0.0588
704.00,0.0592
703.00,0.0595
702.00,0.0597
701.00,0.0598
700.00,0.0597
699.00,0.0597
698.00,0.0597
697.00,0.0598
696.00,0.0600
695.00,0.0603
694.00,0.0608
693.00,0.0612
692.00,0.0615
691.00,0.0616
690.00,0.0617
689.00,0.0618
688.00,0.0621
687.00,0.0622
686.00,0.0622
685.00,0.0618
684.00,0.0613
683.00,0.0608
682.00,0.0604
681.00,0.0602
680.00,0.0603
679.00,0.0606
678.00,0.0610
677.00,0.0614
676.00,0.0617
675.00,0.0619
674.00,0.0620
673.00,0.0621
672.00,0.0622
671.00,0.0623
670.00,0.0626
669.00,0.0633
668.00,0.0641
667.00,0.0645
666.00,0.0645
665.00,0.0644
664.00,0.0641
663.00,0.0637
662.00,0.0631
661.00,0.0626
660.00,0.0620
659.00,0.0617
658.00,0.0620
657.00,0.0628
656.00,0.0638
655.00,0.0643
654.00,0.0640
653.00,0.0635
652.00,0.0631
651.00,0.0631
650.00,0.0633
