Created as New Dataset,Monday, April 03 2023
cm-1,A
4000.00,0.0273
3999.00,0.0273
3998.00,0.0273
3997.00,0.0272
3996.00,0.0272
3995.00,0.0271
3994.00,0.0271
3993.00,0.0271
3992.00,0.0271
3991.00,0.0271
3990.00,0.0271
3989.00,0.0271
3988.00,0.0271
3987.00,0.0270
3986.00,0.0270
3985.00,0.0270
3984.00,0.0270
3983.00,0.0270
3982.00,0.0270
3981.00,0.0270
3980.00,0.0271
3979.00,0.0271
3978.00,0.0271
3977.00,0.0271
3976.00,0.0270
3975.00,0.0270
3974.00,0.0270
3973.00,0.0270
3972.00,0.0270
3971.00,0.0271
3970.00,0.0272
3969.00,0.0272
3968.00,0.0272
3967.00,0.0271
3966.00,0.0270
3965.00,0.0270
3964.00,0.0270
3963.00,0.0271
3962.00,0.0271
3961.00,0.0271
3960.00,0.0270
3959.00,0.0270
3958.00,0.0270
3957.00,0.0270
3956.00,0.0270
3955.00,0.0269
3954.00,0.0269
3953.00,0.0268
3952.00,0.0269
3951.00,0.0269
3950.00,0.0270
3949.00,0.0271
3948.00,0.0271
3947.00,0.0270
3946.00,0.0269
3945.00,0.0269
3944.00,0.0268
3943.00,0.0268
3942.00,0.0268
3941.00,0.0268
3940.00,0.0268
3939.00,0.0269
3938.00,0.0269
3937.00,0.0269
3936.00,0.0268
3935.00,0.0268
3934.00,0.0268
3933.00,0.0267
3932.00,0.0268
3931.00,0.0268
3930.00,0.0268
3929.00,0.0268
3928.00,0.0269
3927.00,0.0269
3926.00,0.0269
3925.00,0.0269
3924.00,0.0268
3923.00,0.0268
3922.00,0.0268
3921.00,0.0268
3920.00,0.0267
3919.00,0.0267
3918.00,0.0268
3917.00,0.0268
3916.00,0.0269
3915.00,0.0269
3914.00,0.0268
3913.00,0.0269
3912.00,0.0269
3911.00,0.0268
3910.00,0.0268
3909.00,0.0267
3908.00,0.0266
3907.00,0.0265
3906.00,0.0264
3905.00,0.0264
3904.00,0.0263
3903.00,0.0263
3902.00,0.0263
3901.00,0.0264
3900.00,0.0265
3899.00,0.0266
3898.00,0.0265
3897.00,0.0265
3896.00,0.0266
3895.00,0.0267
3894.00,0.0267
3893.00,0.0267
3892.00,0.0267
3891.00,0.0266
3890.00,0.0264
3889.00,0.0262
3888.00,0.0262
3887.00,0.0263
3886.00,0.0264
3885.00,0.0263
3884.00,0.0261
3883.00,0.0262
3882.00,0.0264
3881.00,0.0265
3880.00,0.0264
3879.00,0.0263
3878.00,0.0264
3877.00,0.0266
3876.00,0.0268
3875.00,0.0267
3874.00,0.0265
3873.00,0.0263
3872.00,0.0263
3871.00,0.0265
3870.00,0.0266
3869.00,0.0265
3868.00,0.0263
3867.00,0.0264
3866.00,0.0266
3865.00,0.0267
3864.00,0.0268
3863.00,0.0268
3862.00,0.0268
3861.00,0.0268
3860.00,0.0267
3859.00,0.0265
3858.00,0.0263
3857.00,0.0259
3856.00,0.0257
3855.00,0.0257
3854.00,0.0260
3853.00,0.0261
3852.00,0.0260
3851.00,0.0261
3850.00,0.0263
3849.00,0.0266
3848.00,0.0267
3847.00,0.0266
3846.00,0.0266
3845.00,0.0265
3844.00,0.0264
3843.00,0.0262
3842.00,0.0261
3841.00,0.0262
3840.00,0.0263
3839.00,0.0265
3838.00,0.0265
3837.00,0.0265
3836.00,0.0264
3835.00,0.0265
3834.00,0.0266
3833.00,0.0267
3832.00,0.0267
3831.00,0.0267
3830.00,0.0266
3829.00,0.0266
3828.00,0.0266
3827.00,0.0266
3826.00,0.0264
3825.00,0.0263
3824.00,0.0263
3823.00,0.0265
3822.00,0.0266
3821.00,0.0266
3820.00,0.0263
3819.00,0.0262
3818.00,0.0264
3817.00,0.0267
3816.00,0.0268
3815.00,0.0267
3814.00,0.0266
3813.00,0.0267
3812.00,0.0267
3811.00,0.0265
3810.00,0.0263
3809.00,0.0262
3808.00,0.0263
3807.00,0.0264
3806.00,0.0263
3805.00,0.0262
3804.00,0.0264
3803.00,0.0267
3802.00,0.0268
3801.00,0.0267
3800.00,0.0265
3799.00,0.0264
3798.00,0.0266
3797.00,0.0267
3796.00,0.0266
3795.00,0.0265
3794.00,0.0265
3793.00,0.0266
3792.00,0.0266
3791.00,0.0266
3790.00,0.0266
3789.00,0.0266
3788.00,0.0266
3787.00,0.0267
3786.00,0.0267
3785.00,0.0267
3784.00,0.0267
3783.00,0.0266
3782.00,0.0266
3781.00,0.0266
3780.00,0.0266
3779.00,0.0265
3778.00,0.0265
3777.00,0.0265
3776.00,0.0265
3775.00,0.0265
3774.00,0.0264
3773.00,0.0263
3772.00,0.0263
3771.00,0.0263
3770.00,0.0262
3769.00,0.0261
3768.00,0.0261
3767.00,0.0262
3766.00,0.0263
3765.00,0.0264
3764.00,0.0263
3763.00,0.0263
3762.00,0.0264
3761.00,0.0264
3760.00,0.0264
3759.00,0.0264
3758.00,0.0262
3757.00,0.0261
3756.00,0.0259
3755.00,0.0258
3754.00,0.0256
3753.00,0.0255
3752.00,0.0256
3751.00,0.0258
3750.00,0.0260
3749.00,0.0259
3748.00,0.0259
3747.00,0.0260
3746.00,0.0263
3745.00,0.0264
3744.00,0.0261
3743.00,0.0257
3742.00,0.0256
3741.00,0.0259
3740.00,0.0261
3739.00,0.0261
3738.00,0.0259
3737.00,0.0259
3736.00,0.0258
3735.00,0.0257
3734.00,0.0257
3733.00,0.0258
3732.00,0.0258
3731.00,0.0258
3730.00,0.0258
3729.00,0.0259
3728.00,0.0260
3727.00,0.0260
3726.00,0.0259
3725.00,0.0258
3724.00,0.0258
3723.00,0.0259
3722.00,0.0259
3721.00,0.0260
3720.00,0.0261
3719.00,0.0261
3718.00,0.0261
3717.00,0.0260
3716.00,0.0258
3715.00,0.0256
3714.00,0.0256
3713.00,0.0258
3712.00,0.0259
3711.00,0.0259
3710.00,0.0258
3709.00,0.0258
3708.00,0.0258
3707.00,0.0259
3706.00,0.0261
3705.00,0.0261
3704.00,0.0261
3703.00,0.0260
3702.00,0.0260
3701.00,0.0259
3700.00,0.0259
3699.00,0.0259
3698.00,0.0259
3697.00,0.0259
3696.00,0.0258
3695.00,0.0257
3694.00,0.0255
3693.00,0.0254
3692.00,0.0253
3691.00,0.0255
3690.00,0.0258
3689.00,0.0260
3688.00,0.0260
3687.00,0.0259
3686.00,0.0259
3685.00,0.0259
3684.00,0.0259
3683.00,0.0259
3682.00,0.0257
3681.00,0.0255
3680.00,0.0252
3679.00,0.0249
3678.00,0.0247
3677.00,0.0247
3676.00,0.0248
3675.00,0.0247
3674.00,0.0245
3673.00,0.0246
3672.00,0.0249
3671.00,0.0253
3670.00,0.0255
3669.00,0.0254
3668.00,0.0253
3667.00,0.0253
3666.00,0.0254
3665.00,0.0255
3664.00,0.0255
3663.00,0.0254
3662.00,0.0254
3661.00,0.0255
3660.00,0.0255
3659.00,0.0255
3658.00,0.0256
3657.00,0.0256
3656.00,0.0256
3655.00,0.0254
3654.00,0.0253
3653.00,0.0253
3652.00,0.0252
3651.00,0.0251
3650.00,0.0250
3649.00,0.0251
3648.00,0.0252
3647.00,0.0252
3646.00,0.0253
3645.00,0.0255
3644.00,0.0258
3643.00,0.0260
3642.00,0.0261
3641.00,0.0261
3640.00,0.0261
3639.00,0.0261
3638.00,0.0260
3637.00,0.0260
3636.00,0.0259
3635.00,0.0259
3634.00,0.0259
3633.00,0.0257
3632.00,0.0256
3631.00,0.0256
3630.00,0.0257
3629.00,0.0259
3628.00,0.0258
3627.00,0.0257
3626.00,0.0258
3625.00,0.0260
3624.00,0.0261
3623.00,0.0260
3622.00,0.0259
3621.00,0.0259
3620.00,0.0260
3619.00,0.0261
3618.00,0.0262
3617.00,0.0262
3616.00,0.0264
3615.00,0.0265
3614.00,0.0265
3613.00,0.0264
3612.00,0.0263
3611.00,0.0263
3610.00,0.0265
3609.00,0.0266
3608.00,0.0267
3607.00,0.0267
3606.00,0.0266
3605.00,0.0266
3604.00,0.0266
3603.00,0.0266
3602.00,0.0268
3601.00,0.0269
3600.00,0.0269
3599.00,0.0269
3598.00,0.0269
3597.00,0.0269
3596.00,0.0269
3595.00,0.0268
3594.00,0.0268
3593.00,0.0267
3592.00,0.0266
3591.00,0.0265
3590.00,0.0265
3589.00,0.0266
3588.00,0.0267
3587.00,0.0268
3586.00,0.0268
3585.00,0.0269
3584.00,0.0270
3583.00,0.0271
3582.00,0.0272
3581.00,0.0272
3580.00,0.0272
3579.00,0.0272
3578.00,0.0272
3577.00,0.0273
3576.00,0.0273
3575.00,0.0273
3574.00,0.0273
3573.00,0.0273
3572.00,0.0272
3571.00,0.0271
3570.00,0.0270
3569.00,0.0270
3568.00,0.0270
3567.00,0.0271
3566.00,0.0271
3565.00,0.0271
3564.00,0.0271
3563.00,0.0272
3562.00,0.0273
3561.00,0.0274
3560.00,0.0275
3559.00,0.0275
3558.00,0.0276
3557.00,0.0276
3556.00,0.0277
3555.00,0.0277
3554.00,0.0278
3553.00,0.0278
3552.00,0.0278
3551.00,0.0278
3550.00,0.0279
3549.00,0.0279
3548.00,0.0279
3547.00,0.0279
3546.00,0.0280
3545.00,0.0280
3544.00,0.0280
3543.00,0.0281
3542.00,0.0281
3541.00,0.0281
3540.00,0.0280
3539.00,0.0279
3538.00,0.0278
3537.00,0.0277
3536.00,0.0278
3535.00,0.0278
3534.00,0.0279
3533.00,0.0280
3532.00,0.0281
3531.00,0.0281
3530.00,0.0280
3529.00,0.0280
3528.00,0.0279
3527.00,0.0278
3526.00,0.0279
3525.00,0.0281
3524.00,0.0282
3523.00,0.0284
3522.00,0.0284
3521.00,0.0284
3520.00,0.0283
3519.00,0.0282
3518.00,0.0281
3517.00,0.0280
3516.00,0.0280
3515.00,0.0280
3514.00,0.0281
3513.00,0.0282
3512.00,0.0283
3511.00,0.0283
3510.00,0.0283
3509.00,0.0283
3508.00,0.0283
3507.00,0.0282
3506.00,0.0282
3505.00,0.0283
3504.00,0.0284
3503.00,0.0284
3502.00,0.0284
3501.00,0.0284
3500.00,0.0284
3499.00,0.0284
3498.00,0.0285
3497.00,0.0287
3496.00,0.0287
3495.00,0.0287
3494.00,0.0287
3493.00,0.0286
3492.00,0.0286
3491.00,0.0285
3490.00,0.0285
3489.00,0.0284
3488.00,0.0284
3487.00,0.0284
3486.00,0.0284
3485.00,0.0285
3484.00,0.0285
3483.00,0.0286
3482.00,0.0286
3481.00,0.0286
3480.00,0.0286
3479.00,0.0286
3478.00,0.0286
3477.00,0.0287
3476.00,0.0287
3475.00,0.0288
3474.00,0.0288
3473.00,0.0289
3472.00,0.0289
3471.00,0.0289
3470.00,0.0290
3469.00,0.0290
3468.00,0.0290
3467.00,0.0290
3466.00,0.0291
3465.00,0.0291
3464.00,0.0291
3463.00,0.0291
3462.00,0.0289
3461.00,0.0288
3460.00,0.0288
3459.00,0.0289
3458.00,0.0290
3457.00,0.0289
3456.00,0.0289
3455.00,0.0288
3454.00,0.0288
3453.00,0.0289
3452.00,0.0290
3451.00,0.0291
3450.00,0.0291
3449.00,0.0292
3448.00,0.0292
3447.00,0.0292
3446.00,0.0291
3445.00,0.0291
3444.00,0.0291
3443.00,0.0291
3442.00,0.0291
3441.00,0.0291
3440.00,0.0290
3439.00,0.0290
3438.00,0.0290
3437.00,0.0290
3436.00,0.0290
3435.00,0.0290
3434.00,0.0290
3433.00,0.0290
3432.00,0.0291
3431.00,0.0291
3430.00,0.0291
3429.00,0.0291
3428.00,0.0291
3427.00,0.0291
3426.00,0.0292
3425.00,0.0293
3424.00,0.0294
3423.00,0.0294
3422.00,0.0295
3421.00,0.0295
3420.00,0.0294
3419.00,0.0294
3418.00,0.0294
3417.00,0.0294
3416.00,0.0293
3415.00,0.0293
3414.00,0.0293
3413.00,0.0293
3412.00,0.0293
3411.00,0.0293
3410.00,0.0294
3409.00,0.0295
3408.00,0.0295
3407.00,0.0296
3406.00,0.0296
3405.00,0.0295
3404.00,0.0295
3403.00,0.0294
3402.00,0.0294
3401.00,0.0295
3400.00,0.0295
3399.00,0.0296
3398.00,0.0296
3397.00,0.0295
3396.00,0.0295
3395.00,0.0295
3394.00,0.0295
3393.00,0.0296
3392.00,0.0296
3391.00,0.0297
3390.00,0.0297
3389.00,0.0297
3388.00,0.0297
3387.00,0.0296
3386.00,0.0296
3385.00,0.0296
3384.00,0.0297
3383.00,0.0297
3382.00,0.0297
3381.00,0.0298
3380.00,0.0298
3379.00,0.0299
3378.00,0.0299
3377.00,0.0298
3376.00,0.0298
3375.00,0.0298
3374.00,0.0298
3373.00,0.0298
3372.00,0.0297
3371.00,0.0297
3370.00,0.0297
3369.00,0.0298
3368.00,0.0298
3367.00,0.0298
3366.00,0.0297
3365.00,0.0297
3364.00,0.0297
3363.00,0.0297
3362.00,0.0299
3361.00,0.0300
3360.00,0.0301
3359.00,0.0301
3358.00,0.0301
3357.00,0.0301
3356.00,0.0301
3355.00,0.0300
3354.00,0.0301
3353.00,0.0301
3352.00,0.0301
3351.00,0.0301
3350.00,0.0301
3349.00,0.0302
3348.00,0.0302
3347.00,0.0302
3346.00,0.0301
3345.00,0.0300
3344.00,0.0300
3343.00,0.0299
3342.00,0.0299
3341.00,0.0300
3340.00,0.0301
3339.00,0.0301
3338.00,0.0302
3337.00,0.0302
3336.00,0.0302
3335.00,0.0302
3334.00,0.0301
3333.00,0.0301
3332.00,0.0301
3331.00,0.0300
3330.00,0.0300
3329.00,0.0299
3328.00,0.0299
3327.00,0.0300
3326.00,0.0301
3325.00,0.0302
3324.00,0.0302
3323.00,0.0302
3322.00,0.0301
3321.00,0.0301
3320.00,0.0301
3319.00,0.0301
3318.00,0.0302
3317.00,0.0302
3316.00,0.0302
3315.00,0.0302
3314.00,0.0302
3313.00,0.0301
3312.00,0.0301
3311.00,0.0301
3310.00,0.0302
3309.00,0.0303
3308.00,0.0304
3307.00,0.0304
3306.00,0.0304
3305.00,0.0303
3304.00,0.0303
3303.00,0.0303
3302.00,0.0303
3301.00,0.0303
3300.00,0.0303
3299.00,0.0303
3298.00,0.0303
3297.00,0.0304
3296.00,0.0304
3295.00,0.0305
3294.00,0.0305
3293.00,0.0305
3292.00,0.0305
3291.00,0.0304
3290.00,0.0304
3289.00,0.0304
3288.00,0.0304
3287.00,0.0304
3286.00,0.0304
3285.00,0.0304
3284.00,0.0304
3283.00,0.0305
3282.00,0.0304
3281.00,0.0304
3280.00,0.0304
3279.00,0.0304
3278.00,0.0305
3277.00,0.0305
3276.00,0.0305
3275.00,0.0305
3274.00,0.0305
3273.00,0.0305
3272.00,0.0306
3271.00,0.0306
3270.00,0.0306
3269.00,0.0307
3268.00,0.0307
3267.00,0.0307
3266.00,0.0306
3265.00,0.0305
3264.00,0.0304
3263.00,0.0304
3262.00,0.0304
3261.00,0.0305
3260.00,0.0305
3259.00,0.0306
3258.00,0.0306
3257.00,0.0306
3256.00,0.0306
3255.00,0.0305
3254.00,0.0305
3253.00,0.0306
3252.00,0.0306
3251.00,0.0306
3250.00,0.0306
3249.00,0.0306
3248.00,0.0306
3247.00,0.0306
3246.00,0.0306
3245.00,0.0307
3244.00,0.0307
3243.00,0.0307
3242.00,0.0306
3241.00,0.0305
3240.00,0.0305
3239.00,0.0305
3238.00,0.0306
3237.00,0.0307
3236.00,0.0309
3235.00,0.0309
3234.00,0.0310
3233.00,0.0309
3232.00,0.0309
3231.00,0.0309
3230.00,0.0308
3229.00,0.0308
3228.00,0.0307
3227.00,0.0307
3226.00,0.0307
3225.00,0.0307
3224.00,0.0307
3223.00,0.0306
3222.00,0.0306
3221.00,0.0306
3220.00,0.0306
3219.00,0.0306
3218.00,0.0306
3217.00,0.0307
3216.00,0.0308
3215.00,0.0309
3214.00,0.0310
3213.00,0.0309
3212.00,0.0308
3211.00,0.0307
3210.00,0.0306
3209.00,0.0306
3208.00,0.0306
3207.00,0.0306
3206.00,0.0307
3205.00,0.0308
3204.00,0.0309
3203.00,0.0309
3202.00,0.0309
3201.00,0.0309
3200.00,0.0309
3199.00,0.0309
3198.00,0.0308
3197.00,0.0308
3196.00,0.0308
3195.00,0.0308
3194.00,0.0308
3193.00,0.0308
3192.00,0.0308
3191.00,0.0308
3190.00,0.0307
3189.00,0.0306
3188.00,0.0306
3187.00,0.0305
3186.00,0.0305
3185.00,0.0306
3184.00,0.0306
3183.00,0.0307
3182.00,0.0308
3181.00,0.0309
3180.00,0.0308
3179.00,0.0308
3178.00,0.0307
3177.00,0.0306
3176.00,0.0305
3175.00,0.0306
3174.00,0.0306
3173.00,0.0306
3172.00,0.0307
3171.00,0.0307
3170.00,0.0307
3169.00,0.0307
3168.00,0.0307
3167.00,0.0307
3166.00,0.0307
3165.00,0.0307
3164.00,0.0308
3163.00,0.0308
3162.00,0.0308
3161.00,0.0307
3160.00,0.0306
3159.00,0.0305
3158.00,0.0305
3157.00,0.0304
3156.00,0.0305
3155.00,0.0306
3154.00,0.0306
3153.00,0.0307
3152.00,0.0307
3151.00,0.0307
3150.00,0.0307
3149.00,0.0307
3148.00,0.0307
3147.00,0.0307
3146.00,0.0307
3145.00,0.0306
3144.00,0.0306
3143.00,0.0306
3142.00,0.0305
3141.00,0.0305
3140.00,0.0305
3139.00,0.0305
3138.00,0.0305
3137.00,0.0306
3136.00,0.0306
3135.00,0.0306
3134.00,0.0306
3133.00,0.0305
3132.00,0.0305
3131.00,0.0306
3130.00,0.0306
3129.00,0.0306
3128.00,0.0306
3127.00,0.0305
3126.00,0.0305
3125.00,0.0305
3124.00,0.0306
3123.00,0.0305
3122.00,0.0305
3121.00,0.0305
3120.00,0.0305
3119.00,0.0306
3118.00,0.0305
3117.00,0.0305
3116.00,0.0305
3115.00,0.0305
3114.00,0.0305
3113.00,0.0305
3112.00,0.0305
3111.00,0.0305
3110.00,0.0305
3109.00,0.0304
3108.00,0.0304
3107.00,0.0304
3106.00,0.0305
3105.00,0.0305
3104.00,0.0305
3103.00,0.0305
3102.00,0.0305
3101.00,0.0304
3100.00,0.0304
3099.00,0.0304
3098.00,0.0304
3097.00,0.0304
3096.00,0.0305
3095.00,0.0305
3094.00,0.0306
3093.00,0.0306
3092.00,0.0306
3091.00,0.0305
3090.00,0.0304
3089.00,0.0303
3088.00,0.0302
3087.00,0.0303
3086.00,0.0303
3085.00,0.0304
3084.00,0.0305
3083.00,0.0305
3082.00,0.0305
3081.00,0.0305
3080.00,0.0305
3079.00,0.0305
3078.00,0.0305
3077.00,0.0305
3076.00,0.0305
3075.00,0.0304
3074.00,0.0305
3073.00,0.0305
3072.00,0.0305
3071.00,0.0305
3070.00,0.0305
3069.00,0.0305
3068.00,0.0305
3067.00,0.0305
3066.00,0.0305
3065.00,0.0304
3064.00,0.0304
3063.00,0.0303
3062.00,0.0303
3061.00,0.0304
3060.00,0.0304
3059.00,0.0304
3058.00,0.0304
3057.00,0.0305
3056.00,0.0304
3055.00,0.0304
3054.00,0.0304
3053.00,0.0304
3052.00,0.0304
3051.00,0.0305
3050.00,0.0305
3049.00,0.0305
3048.00,0.0306
3047.00,0.0306
3046.00,0.0306
3045.00,0.0305
3044.00,0.0305
3043.00,0.0304
3042.00,0.0303
3041.00,0.0302
3040.00,0.0302
3039.00,0.0302
3038.00,0.0302
3037.00,0.0302
3036.00,0.0303
3035.00,0.0303
3034.00,0.0303
3033.00,0.0304
3032.00,0.0304
3031.00,0.0303
3030.00,0.0303
3029.00,0.0302
3028.00,0.0301
3027.00,0.0301
3026.00,0.0301
3025.00,0.0301
3024.00,0.0301
3023.00,0.0301
3022.00,0.0301
3021.00,0.0301
3020.00,0.0300
3019.00,0.0300
3018.00,0.0299
3017.00,0.0298
3016.00,0.0298
3015.00,0.0297
3014.00,0.0296
3013.00,0.0296
3012.00,0.0296
3011.00,0.0295
3010.00,0.0294
3009.00,0.0292
3008.00,0.0290
3007.00,0.0289
3006.00,0.0288
3005.00,0.0287
3004.00,0.0286
3003.00,0.0285
3002.00,0.0283
3001.00,0.0282
3000.00,0.0281
2999.00,0.0280
2998.00,0.0278
2997.00,0.0277
2996.00,0.0275
2995.00,0.0275
2994.00,0.0274
2993.00,0.0273
2992.00,0.0272
2991.00,0.0271
2990.00,0.0270
2989.00,0.0269
2988.00,0.0268
2987.00,0.0267
2986.00,0.0264
2985.00,0.0260
2984.00,0.0256
2983.00,0.0252
2982.00,0.0250
2981.00,0.0251
2980.00,0.0252
2979.00,0.0255
2978.00,0.0257
2977.00,0.0260
2976.00,0.0261
2975.00,0.0262
2974.00,0.0261
2973.00,0.0260
2972.00,0.0259
2971.00,0.0260
2970.00,0.0261
2969.00,0.0263
2968.00,0.0265
2967.00,0.0266
2966.00,0.0266
2965.00,0.0267
2964.00,0.0268
2963.00,0.0269
2962.00,0.0270
2961.00,0.0271
2960.00,0.0271
2959.00,0.0271
2958.00,0.0271
2957.00,0.0272
2956.00,0.0274
2955.00,0.0275
2954.00,0.0276
2953.00,0.0277
2952.00,0.0278
2951.00,0.0278
2950.00,0.0279
2949.00,0.0279
2948.00,0.0280
2947.00,0.0280
2946.00,0.0281
2945.00,0.0282
2944.00,0.0283
2943.00,0.0284
2942.00,0.0284
2941.00,0.0284
2940.00,0.0284
2939.00,0.0283
2938.00,0.0283
2937.00,0.0283
2936.00,0.0284
2935.00,0.0284
2934.00,0.0283
2933.00,0.0283
2932.00,0.0283
2931.00,0.0283
2930.00,0.0283
2929.00,0.0284
2928.00,0.0284
2927.00,0.0284
2926.00,0.0284
2925.00,0.0283
2924.00,0.0283
2923.00,0.0283
2922.00,0.0282
2921.00,0.0281
2920.00,0.0279
2919.00,0.0278
2918.00,0.0277
2917.00,0.0276
2916.00,0.0277
2915.00,0.0278
2914.00,0.0279
2913.00,0.0281
2912.00,0.0282
2911.00,0.0283
2910.00,0.0284
2909.00,0.0284
2908.00,0.0284
2907.00,0.0284
2906.00,0.0284
2905.00,0.0284
2904.00,0.0284
2903.00,0.0283
2902.00,0.0283
2901.00,0.0283
2900.00,0.0283
2899.00,0.0283
2898.00,0.0283
2897.00,0.0283
2896.00,0.0283
2895.00,0.0282
2894.00,0.0282
2893.00,0.0282
2892.00,0.0282
2891.00,0.0282
2890.00,0.0282
2889.00,0.0282
2888.00,0.0282
2887.00,0.0282
2886.00,0.0282
2885.00,0.0281
2884.00,0.0281
2883.00,0.0281
2882.00,0.0281
2881.00,0.0282
2880.00,0.0282
2879.00,0.0283
2878.00,0.0284
2877.00,0.0284
2876.00,0.0285
2875.00,0.0285
2874.00,0.0285
2873.00,0.0284
2872.00,0.0284
2871.00,0.0285
2870.00,0.0285
2869.00,0.0285
2868.00,0.0285
2867.00,0.0286
2866.00,0.0286
2865.00,0.0286
2864.00,0.0286
2863.00,0.0287
2862.00,0.0287
2861.00,0.0287
2860.00,0.0288
2859.00,0.0289
2858.00,0.0290
2857.00,0.0290
2856.00,0.0290
2855.00,0.0290
2854.00,0.0289
2853.00,0.0289
2852.00,0.0289
2851.00,0.0289
2850.00,0.0290
2849.00,0.0290
2848.00,0.0290
2847.00,0.0290
2846.00,0.0290
2845.00,0.0290
2844.00,0.0291
2843.00,0.0291
2842.00,0.0291
2841.00,0.0291
2840.00,0.0291
2839.00,0.0290
2838.00,0.0290
2837.00,0.0290
2836.00,0.0291
2835.00,0.0291
2834.00,0.0292
2833.00,0.0291
2832.00,0.0291
2831.00,0.0290
2830.00,0.0290
2829.00,0.0290
2828.00,0.0291
2827.00,0.0291
2826.00,0.0291
2825.00,0.0291
2824.00,0.0291
2823.00,0.0291
2822.00,0.0291
2821.00,0.0290
2820.00,0.0290
2819.00,0.0289
2818.00,0.0289
2817.00,0.0289
2816.00,0.0289
2815.00,0.0289
2814.00,0.0289
2813.00,0.0289
2812.00,0.0289
2811.00,0.0289
2810.00,0.0289
2809.00,0.0289
2808.00,0.0289
2807.00,0.0289
2806.00,0.0289
2805.00,0.0289
2804.00,0.0289
2803.00,0.0289
2802.00,0.0289
2801.00,0.0289
2800.00,0.0290
2799.00,0.0290
2798.00,0.0290
2797.00,0.0290
2796.00,0.0290
2795.00,0.0290
2794.00,0.0289
2793.00,0.0289
2792.00,0.0289
2791.00,0.0289
2790.00,0.0289
2789.00,0.0290
2788.00,0.0290
2787.00,0.0290
2786.00,0.0289
2785.00,0.0289
2784.00,0.0288
2783.00,0.0288
2782.00,0.0287
2781.00,0.0287
2780.00,0.0286
2779.00,0.0286
2778.00,0.0286
2777.00,0.0287
2776.00,0.0288
2775.00,0.0288
2774.00,0.0288
2773.00,0.0288
2772.00,0.0288
2771.00,0.0287
2770.00,0.0286
2769.00,0.0285
2768.00,0.0285
2767.00,0.0285
2766.00,0.0286
2765.00,0.0286
2764.00,0.0287
2763.00,0.0287
2762.00,0.0287
2761.00,0.0287
2760.00,0.0287
2759.00,0.0287
2758.00,0.0287
2757.00,0.0287
2756.00,0.0286
2755.00,0.0286
2754.00,0.0286
2753.00,0.0286
2752.00,0.0286
2751.00,0.0286
2750.00,0.0286
2749.00,0.0287
2748.00,0.0287
2747.00,0.0287
2746.00,0.0287
2745.00,0.0287
2744.00,0.0287
2743.00,0.0287
2742.00,0.0287
2741.00,0.0287
2740.00,0.0286
2739.00,0.0286
2738.00,0.0285
2737.00,0.0285
2736.00,0.0285
2735.00,0.0285
2734.00,0.0285
2733.00,0.0286
2732.00,0.0286
2731.00,0.0286
2730.00,0.0286
2729.00,0.0285
2728.00,0.0285
2727.00,0.0285
2726.00,0.0285
2725.00,0.0285
2724.00,0.0285
2723.00,0.0285
2722.00,0.0285
2721.00,0.0285
2720.00,0.0285
2719.00,0.0285
2718.00,0.0286
2717.00,0.0286
2716.00,0.0285
2715.00,0.0285
2714.00,0.0285
2713.00,0.0285
2712.00,0.0285
2711.00,0.0285
2710.00,0.0285
2709.00,0.0285
2708.00,0.0285
2707.00,0.0285
2706.00,0.0285
2705.00,0.0285
2704.00,0.0284
2703.00,0.0284
2702.00,0.0284
2701.00,0.0284
2700.00,0.0284
2699.00,0.0285
2698.00,0.0285
2697.00,0.0284
2696.00,0.0284
2695.00,0.0284
2694.00,0.0285
2693.00,0.0285
2692.00,0.0285
2691.00,0.0285
2690.00,0.0285
2689.00,0.0284
2688.00,0.0284
2687.00,0.0284
2686.00,0.0285
2685.00,0.0285
2684.00,0.0285
2683.00,0.0284
2682.00,0.0284
2681.00,0.0284
2680.00,0.0284
2679.00,0.0283
2678.00,0.0283
2677.00,0.0283
2676.00,0.0282
2675.00,0.0283
2674.00,0.0283
2673.00,0.0283
2672.00,0.0283
2671.00,0.0283
2670.00,0.0282
2669.00,0.0282
2668.00,0.0282
2667.00,0.0282
2666.00,0.0283
2665.00,0.0283
2664.00,0.0283
2663.00,0.0284
2662.00,0.0284
2661.00,0.0284
2660.00,0.0284
2659.00,0.0284
2658.00,0.0285
2657.00,0.0285
2656.00,0.0284
2655.00,0.0284
2654.00,0.0284
2653.00,0.0284
2652.00,0.0284
2651.00,0.0285
2650.00,0.0285
2649.00,0.0285
2648.00,0.0285
2647.00,0.0284
2646.00,0.0283
2645.00,0.0284
2644.00,0.0284
2643.00,0.0285
2642.00,0.0285
2641.00,0.0285
2640.00,0.0285
2639.00,0.0285
2638.00,0.0285
2637.00,0.0285
2636.00,0.0284
2635.00,0.0284
2634.00,0.0285
2633.00,0.0285
2632.00,0.0285
2631.00,0.0285
2630.00,0.0285
2629.00,0.0284
2628.00,0.0283
2627.00,0.0283
2626.00,0.0283
2625.00,0.0284
2624.00,0.0284
2623.00,0.0285
2622.00,0.0285
2621.00,0.0286
2620.00,0.0286
2619.00,0.0286
2618.00,0.0286
2617.00,0.0286
2616.00,0.0286
2615.00,0.0285
2614.00,0.0285
2613.00,0.0285
2612.00,0.0286
2611.00,0.0287
2610.00,0.0287
2609.00,0.0286
2608.00,0.0285
2607.00,0.0285
2606.00,0.0285
2605.00,0.0286
2604.00,0.0287
2603.00,0.0287
2602.00,0.0287
2601.00,0.0286
2600.00,0.0286
2599.00,0.0285
2598.00,0.0285
2597.00,0.0285
2596.00,0.0285
2595.00,0.0284
2594.00,0.0285
2593.00,0.0285
2592.00,0.0286
2591.00,0.0286
2590.00,0.0286
2589.00,0.0286
2588.00,0.0286
2587.00,0.0285
2586.00,0.0285
2585.00,0.0284
2584.00,0.0284
2583.00,0.0285
2582.00,0.0285
2581.00,0.0286
2580.00,0.0286
2579.00,0.0286
2578.00,0.0286
2577.00,0.0286
2576.00,0.0285
2575.00,0.0284
2574.00,0.0284
2573.00,0.0285
2572.00,0.0286
2571.00,0.0286
2570.00,0.0285
2569.00,0.0285
2568.00,0.0285
2567.00,0.0286
2566.00,0.0287
2565.00,0.0287
2564.00,0.0287
2563.00,0.0287
2562.00,0.0287
2561.00,0.0288
2560.00,0.0288
2559.00,0.0287
2558.00,0.0287
2557.00,0.0287
2556.00,0.0288
2555.00,0.0288
2554.00,0.0287
2553.00,0.0286
2552.00,0.0285
2551.00,0.0284
2550.00,0.0283
2549.00,0.0283
2548.00,0.0282
2547.00,0.0282
2546.00,0.0283
2545.00,0.0284
2544.00,0.0284
2543.00,0.0284
2542.00,0.0283
2541.00,0.0282
2540.00,0.0281
2539.00,0.0280
2538.00,0.0280
2537.00,0.0280
2536.00,0.0281
2535.00,0.0282
2534.00,0.0282
2533.00,0.0283
2532.00,0.0284
2531.00,0.0284
2530.00,0.0283
2529.00,0.0283
2528.00,0.0283
2527.00,0.0282
2526.00,0.0281
2525.00,0.0281
2524.00,0.0280
2523.00,0.0280
2522.00,0.0280
2521.00,0.0281
2520.00,0.0281
2519.00,0.0282
2518.00,0.0283
2517.00,0.0285
2516.00,0.0285
2515.00,0.0285
2514.00,0.0283
2513.00,0.0282
2512.00,0.0281
2511.00,0.0282
2510.00,0.0283
2509.00,0.0284
2508.00,0.0285
2507.00,0.0285
2506.00,0.0284
2505.00,0.0283
2504.00,0.0283
2503.00,0.0282
2502.00,0.0283
2501.00,0.0283
2500.00,0.0284
2499.00,0.0284
2498.00,0.0285
2497.00,0.0285
2496.00,0.0285
2495.00,0.0285
2494.00,0.0286
2493.00,0.0286
2492.00,0.0286
2491.00,0.0285
2490.00,0.0285
2489.00,0.0285
2488.00,0.0285
2487.00,0.0285
2486.00,0.0285
2485.00,0.0284
2484.00,0.0284
2483.00,0.0283
2482.00,0.0284
2481.00,0.0285
2480.00,0.0285
2479.00,0.0284
2478.00,0.0284
2477.00,0.0283
2476.00,0.0283
2475.00,0.0283
2474.00,0.0283
2473.00,0.0284
2472.00,0.0284
2471.00,0.0284
2470.00,0.0283
2469.00,0.0283
2468.00,0.0283
2467.00,0.0282
2466.00,0.0282
2465.00,0.0282
2464.00,0.0282
2463.00,0.0282
2462.00,0.0282
2461.00,0.0282
2460.00,0.0283
2459.00,0.0283
2458.00,0.0284
2457.00,0.0284
2456.00,0.0284
2455.00,0.0284
2454.00,0.0285
2453.00,0.0285
2452.00,0.0285
2451.00,0.0285
2450.00,0.0284
2449.00,0.0284
2448.00,0.0283
2447.00,0.0283
2446.00,0.0283
2445.00,0.0282
2444.00,0.0282
2443.00,0.0281
2442.00,0.0281
2441.00,0.0282
2440.00,0.0282
2439.00,0.0282
2438.00,0.0282
2437.00,0.0282
2436.00,0.0282
2435.00,0.0282
2434.00,0.0281
2433.00,0.0281
2432.00,0.0281
2431.00,0.0281
2430.00,0.0281
2429.00,0.0282
2428.00,0.0282
2427.00,0.0282
2426.00,0.0282
2425.00,0.0281
2424.00,0.0281
2423.00,0.0281
2422.00,0.0281
2421.00,0.0281
2420.00,0.0281
2419.00,0.0281
2418.00,0.0280
2417.00,0.0280
2416.00,0.0280
2415.00,0.0280
2414.00,0.0281
2413.00,0.0281
2412.00,0.0281
2411.00,0.0280
2410.00,0.0280
2409.00,0.0280
2408.00,0.0280
2407.00,0.0280
2406.00,0.0280
2405.00,0.0280
2404.00,0.0280
2403.00,0.0279
2402.00,0.0279
2401.00,0.0279
2400.00,0.0279
2399.00,0.0279
2398.00,0.0278
2397.00,0.0278
2396.00,0.0278
2395.00,0.0277
2394.00,0.0277
2393.00,0.0278
2392.00,0.0278
2391.00,0.0278
2390.00,0.0278
2389.00,0.0278
2388.00,0.0278
2387.00,0.0277
2386.00,0.0277
2385.00,0.0277
2384.00,0.0276
2383.00,0.0275
2382.00,0.0275
2381.00,0.0275
2380.00,0.0276
2379.00,0.0276
2378.00,0.0275
2377.00,0.0274
2376.00,0.0273
2375.00,0.0272
2374.00,0.0273
2373.00,0.0274
2372.00,0.0275
2371.00,0.0274
2370.00,0.0272
2369.00,0.0268
2368.00,0.0266
2367.00,0.0266
2366.00,0.0269
2365.00,0.0271
2364.00,0.0272
2363.00,0.0272
2362.00,0.0272
2361.00,0.0274
2360.00,0.0277
2359.00,0.0278
2358.00,0.0278
2357.00,0.0276
2356.00,0.0273
2355.00,0.0271
2354.00,0.0269
2353.00,0.0270
2352.00,0.0272
2351.00,0.0273
2350.00,0.0272
2349.00,0.0269
2348.00,0.0265
2347.00,0.0261
2346.00,0.0261
2345.00,0.0263
2344.00,0.0267
2343.00,0.0271
2342.00,0.0273
2341.00,0.0275
2340.00,0.0275
2339.00,0.0274
2338.00,0.0272
2337.00,0.0271
2336.00,0.0271
2335.00,0.0272
2334.00,0.0273
2333.00,0.0274
2332.00,0.0274
2331.00,0.0274
2330.00,0.0274
2329.00,0.0274
2328.00,0.0276
2327.00,0.0277
2326.00,0.0278
2325.00,0.0278
2324.00,0.0277
2323.00,0.0275
2322.00,0.0276
2321.00,0.0277
2320.00,0.0277
2319.00,0.0277
2318.00,0.0277
2317.00,0.0276
2316.00,0.0276
2315.00,0.0275
2314.00,0.0275
2313.00,0.0275
2312.00,0.0276
2311.00,0.0276
2310.00,0.0277
2309.00,0.0278
2308.00,0.0278
2307.00,0.0278
2306.00,0.0278
2305.00,0.0277
2304.00,0.0277
2303.00,0.0275
2302.00,0.0274
2301.00,0.0274
2300.00,0.0274
2299.00,0.0275
2298.00,0.0275
2297.00,0.0275
2296.00,0.0275
2295.00,0.0275
2294.00,0.0275
2293.00,0.0277
2292.00,0.0279
2291.00,0.0280
2290.00,0.0280
2289.00,0.0279
2288.00,0.0279
2287.00,0.0279
2286.00,0.0280
2285.00,0.0281
2284.00,0.0282
2283.00,0.0283
2282.00,0.0282
2281.00,0.0282
2280.00,0.0281
2279.00,0.0281
2278.00,0.0281
2277.00,0.0281
2276.00,0.0280
2275.00,0.0278
2274.00,0.0276
2273.00,0.0275
2272.00,0.0275
2271.00,0.0275
2270.00,0.0275
2269.00,0.0276
2268.00,0.0276
2267.00,0.0276
2266.00,0.0276
2265.00,0.0277
2264.00,0.0278
2263.00,0.0279
2262.00,0.0279
2261.00,0.0279
2260.00,0.0279
2259.00,0.0279
2258.00,0.0277
2257.00,0.0275
2256.00,0.0274
2255.00,0.0273
2254.00,0.0274
2253.00,0.0274
2252.00,0.0274
2251.00,0.0275
2250.00,0.0275
2249.00,0.0275
2248.00,0.0275
2247.00,0.0275
2246.00,0.0276
2245.00,0.0277
2244.00,0.0278
2243.00,0.0278
2242.00,0.0278
2241.00,0.0277
2240.00,0.0276
2239.00,0.0275
2238.00,0.0274
2237.00,0.0275
2236.00,0.0275
2235.00,0.0276
2234.00,0.0277
2233.00,0.0277
2232.00,0.0276
2231.00,0.0273
2230.00,0.0272
2229.00,0.0271
2228.00,0.0272
2227.00,0.0273
2226.00,0.0274
2225.00,0.0275
2224.00,0.0275
2223.00,0.0274
2222.00,0.0273
2221.00,0.0273
2220.00,0.0272
2219.00,0.0273
2218.00,0.0273
2217.00,0.0274
2216.00,0.0276
2215.00,0.0277
2214.00,0.0278
2213.00,0.0278
2212.00,0.0276
2211.00,0.0274
2210.00,0.0273
2209.00,0.0274
2208.00,0.0274
2207.00,0.0274
2206.00,0.0273
2205.00,0.0273
2204.00,0.0273
2203.00,0.0272
2202.00,0.0272
2201.00,0.0272
2200.00,0.0272
2199.00,0.0272
2198.00,0.0272
2197.00,0.0273
2196.00,0.0273
2195.00,0.0273
2194.00,0.0272
2193.00,0.0271
2192.00,0.0270
2191.00,0.0269
2190.00,0.0268
2189.00,0.0268
2188.00,0.0269
2187.00,0.0273
2186.00,0.0276
2185.00,0.0277
2184.00,0.0275
2183.00,0.0271
2182.00,0.0269
2181.00,0.0269
2180.00,0.0270
2179.00,0.0272
2178.00,0.0274
2177.00,0.0276
2176.00,0.0277
2175.00,0.0276
2174.00,0.0275
2173.00,0.0274
2172.00,0.0273
2171.00,0.0274
2170.00,0.0276
2169.00,0.0278
2168.00,0.0279
2167.00,0.0279
2166.00,0.0280
2165.00,0.0282
2164.00,0.0284
2163.00,0.0285
2162.00,0.0285
2161.00,0.0282
2160.00,0.0275
2159.00,0.0269
2158.00,0.0265
2157.00,0.0266
2156.00,0.0267
2155.00,0.0268
2154.00,0.0270
2153.00,0.0272
2152.00,0.0273
2151.00,0.0272
2150.00,0.0270
2149.00,0.0269
2148.00,0.0269
2147.00,0.0271
2146.00,0.0273
2145.00,0.0274
2144.00,0.0274
2143.00,0.0275
2142.00,0.0276
2141.00,0.0277
2140.00,0.0277
2139.00,0.0276
2138.00,0.0274
2137.00,0.0272
2136.00,0.0271
2135.00,0.0269
2134.00,0.0268
2133.00,0.0268
2132.00,0.0269
2131.00,0.0269
2130.00,0.0270
2129.00,0.0271
2128.00,0.0273
2127.00,0.0273
2126.00,0.0273
2125.00,0.0272
2124.00,0.0271
2123.00,0.0271
2122.00,0.0271
2121.00,0.0271
2120.00,0.0270
2119.00,0.0269
2118.00,0.0268
2117.00,0.0268
2116.00,0.0267
2115.00,0.0266
2114.00,0.0265
2113.00,0.0266
2112.00,0.0267
2111.00,0.0269
2110.00,0.0271
2109.00,0.0272
2108.00,0.0273
2107.00,0.0274
2106.00,0.0275
2105.00,0.0275
2104.00,0.0275
2103.00,0.0274
2102.00,0.0274
2101.00,0.0273
2100.00,0.0272
2099.00,0.0270
2098.00,0.0268
2097.00,0.0267
2096.00,0.0268
2095.00,0.0269
2094.00,0.0271
2093.00,0.0272
2092.00,0.0272
2091.00,0.0270
2090.00,0.0269
2089.00,0.0268
2088.00,0.0269
2087.00,0.0269
2086.00,0.0270
2085.00,0.0272
2084.00,0.0273
2083.00,0.0274
2082.00,0.0274
2081.00,0.0273
2080.00,0.0273
2079.00,0.0272
2078.00,0.0272
2077.00,0.0272
2076.00,0.0272
2075.00,0.0273
2074.00,0.0274
2073.00,0.0274
2072.00,0.0274
2071.00,0.0274
2070.00,0.0274
2069.00,0.0272
2068.00,0.0269
2067.00,0.0268
2066.00,0.0268
2065.00,0.0269
2064.00,0.0270
2063.00,0.0272
2062.00,0.0272
2061.00,0.0272
2060.00,0.0272
2059.00,0.0272
2058.00,0.0272
2057.00,0.0272
2056.00,0.0272
2055.00,0.0271
2054.00,0.0271
2053.00,0.0273
2052.00,0.0275
2051.00,0.0275
2050.00,0.0273
2049.00,0.0270
2048.00,0.0269
2047.00,0.0269
2046.00,0.0271
2045.00,0.0274
2044.00,0.0277
2043.00,0.0279
2042.00,0.0278
2041.00,0.0277
2040.00,0.0274
2039.00,0.0272
2038.00,0.0272
2037.00,0.0273
2036.00,0.0274
2035.00,0.0273
2034.00,0.0272
2033.00,0.0272
2032.00,0.0274
2031.00,0.0278
2030.00,0.0279
2029.00,0.0277
2028.00,0.0274
2027.00,0.0272
2026.00,0.0270
2025.00,0.0269
2024.00,0.0268
2023.00,0.0266
2022.00,0.0264
2021.00,0.0263
2020.00,0.0262
2019.00,0.0262
2018.00,0.0261
2017.00,0.0261
2016.00,0.0263
2015.00,0.0266
2014.00,0.0268
2013.00,0.0269
2012.00,0.0268
2011.00,0.0268
2010.00,0.0268
2009.00,0.0268
2008.00,0.0269
2007.00,0.0268
2006.00,0.0267
2005.00,0.0266
2004.00,0.0266
2003.00,0.0268
2002.00,0.0270
2001.00,0.0272
2000.00,0.0272
1999.00,0.0270
1998.00,0.0267
1997.00,0.0267
1996.00,0.0268
1995.00,0.0270
1994.00,0.0273
1993.00,0.0275
1992.00,0.0276
1991.00,0.0273
1990.00,0.0269
1989.00,0.0266
1988.00,0.0264
1987.00,0.0265
1986.00,0.0267
1985.00,0.0269
1984.00,0.0270
1983.00,0.0271
1982.00,0.0271
1981.00,0.0270
1980.00,0.0268
1979.00,0.0264
1978.00,0.0259
1977.00,0.0256
1976.00,0.0255
1975.00,0.0257
1974.00,0.0261
1973.00,0.0263
1972.00,0.0264
1971.00,0.0262
1970.00,0.0262
1969.00,0.0264
1968.00,0.0266
1967.00,0.0266
1966.00,0.0265
1965.00,0.0264
1964.00,0.0263
1963.00,0.0263
1962.00,0.0263
1961.00,0.0263
1960.00,0.0264
1959.00,0.0265
1958.00,0.0265
1957.00,0.0264
1956.00,0.0262
1955.00,0.0260
1954.00,0.0260
1953.00,0.0260
1952.00,0.0260
1951.00,0.0259
1950.00,0.0258
1949.00,0.0258
1948.00,0.0259
1947.00,0.0260
1946.00,0.0260
1945.00,0.0259
1944.00,0.0257
1943.00,0.0255
1942.00,0.0253
1941.00,0.0253
1940.00,0.0252
1939.00,0.0252
1938.00,0.0252
1937.00,0.0252
1936.00,0.0253
1935.00,0.0253
1934.00,0.0252
1933.00,0.0252
1932.00,0.0253
1931.00,0.0254
1930.00,0.0256
1929.00,0.0257
1928.00,0.0258
1927.00,0.0259
1926.00,0.0258
1925.00,0.0258
1924.00,0.0257
1923.00,0.0256
1922.00,0.0256
1921.00,0.0256
1920.00,0.0255
1919.00,0.0254
1918.00,0.0253
1917.00,0.0253
1916.00,0.0253
1915.00,0.0254
1914.00,0.0254
1913.00,0.0254
1912.00,0.0254
1911.00,0.0254
1910.00,0.0252
1909.00,0.0251
1908.00,0.0249
1907.00,0.0248
1906.00,0.0248
1905.00,0.0249
1904.00,0.0250
1903.00,0.0251
1902.00,0.0250
1901.00,0.0249
1900.00,0.0249
1899.00,0.0249
1898.00,0.0250
1897.00,0.0250
1896.00,0.0248
1895.00,0.0246
1894.00,0.0246
1893.00,0.0246
1892.00,0.0248
1891.00,0.0249
1890.00,0.0249
1889.00,0.0248
1888.00,0.0247
1887.00,0.0246
1886.00,0.0245
1885.00,0.0245
1884.00,0.0245
1883.00,0.0246
1882.00,0.0246
1881.00,0.0246
1880.00,0.0246
1879.00,0.0245
1878.00,0.0244
1877.00,0.0243
1876.00,0.0243
1875.00,0.0244
1874.00,0.0244
1873.00,0.0245
1872.00,0.0246
1871.00,0.0245
1870.00,0.0245
1869.00,0.0244
1868.00,0.0242
1867.00,0.0242
1866.00,0.0242
1865.00,0.0242
1864.00,0.0242
1863.00,0.0241
1862.00,0.0240
1861.00,0.0239
1860.00,0.0238
1859.00,0.0237
1858.00,0.0238
1857.00,0.0239
1856.00,0.0240
1855.00,0.0241
1854.00,0.0240
1853.00,0.0239
1852.00,0.0238
1851.00,0.0238
1850.00,0.0238
1849.00,0.0238
1848.00,0.0237
1847.00,0.0237
1846.00,0.0238
1845.00,0.0238
1844.00,0.0238
1843.00,0.0237
1842.00,0.0237
1841.00,0.0237
1840.00,0.0236
1839.00,0.0235
1838.00,0.0234
1837.00,0.0234
1836.00,0.0234
1835.00,0.0234
1834.00,0.0233
1833.00,0.0233
1832.00,0.0234
1831.00,0.0234
1830.00,0.0233
1829.00,0.0232
1828.00,0.0231
1827.00,0.0232
1826.00,0.0231
1825.00,0.0231
1824.00,0.0230
1823.00,0.0229
1822.00,0.0230
1821.00,0.0230
1820.00,0.0229
1819.00,0.0228
1818.00,0.0227
1817.00,0.0226
1816.00,0.0225
1815.00,0.0225
1814.00,0.0225
1813.00,0.0225
1812.00,0.0224
1811.00,0.0223
1810.00,0.0223
1809.00,0.0223
1808.00,0.0224
1807.00,0.0224
1806.00,0.0224
1805.00,0.0223
1804.00,0.0223
1803.00,0.0223
1802.00,0.0222
1801.00,0.0221
1800.00,0.0221
1799.00,0.0220
1798.00,0.0220
1797.00,0.0220
1796.00,0.0221
1795.00,0.0221
1794.00,0.0220
1793.00,0.0220
1792.00,0.0220
1791.00,0.0219
1790.00,0.0219
1789.00,0.0220
1788.00,0.0220
1787.00,0.0220
1786.00,0.0221
1785.00,0.0221
1784.00,0.0221
1783.00,0.0221
1782.00,0.0221
1781.00,0.0220
1780.00,0.0219
1779.00,0.0219
1778.00,0.0220
1777.00,0.0221
1776.00,0.0222
1775.00,0.0223
1774.00,0.0224
1773.00,0.0223
1772.00,0.0222
1771.00,0.0221
1770.00,0.0221
1769.00,0.0223
1768.00,0.0224
1767.00,0.0224
1766.00,0.0224
1765.00,0.0225
1764.00,0.0226
1763.00,0.0226
1762.00,0.0225
1761.00,0.0224
1760.00,0.0224
1759.00,0.0225
1758.00,0.0225
1757.00,0.0225
1756.00,0.0225
1755.00,0.0226
1754.00,0.0228
1753.00,0.0229
1752.00,0.0228
1751.00,0.0227
1750.00,0.0226
1749.00,0.0227
1748.00,0.0228
1747.00,0.0228
1746.00,0.0229
1745.00,0.0230
1744.00,0.0231
1743.00,0.0231
1742.00,0.0232
1741.00,0.0234
1740.00,0.0234
1739.00,0.0234
1738.00,0.0234
1737.00,0.0236
1736.00,0.0238
1735.00,0.0239
1734.00,0.0238
1733.00,0.0237
1732.00,0.0238
1731.00,0.0239
1730.00,0.0241
1729.00,0.0242
1728.00,0.0243
1727.00,0.0244
1726.00,0.0244
1725.00,0.0245
1724.00,0.0246
1723.00,0.0247
1722.00,0.0248
1721.00,0.0249
1720.00,0.0249
1719.00,0.0249
1718.00,0.0249
1717.00,0.0250
1716.00,0.0252
1715.00,0.0253
1714.00,0.0255
1713.00,0.0256
1712.00,0.0257
1711.00,0.0257
1710.00,0.0257
1709.00,0.0257
1708.00,0.0258
1707.00,0.0258
1706.00,0.0259
1705.00,0.0258
1704.00,0.0259
1703.00,0.0261
1702.00,0.0264
1701.00,0.0264
1700.00,0.0263
1699.00,0.0262
1698.00,0.0264
1697.00,0.0266
1696.00,0.0266
1695.00,0.0263
1694.00,0.0262
1693.00,0.0263
1692.00,0.0263
1691.00,0.0263
1690.00,0.0262
1689.00,0.0262
1688.00,0.0262
1687.00,0.0262
1686.00,0.0262
1685.00,0.0261
1684.00,0.0260
1683.00,0.0258
1682.00,0.0259
1681.00,0.0260
1680.00,0.0259
1679.00,0.0260
1678.00,0.0261
1677.00,0.0263
1676.00,0.0265
1675.00,0.0265
1674.00,0.0264
1673.00,0.0264
1672.00,0.0264
1671.00,0.0263
1670.00,0.0263
1669.00,0.0262
1668.00,0.0262
1667.00,0.0263
1666.00,0.0264
1665.00,0.0265
1664.00,0.0265
1663.00,0.0264
1662.00,0.0264
1661.00,0.0265
1660.00,0.0267
1659.00,0.0269
1658.00,0.0269
1657.00,0.0269
1656.00,0.0268
1655.00,0.0267
1654.00,0.0268
1653.00,0.0270
1652.00,0.0270
1651.00,0.0271
1650.00,0.0273
1649.00,0.0273
1648.00,0.0273
1647.00,0.0274
1646.00,0.0275
1645.00,0.0277
1644.00,0.0278
1643.00,0.0279
1642.00,0.0279
1641.00,0.0279
1640.00,0.0279
1639.00,0.0279
1638.00,0.0280
1637.00,0.0281
1636.00,0.0284
1635.00,0.0286
1634.00,0.0286
1633.00,0.0286
1632.00,0.0286
1631.00,0.0286
1630.00,0.0287
1629.00,0.0288
1628.00,0.0288
1627.00,0.0290
1626.00,0.0292
1625.00,0.0294
1624.00,0.0296
1623.00,0.0297
1622.00,0.0297
1621.00,0.0298
1620.00,0.0299
1619.00,0.0301
1618.00,0.0302
1617.00,0.0303
1616.00,0.0304
1615.00,0.0305
1614.00,0.0306
1613.00,0.0307
1612.00,0.0307
1611.00,0.0308
1610.00,0.0309
1609.00,0.0309
1608.00,0.0310
1607.00,0.0311
1606.00,0.0313
1605.00,0.0315
1604.00,0.0316
1603.00,0.0316
1602.00,0.0316
1601.00,0.0316
1600.00,0.0316
1599.00,0.0317
1598.00,0.0318
1597.00,0.0320
1596.00,0.0321
1595.00,0.0323
1594.00,0.0323
1593.00,0.0324
1592.00,0.0325
1591.00,0.0325
1590.00,0.0326
1589.00,0.0327
1588.00,0.0328
1587.00,0.0330
1586.00,0.0332
1585.00,0.0332
1584.00,0.0333
1583.00,0.0334
1582.00,0.0334
1581.00,0.0334
1580.00,0.0335
1579.00,0.0336
1578.00,0.0338
1577.00,0.0341
1576.00,0.0342
1575.00,0.0341
1574.00,0.0341
1573.00,0.0341
1572.00,0.0342
1571.00,0.0343
1570.00,0.0344
1569.00,0.0344
1568.00,0.0344
1567.00,0.0345
1566.00,0.0346
1565.00,0.0345
1564.00,0.0344
1563.00,0.0344
1562.00,0.0344
1561.00,0.0343
1560.00,0.0345
1559.00,0.0350
1558.00,0.0350
1557.00,0.0349
1556.00,0.0349
1555.00,0.0349
1554.00,0.0349
1553.00,0.0349
1552.00,0.0349
1551.00,0.0349
1550.00,0.0348
1549.00,0.0347
1548.00,0.0346
1547.00,0.0345
1546.00,0.0344
1545.00,0.0343
1544.00,0.0342
1543.00,0.0341
1542.00,0.0340
1541.00,0.0340
1540.00,0.0340
1539.00,0.0338
1538.00,0.0337
1537.00,0.0337
1536.00,0.0338
1535.00,0.0338
1534.00,0.0339
1533.00,0.0339
1532.00,0.0339
1531.00,0.0339
1530.00,0.0339
1529.00,0.0339
1528.00,0.0339
1527.00,0.0337
1526.00,0.0336
1525.00,0.0334
1524.00,0.0334
1523.00,0.0334
1522.00,0.0334
1521.00,0.0334
1520.00,0.0335
1519.00,0.0336
1518.00,0.0336
1517.00,0.0334
1516.00,0.0332
1515.00,0.0331
1514.00,0.0331
1513.00,0.0331
1512.00,0.0330
1511.00,0.0328
1510.00,0.0327
1509.00,0.0326
1508.00,0.0328
1507.00,0.0330
1506.00,0.0329
1505.00,0.0328
1504.00,0.0328
1503.00,0.0327
1502.00,0.0325
1501.00,0.0323
1500.00,0.0323
1499.00,0.0323
1498.00,0.0324
1497.00,0.0326
1496.00,0.0326
1495.00,0.0325
1494.00,0.0323
1493.00,0.0321
1492.00,0.0320
1491.00,0.0319
1490.00,0.0319
1489.00,0.0320
1488.00,0.0320
1487.00,0.0320
1486.00,0.0319
1485.00,0.0318
1484.00,0.0317
1483.00,0.0317
1482.00,0.0316
1481.00,0.0316
1480.00,0.0316
1479.00,0.0315
1478.00,0.0314
1477.00,0.0314
1476.00,0.0313
1475.00,0.0313
1474.00,0.0313
1473.00,0.0314
1472.00,0.0315
1471.00,0.0315
1470.00,0.0316
1469.00,0.0316
1468.00,0.0316
1467.00,0.0316
1466.00,0.0314
1465.00,0.0313
1464.00,0.0312
1463.00,0.0311
1462.00,0.0310
1461.00,0.0310
1460.00,0.0309
1459.00,0.0309
1458.00,0.0310
1457.00,0.0313
1456.00,0.0313
1455.00,0.0313
1454.00,0.0314
1453.00,0.0313
1452.00,0.0314
1451.00,0.0314
1450.00,0.0315
1449.00,0.0317
1448.00,0.0319
1447.00,0.0320
1446.00,0.0321
1445.00,0.0321
1444.00,0.0321
1443.00,0.0320
1442.00,0.0319
1441.00,0.0319
1440.00,0.0320
1439.00,0.0322
1438.00,0.0323
1437.00,0.0325
1436.00,0.0325
1435.00,0.0325
1434.00,0.0324
1433.00,0.0323
1432.00,0.0323
1431.00,0.0323
1430.00,0.0323
1429.00,0.0323
1428.00,0.0323
1427.00,0.0323
1426.00,0.0324
1425.00,0.0324
1424.00,0.0324
1423.00,0.0324
1422.00,0.0325
1421.00,0.0326
1420.00,0.0327
1419.00,0.0328
1418.00,0.0329
1417.00,0.0329
1416.00,0.0329
1415.00,0.0329
1414.00,0.0328
1413.00,0.0327
1412.00,0.0326
1411.00,0.0325
1410.00,0.0325
1409.00,0.0325
1408.00,0.0325
1407.00,0.0325
1406.00,0.0325
1405.00,0.0324
1404.00,0.0323
1403.00,0.0322
1402.00,0.0321
1401.00,0.0321
1400.00,0.0320
1399.00,0.0319
1398.00,0.0319
1397.00,0.0320
1396.00,0.0321
1395.00,0.0322
1394.00,0.0322
1393.00,0.0322
1392.00,0.0322
1391.00,0.0322
1390.00,0.0322
1389.00,0.0322
1388.00,0.0323
1387.00,0.0323
1386.00,0.0323
1385.00,0.0322
1384.00,0.0322
1383.00,0.0322
1382.00,0.0323
1381.00,0.0324
1380.00,0.0325
1379.00,0.0326
1378.00,0.0327
1377.00,0.0328
1376.00,0.0329
1375.00,0.0331
1374.00,0.0331
1373.00,0.0332
1372.00,0.0333
1371.00,0.0334
1370.00,0.0334
1369.00,0.0335
1368.00,0.0336
1367.00,0.0336
1366.00,0.0336
1365.00,0.0336
1364.00,0.0337
1363.00,0.0337
1362.00,0.0339
1361.00,0.0340
1360.00,0.0340
1359.00,0.0341
1358.00,0.0341
1357.00,0.0342
1356.00,0.0342
1355.00,0.0343
1354.00,0.0343
1353.00,0.0343
1352.00,0.0343
1351.00,0.0343
1350.00,0.0343
1349.00,0.0343
1348.00,0.0343
1347.00,0.0343
1346.00,0.0343
1345.00,0.0343
1344.00,0.0343
1343.00,0.0343
1342.00,0.0343
1341.00,0.0343
1340.00,0.0344
1339.00,0.0345
1338.00,0.0346
1337.00,0.0345
1336.00,0.0345
1335.00,0.0345
1334.00,0.0344
1333.00,0.0344
1332.00,0.0345
1331.00,0.0345
1330.00,0.0345
1329.00,0.0345
1328.00,0.0345
1327.00,0.0345
1326.00,0.0344
1325.00,0.0345
1324.00,0.0345
1323.00,0.0346
1322.00,0.0347
1321.00,0.0347
1320.00,0.0348
1319.00,0.0348
1318.00,0.0347
1317.00,0.0345
1316.00,0.0344
1315.00,0.0344
1314.00,0.0344
1313.00,0.0345
1312.00,0.0346
1311.00,0.0347
1310.00,0.0348
1309.00,0.0348
1308.00,0.0348
1307.00,0.0348
1306.00,0.0348
1305.00,0.0348
1304.00,0.0348
1303.00,0.0349
1302.00,0.0349
1301.00,0.0350
1300.00,0.0349
1299.00,0.0349
1298.00,0.0348
1297.00,0.0348
1296.00,0.0348
1295.00,0.0349
1294.00,0.0349
1293.00,0.0350
1292.00,0.0350
1291.00,0.0351
1290.00,0.0351
1289.00,0.0351
1288.00,0.0351
1287.00,0.0350
1286.00,0.0350
1285.00,0.0351
1284.00,0.0351
1283.00,0.0352
1282.00,0.0352
1281.00,0.0352
1280.00,0.0351
1279.00,0.0351
1278.00,0.0350
1277.00,0.0350
1276.00,0.0350
1275.00,0.0350
1274.00,0.0351
1273.00,0.0350
1272.00,0.0350
1271.00,0.0350
1270.00,0.0349
1269.00,0.0349
1268.00,0.0349
1267.00,0.0349
1266.00,0.0350
1265.00,0.0351
1264.00,0.0351
1263.00,0.0350
1262.00,0.0349
1261.00,0.0349
1260.00,0.0349
1259.00,0.0350
1258.00,0.0350
1257.00,0.0350
1256.00,0.0349
1255.00,0.0349
1254.00,0.0349
1253.00,0.0350
1252.00,0.0351
1251.00,0.0351
1250.00,0.0351
1249.00,0.0351
1248.00,0.0352
1247.00,0.0353
1246.00,0.0354
1245.00,0.0355
1244.00,0.0356
1243.00,0.0355
1242.00,0.0354
1241.00,0.0353
1240.00,0.0353
1239.00,0.0354
1238.00,0.0355
1237.00,0.0357
1236.00,0.0358
1235.00,0.0358
1234.00,0.0358
1233.00,0.0358
1232.00,0.0358
1231.00,0.0357
1230.00,0.0357
1229.00,0.0357
1228.00,0.0358
1227.00,0.0359
1226.00,0.0359
1225.00,0.0359
1224.00,0.0359
1223.00,0.0359
1222.00,0.0360
1221.00,0.0360
1220.00,0.0360
1219.00,0.0360
1218.00,0.0360
1217.00,0.0360
1216.00,0.0360
1215.00,0.0360
1214.00,0.0360
1213.00,0.0360
1212.00,0.0361
1211.00,0.0362
1210.00,0.0363
1209.00,0.0363
1208.00,0.0362
1207.00,0.0362
1206.00,0.0361
1205.00,0.0361
1204.00,0.0360
1203.00,0.0361
1202.00,0.0361
1201.00,0.0361
1200.00,0.0361
1199.00,0.0361
1198.00,0.0361
1197.00,0.0360
1196.00,0.0359
1195.00,0.0359
1194.00,0.0359
1193.00,0.0359
1192.00,0.0360
1191.00,0.0360
1190.00,0.0359
1189.00,0.0357
1188.00,0.0356
1187.00,0.0355
1186.00,0.0354
1185.00,0.0354
1184.00,0.0353
1183.00,0.0353
1182.00,0.0352
1181.00,0.0351
1180.00,0.0349
1179.00,0.0348
1178.00,0.0348
1177.00,0.0348
1176.00,0.0348
1175.00,0.0348
1174.00,0.0348
1173.00,0.0347
1172.00,0.0346
1171.00,0.0345
1170.00,0.0344
1169.00,0.0343
1168.00,0.0342
1167.00,0.0341
1166.00,0.0341
1165.00,0.0341
1164.00,0.0341
1163.00,0.0341
1162.00,0.0341
1161.00,0.0341
1160.00,0.0342
1159.00,0.0342
1158.00,0.0341
1157.00,0.0340
1156.00,0.0340
1155.00,0.0341
1154.00,0.0341
1153.00,0.0340
1152.00,0.0339
1151.00,0.0338
1150.00,0.0337
1149.00,0.0336
1148.00,0.0335
1147.00,0.0335
1146.00,0.0335
1145.00,0.0336
1144.00,0.0337
1143.00,0.0339
1142.00,0.0340
1141.00,0.0340
1140.00,0.0340
1139.00,0.0340
1138.00,0.0339
1137.00,0.0339
1136.00,0.0340
1135.00,0.0341
1134.00,0.0342
1133.00,0.0342
1132.00,0.0342
1131.00,0.0341
1130.00,0.0342
1129.00,0.0344
1128.00,0.0345
1127.00,0.0344
1126.00,0.0342
1125.00,0.0339
1124.00,0.0338
1123.00,0.0339
1122.00,0.0343
1121.00,0.0346
1120.00,0.0348
1119.00,0.0349
1118.00,0.0349
1117.00,0.0349
1116.00,0.0349
1115.00,0.0350
1114.00,0.0350
1113.00,0.0349
1112.00,0.0348
1111.00,0.0348
1110.00,0.0349
1109.00,0.0349
1108.00,0.0350
1107.00,0.0349
1106.00,0.0347
1105.00,0.0345
1104.00,0.0345
1103.00,0.0346
1102.00,0.0348
1101.00,0.0349
1100.00,0.0349
1099.00,0.0349
1098.00,0.0348
1097.00,0.0347
1096.00,0.0345
1095.00,0.0344
1094.00,0.0342
1093.00,0.0342
1092.00,0.0342
1091.00,0.0342
1090.00,0.0341
1089.00,0.0340
1088.00,0.0339
1087.00,0.0339
1086.00,0.0341
1085.00,0.0342
1084.00,0.0342
1083.00,0.0343
1082.00,0.0343
1081.00,0.0344
1080.00,0.0345
1079.00,0.0347
1078.00,0.0349
1077.00,0.0351
1076.00,0.0352
1075.00,0.0350
1074.00,0.0348
1073.00,0.0346
1072.00,0.0345
1071.00,0.0344
1070.00,0.0343
1069.00,0.0341
1068.00,0.0341
1067.00,0.0342
1066.00,0.0344
1065.00,0.0347
1064.00,0.0350
1063.00,0.0351
1062.00,0.0352
1061.00,0.0350
1060.00,0.0348
1059.00,0.0348
1058.00,0.0349
1057.00,0.0351
1056.00,0.0353
1055.00,0.0355
1054.00,0.0357
1053.00,0.0359
1052.00,0.0359
1051.00,0.0358
1050.00,0.0357
1049.00,0.0357
1048.00,0.0359
1047.00,0.0360
1046.00,0.0361
1045.00,0.0361
1044.00,0.0362
1043.00,0.0362
1042.00,0.0361
1041.00,0.0360
1040.00,0.0359
1039.00,0.0359
1038.00,0.0360
1037.00,0.0362
1036.00,0.0362
1035.00,0.0363
1034.00,0.0363
1033.00,0.0364
1032.00,0.0365
1031.00,0.0364
1030.00,0.0363
1029.00,0.0361
1028.00,0.0359
1027.00,0.0359
1026.00,0.0360
1025.00,0.0361
1024.00,0.0362
1023.00,0.0362
1022.00,0.0361
1021.00,0.0361
1020.00,0.0361
1019.00,0.0360
1018.00,0.0360
1017.00,0.0359
1016.00,0.0360
1015.00,0.0362
1014.00,0.0364
1013.00,0.0366
1012.00,0.0366
1011.00,0.0365
1010.00,0.0365
1009.00,0.0364
1008.00,0.0363
1007.00,0.0362
1006.00,0.0361
1005.00,0.0361
1004.00,0.0361
1003.00,0.0362
1002.00,0.0363
1001.00,0.0363
1000.00,0.0362
999.00,0.0360
998.00,0.0358
997.00,0.0358
996.00,0.0359
995.00,0.0361
994.00,0.0361
993.00,0.0359
992.00,0.0356
991.00,0.0355
990.00,0.0355
989.00,0.0355
988.00,0.0356
987.00,0.0357
986.00,0.0359
985.00,0.0359
984.00,0.0358
983.00,0.0356
982.00,0.0354
981.00,0.0354
980.00,0.0355
979.00,0.0356
978.00,0.0356
977.00,0.0354
976.00,0.0352
975.00,0.0350
974.00,0.0349
973.00,0.0349
972.00,0.0348
971.00,0.0346
970.00,0.0344
969.00,0.0342
968.00,0.0341
967.00,0.0341
966.00,0.0341
965.00,0.0341
964.00,0.0340
963.00,0.0340
962.00,0.0341
961.00,0.0340
960.00,0.0339
959.00,0.0339
958.00,0.0338
957.00,0.0339
956.00,0.0339
955.00,0.0339
954.00,0.0338
953.00,0.0337
952.00,0.0338
951.00,0.0339
950.00,0.0339
949.00,0.0340
948.00,0.0339
947.00,0.0339
946.00,0.0338
945.00,0.0339
944.00,0.0339
943.00,0.0338
942.00,0.0337
941.00,0.0335
940.00,0.0336
939.00,0.0337
938.00,0.0339
937.00,0.0340
936.00,0.0339
935.00,0.0338
934.00,0.0338
933.00,0.0340
932.00,0.0344
931.00,0.0346
930.00,0.0347
929.00,0.0347
928.00,0.0347
927.00,0.0348
926.00,0.0349
925.00,0.0349
924.00,0.0350
923.00,0.0349
922.00,0.0348
921.00,0.0348
920.00,0.0348
919.00,0.0349
918.00,0.0350
917.00,0.0351
916.00,0.0353
915.00,0.0354
914.00,0.0354
913.00,0.0354
912.00,0.0353
911.00,0.0353
910.00,0.0351
909.00,0.0349
908.00,0.0347
907.00,0.0346
906.00,0.0348
905.00,0.0352
904.00,0.0356
903.00,0.0360
902.00,0.0361
901.00,0.0359
900.00,0.0357
899.00,0.0357
898.00,0.0359
897.00,0.0361
896.00,0.0363
895.00,0.0363
894.00,0.0363
893.00,0.0361
892.00,0.0359
891.00,0.0358
890.00,0.0358
889.00,0.0359
888.00,0.0360
887.00,0.0359
886.00,0.0358
885.00,0.0357
884.00,0.0359
883.00,0.0362
882.00,0.0365
881.00,0.0366
880.00,0.0365
879.00,0.0365
878.00,0.0362
877.00,0.0359
876.00,0.0357
875.00,0.0356
874.00,0.0356
873.00,0.0357
872.00,0.0357
871.00,0.0358
870.00,0.0358
869.00,0.0357
868.00,0.0356
867.00,0.0353
866.00,0.0352
865.00,0.0352
864.00,0.0354
863.00,0.0355
862.00,0.0356
861.00,0.0357
860.00,0.0356
859.00,0.0354
858.00,0.0352
857.00,0.0350
856.00,0.0351
855.00,0.0352
854.00,0.0354
853.00,0.0354
852.00,0.0354
851.00,0.0354
850.00,0.0357
849.00,0.0360
848.00,0.0363
847.00,0.0365
846.00,0.0366
845.00,0.0366
844.00,0.0366
843.00,0.0366
842.00,0.0365
841.00,0.0363
840.00,0.0362
839.00,0.0361
838.00,0.0360
837.00,0.0360
836.00,0.0361
835.00,0.0361
834.00,0.0360
833.00,0.0359
832.00,0.0358
831.00,0.0358
830.00,0.0358
829.00,0.0359
828.00,0.0360
827.00,0.0363
826.00,0.0364
825.00,0.0366
824.00,0.0367
823.00,0.0367
822.00,0.0368
821.00,0.0370
820.00,0.0371
819.00,0.0371
818.00,0.0370
817.00,0.0367
816.00,0.0364
815.00,0.0362
814.00,0.0364
813.00,0.0367
812.00,0.0370
811.00,0.0371
810.00,0.0371
809.00,0.0371
808.00,0.0372
807.00,0.0372
806.00,0.0370
805.00,0.0367
804.00,0.0365
803.00,0.0365
802.00,0.0367
801.00,0.0371
800.00,0.0375
799.00,0.0378
798.00,0.0378
797.00,0.0375
796.00,0.0371
795.00,0.0370
794.00,0.0369
793.00,0.0369
792.00,0.0368
791.00,0.0370
790.00,0.0372
789.00,0.0373
788.00,0.0372
787.00,0.0373
786.00,0.0374
785.00,0.0377
784.00,0.0379
783.00,0.0381
782.00,0.0382
781.00,0.0382
780.00,0.0380
779.00,0.0379
778.00,0.0379
777.00,0.0380
776.00,0.0382
775.00,0.0383
774.00,0.0384
773.00,0.0384
772.00,0.0384
771.00,0.0383
770.00,0.0383
769.00,0.0384
768.00,0.0384
767.00,0.0382
766.00,0.0379
765.00,0.0378
764.00,0.0378
763.00,0.0379
762.00,0.0379
761.00,0.0378
760.00,0.0378
759.00,0.0379
758.00,0.0382
757.00,0.0383
756.00,0.0385
755.00,0.0385
754.00,0.0385
753.00,0.0385
752.00,0.0385
751.00,0.0387
750.00,0.0388
749.00,0.0390
748.00,0.0392
747.00,0.0394
746.00,0.0394
745.00,0.0391
744.00,0.0388
743.00,0.0388
742.00,0.0389
741.00,0.0390
740.00,0.0389
739.00,0.0386
738.00,0.0382
737.00,0.0380
736.00,0.0380
735.00,0.0381
734.00,0.0383
733.00,0.0383
732.00,0.0384
731.00,0.0385
730.00,0.0387
729.00,0.0389
728.00,0.0392
727.00,0.0395
726.00,0.0397
725.00,0.0397
724.00,0.0395
723.00,0.0394
722.00,0.0394
721.00,0.0396
720.00,0.0397
719.00,0.0397
718.00,0.0395
717.00,0.0393
716.00,0.0392
715.00,0.0391
714.00,0.0392
713.00,0.0394
712.00,0.0396
711.00,0.0397
710.00,0.0396
709.00,0.0395
708.00,0.0394
707.00,0.0394
706.00,0.0395
705.00,0.0398
704.00,0.0400
703.00,0.0403
702.00,0.0404
701.00,0.0403
700.00,0.0400
699.00,0.0398
698.00,0.0396
697.00,0.0395
696.00,0.0396
695.00,0.0398
694.00,0.0401
693.00,0.0405
692.00,0.0408
691.00,0.0409
690.00,0.0408
689.00,0.0406
688.00,0.0404
687.00,0.0401
686.00,0.0398
685.00,0.0397
684.00,0.0397
683.00,0.0397
682.00,0.0394
681.00,0.0393
680.00,0.0393
679.00,0.0394
678.00,0.0395
677.00,0.0394
676.00,0.0393
675.00,0.0394
674.00,0.0395
673.00,0.0398
672.00,0.0403
671.00,0.0409
670.00,0.0414
669.00,0.0415
668.00,0.0414
667.00,0.0416
666.00,0.0417
665.00,0.0417
664.00,0.0415
663.00,0.0413
662.00,0.0412
661.00,0.0410
660.00,0.0407
659.00,0.0405
658.00,0.0407
657.00,0.0409
656.00,0.0406
655.00,0.0399
654.00,0.0393
653.00,0.0386
652.00,0.0384
651.00,0.0387
650.00,0.0390
