Created as New Dataset,Monday, April 03 2023
cm-1,A
4000.00,0.0199
3999.00,0.0199
3998.00,0.0199
3997.00,0.0199
3996.00,0.0199
3995.00,0.0199
3994.00,0.0198
3993.00,0.0198
3992.00,0.0198
3991.00,0.0198
3990.00,0.0198
3989.00,0.0198
3988.00,0.0197
3987.00,0.0197
3986.00,0.0197
3985.00,0.0197
3984.00,0.0197
3983.00,0.0197
3982.00,0.0197
3981.00,0.0197
3980.00,0.0197
3979.00,0.0196
3978.00,0.0196
3977.00,0.0196
3976.00,0.0196
3975.00,0.0196
3974.00,0.0196
3973.00,0.0196
3972.00,0.0197
3971.00,0.0197
3970.00,0.0198
3969.00,0.0197
3968.00,0.0197
3967.00,0.0196
3966.00,0.0195
3965.00,0.0195
3964.00,0.0196
3963.00,0.0197
3962.00,0.0197
3961.00,0.0197
3960.00,0.0197
3959.00,0.0196
3958.00,0.0196
3957.00,0.0195
3956.00,0.0195
3955.00,0.0195
3954.00,0.0195
3953.00,0.0195
3952.00,0.0195
3951.00,0.0196
3950.00,0.0197
3949.00,0.0197
3948.00,0.0198
3947.00,0.0198
3946.00,0.0199
3945.00,0.0198
3944.00,0.0197
3943.00,0.0195
3942.00,0.0194
3941.00,0.0194
3940.00,0.0194
3939.00,0.0194
3938.00,0.0194
3937.00,0.0194
3936.00,0.0194
3935.00,0.0194
3934.00,0.0194
3933.00,0.0194
3932.00,0.0195
3931.00,0.0195
3930.00,0.0196
3929.00,0.0196
3928.00,0.0196
3927.00,0.0196
3926.00,0.0195
3925.00,0.0194
3924.00,0.0195
3923.00,0.0195
3922.00,0.0196
3921.00,0.0196
3920.00,0.0195
3919.00,0.0195
3918.00,0.0196
3917.00,0.0196
3916.00,0.0195
3915.00,0.0195
3914.00,0.0194
3913.00,0.0193
3912.00,0.0192
3911.00,0.0191
3910.00,0.0191
3909.00,0.0192
3908.00,0.0193
3907.00,0.0194
3906.00,0.0195
3905.00,0.0195
3904.00,0.0196
3903.00,0.0198
3902.00,0.0200
3901.00,0.0201
3900.00,0.0200
3899.00,0.0198
3898.00,0.0196
3897.00,0.0195
3896.00,0.0193
3895.00,0.0193
3894.00,0.0193
3893.00,0.0193
3892.00,0.0193
3891.00,0.0192
3890.00,0.0191
3889.00,0.0192
3888.00,0.0193
3887.00,0.0191
3886.00,0.0190
3885.00,0.0190
3884.00,0.0192
3883.00,0.0194
3882.00,0.0194
3881.00,0.0192
3880.00,0.0191
3879.00,0.0191
3878.00,0.0193
3877.00,0.0194
3876.00,0.0194
3875.00,0.0192
3874.00,0.0191
3873.00,0.0192
3872.00,0.0193
3871.00,0.0193
3870.00,0.0192
3869.00,0.0192
3868.00,0.0193
3867.00,0.0194
3866.00,0.0194
3865.00,0.0193
3864.00,0.0193
3863.00,0.0194
3862.00,0.0194
3861.00,0.0193
3860.00,0.0191
3859.00,0.0190
3858.00,0.0190
3857.00,0.0191
3856.00,0.0191
3855.00,0.0190
3854.00,0.0189
3853.00,0.0190
3852.00,0.0192
3851.00,0.0193
3850.00,0.0191
3849.00,0.0189
3848.00,0.0187
3847.00,0.0187
3846.00,0.0187
3845.00,0.0187
3844.00,0.0187
3843.00,0.0188
3842.00,0.0189
3841.00,0.0191
3840.00,0.0192
3839.00,0.0192
3838.00,0.0192
3837.00,0.0192
3836.00,0.0192
3835.00,0.0192
3834.00,0.0192
3833.00,0.0191
3832.00,0.0189
3831.00,0.0188
3830.00,0.0188
3829.00,0.0189
3828.00,0.0188
3827.00,0.0187
3826.00,0.0186
3825.00,0.0187
3824.00,0.0190
3823.00,0.0191
3822.00,0.0190
3821.00,0.0188
3820.00,0.0189
3819.00,0.0191
3818.00,0.0191
3817.00,0.0189
3816.00,0.0187
3815.00,0.0186
3814.00,0.0188
3813.00,0.0188
3812.00,0.0186
3811.00,0.0184
3810.00,0.0184
3809.00,0.0184
3808.00,0.0184
3807.00,0.0183
3806.00,0.0185
3805.00,0.0188
3804.00,0.0191
3803.00,0.0191
3802.00,0.0188
3801.00,0.0187
3800.00,0.0188
3799.00,0.0189
3798.00,0.0188
3797.00,0.0186
3796.00,0.0185
3795.00,0.0184
3794.00,0.0185
3793.00,0.0185
3792.00,0.0184
3791.00,0.0184
3790.00,0.0184
3789.00,0.0184
3788.00,0.0184
3787.00,0.0185
3786.00,0.0185
3785.00,0.0185
3784.00,0.0185
3783.00,0.0186
3782.00,0.0186
3781.00,0.0185
3780.00,0.0184
3779.00,0.0183
3778.00,0.0183
3777.00,0.0183
3776.00,0.0183
3775.00,0.0182
3774.00,0.0182
3773.00,0.0182
3772.00,0.0183
3771.00,0.0182
3770.00,0.0182
3769.00,0.0182
3768.00,0.0183
3767.00,0.0184
3766.00,0.0183
3765.00,0.0182
3764.00,0.0183
3763.00,0.0184
3762.00,0.0185
3761.00,0.0184
3760.00,0.0184
3759.00,0.0183
3758.00,0.0183
3757.00,0.0182
3756.00,0.0182
3755.00,0.0182
3754.00,0.0182
3753.00,0.0180
3752.00,0.0180
3751.00,0.0181
3750.00,0.0183
3749.00,0.0185
3748.00,0.0187
3747.00,0.0191
3746.00,0.0191
3745.00,0.0187
3744.00,0.0183
3743.00,0.0183
3742.00,0.0183
3741.00,0.0184
3740.00,0.0184
3739.00,0.0185
3738.00,0.0186
3737.00,0.0187
3736.00,0.0187
3735.00,0.0188
3734.00,0.0188
3733.00,0.0187
3732.00,0.0184
3731.00,0.0182
3730.00,0.0181
3729.00,0.0181
3728.00,0.0181
3727.00,0.0180
3726.00,0.0180
3725.00,0.0181
3724.00,0.0181
3723.00,0.0181
3722.00,0.0181
3721.00,0.0181
3720.00,0.0181
3719.00,0.0181
3718.00,0.0180
3717.00,0.0179
3716.00,0.0179
3715.00,0.0180
3714.00,0.0181
3713.00,0.0181
3712.00,0.0182
3711.00,0.0183
3710.00,0.0183
3709.00,0.0181
3708.00,0.0180
3707.00,0.0179
3706.00,0.0180
3705.00,0.0181
3704.00,0.0181
3703.00,0.0180
3702.00,0.0179
3701.00,0.0179
3700.00,0.0180
3699.00,0.0180
3698.00,0.0180
3697.00,0.0179
3696.00,0.0178
3695.00,0.0178
3694.00,0.0178
3693.00,0.0178
3692.00,0.0179
3691.00,0.0182
3690.00,0.0184
3689.00,0.0185
3688.00,0.0184
3687.00,0.0182
3686.00,0.0181
3685.00,0.0179
3684.00,0.0178
3683.00,0.0177
3682.00,0.0177
3681.00,0.0176
3680.00,0.0176
3679.00,0.0176
3678.00,0.0177
3677.00,0.0178
3676.00,0.0178
3675.00,0.0178
3674.00,0.0180
3673.00,0.0182
3672.00,0.0183
3671.00,0.0182
3670.00,0.0182
3669.00,0.0184
3668.00,0.0184
3667.00,0.0183
3666.00,0.0182
3665.00,0.0181
3664.00,0.0181
3663.00,0.0181
3662.00,0.0182
3661.00,0.0183
3660.00,0.0185
3659.00,0.0187
3658.00,0.0189
3657.00,0.0189
3656.00,0.0190
3655.00,0.0191
3654.00,0.0194
3653.00,0.0197
3652.00,0.0198
3651.00,0.0197
3650.00,0.0200
3649.00,0.0204
3648.00,0.0207
3647.00,0.0207
3646.00,0.0206
3645.00,0.0205
3644.00,0.0205
3643.00,0.0204
3642.00,0.0204
3641.00,0.0205
3640.00,0.0205
3639.00,0.0206
3638.00,0.0207
3637.00,0.0208
3636.00,0.0209
3635.00,0.0210
3634.00,0.0211
3633.00,0.0213
3632.00,0.0216
3631.00,0.0218
3630.00,0.0220
3629.00,0.0222
3628.00,0.0225
3627.00,0.0226
3626.00,0.0226
3625.00,0.0224
3624.00,0.0223
3623.00,0.0223
3622.00,0.0225
3621.00,0.0228
3620.00,0.0231
3619.00,0.0233
3618.00,0.0235
3617.00,0.0236
3616.00,0.0237
3615.00,0.0237
3614.00,0.0237
3613.00,0.0237
3612.00,0.0238
3611.00,0.0240
3610.00,0.0241
3609.00,0.0243
3608.00,0.0244
3607.00,0.0245
3606.00,0.0245
3605.00,0.0243
3604.00,0.0242
3603.00,0.0243
3602.00,0.0244
3601.00,0.0246
3600.00,0.0248
3599.00,0.0249
3598.00,0.0249
3597.00,0.0249
3596.00,0.0250
3595.00,0.0250
3594.00,0.0251
3593.00,0.0251
3592.00,0.0252
3591.00,0.0252
3590.00,0.0253
3589.00,0.0255
3588.00,0.0257
3587.00,0.0260
3586.00,0.0262
3585.00,0.0262
3584.00,0.0262
3583.00,0.0261
3582.00,0.0260
3581.00,0.0260
3580.00,0.0261
3579.00,0.0261
3578.00,0.0262
3577.00,0.0263
3576.00,0.0263
3575.00,0.0264
3574.00,0.0265
3573.00,0.0265
3572.00,0.0266
3571.00,0.0267
3570.00,0.0268
3569.00,0.0270
3568.00,0.0273
3567.00,0.0277
3566.00,0.0280
3565.00,0.0280
3564.00,0.0279
3563.00,0.0277
3562.00,0.0276
3561.00,0.0276
3560.00,0.0277
3559.00,0.0278
3558.00,0.0279
3557.00,0.0280
3556.00,0.0281
3555.00,0.0282
3554.00,0.0283
3553.00,0.0284
3552.00,0.0285
3551.00,0.0286
3550.00,0.0287
3549.00,0.0288
3548.00,0.0289
3547.00,0.0290
3546.00,0.0292
3545.00,0.0293
3544.00,0.0294
3543.00,0.0294
3542.00,0.0294
3541.00,0.0293
3540.00,0.0292
3539.00,0.0292
3538.00,0.0291
3537.00,0.0292
3536.00,0.0293
3535.00,0.0295
3534.00,0.0296
3533.00,0.0298
3532.00,0.0298
3531.00,0.0299
3530.00,0.0299
3529.00,0.0299
3528.00,0.0299
3527.00,0.0300
3526.00,0.0301
3525.00,0.0303
3524.00,0.0305
3523.00,0.0307
3522.00,0.0307
3521.00,0.0307
3520.00,0.0306
3519.00,0.0304
3518.00,0.0304
3517.00,0.0304
3516.00,0.0304
3515.00,0.0305
3514.00,0.0306
3513.00,0.0308
3512.00,0.0310
3511.00,0.0311
3510.00,0.0311
3509.00,0.0312
3508.00,0.0312
3507.00,0.0312
3506.00,0.0313
3505.00,0.0313
3504.00,0.0315
3503.00,0.0317
3502.00,0.0319
3501.00,0.0319
3500.00,0.0319
3499.00,0.0319
3498.00,0.0320
3497.00,0.0320
3496.00,0.0321
3495.00,0.0321
3494.00,0.0321
3493.00,0.0321
3492.00,0.0321
3491.00,0.0322
3490.00,0.0322
3489.00,0.0322
3488.00,0.0323
3487.00,0.0323
3486.00,0.0324
3485.00,0.0325
3484.00,0.0325
3483.00,0.0326
3482.00,0.0327
3481.00,0.0328
3480.00,0.0329
3479.00,0.0329
3478.00,0.0329
3477.00,0.0329
3476.00,0.0330
3475.00,0.0331
3474.00,0.0332
3473.00,0.0333
3472.00,0.0334
3471.00,0.0334
3470.00,0.0335
3469.00,0.0335
3468.00,0.0335
3467.00,0.0336
3466.00,0.0338
3465.00,0.0339
3464.00,0.0339
3463.00,0.0339
3462.00,0.0338
3461.00,0.0338
3460.00,0.0338
3459.00,0.0340
3458.00,0.0341
3457.00,0.0342
3456.00,0.0342
3455.00,0.0342
3454.00,0.0342
3453.00,0.0342
3452.00,0.0343
3451.00,0.0344
3450.00,0.0345
3449.00,0.0345
3448.00,0.0346
3447.00,0.0346
3446.00,0.0347
3445.00,0.0348
3444.00,0.0349
3443.00,0.0349
3442.00,0.0348
3441.00,0.0348
3440.00,0.0347
3439.00,0.0347
3438.00,0.0347
3437.00,0.0348
3436.00,0.0349
3435.00,0.0349
3434.00,0.0349
3433.00,0.0349
3432.00,0.0350
3431.00,0.0351
3430.00,0.0352
3429.00,0.0352
3428.00,0.0352
3427.00,0.0352
3426.00,0.0353
3425.00,0.0354
3424.00,0.0355
3423.00,0.0356
3422.00,0.0357
3421.00,0.0358
3420.00,0.0358
3419.00,0.0358
3418.00,0.0358
3417.00,0.0358
3416.00,0.0358
3415.00,0.0357
3414.00,0.0358
3413.00,0.0358
3412.00,0.0359
3411.00,0.0360
3410.00,0.0361
3409.00,0.0361
3408.00,0.0362
3407.00,0.0362
3406.00,0.0362
3405.00,0.0362
3404.00,0.0362
3403.00,0.0362
3402.00,0.0362
3401.00,0.0363
3400.00,0.0363
3399.00,0.0364
3398.00,0.0364
3397.00,0.0365
3396.00,0.0365
3395.00,0.0365
3394.00,0.0365
3393.00,0.0365
3392.00,0.0366
3391.00,0.0367
3390.00,0.0367
3389.00,0.0367
3388.00,0.0367
3387.00,0.0367
3386.00,0.0367
3385.00,0.0368
3384.00,0.0368
3383.00,0.0369
3382.00,0.0369
3381.00,0.0370
3380.00,0.0370
3379.00,0.0370
3378.00,0.0371
3377.00,0.0371
3376.00,0.0371
3375.00,0.0371
3374.00,0.0371
3373.00,0.0370
3372.00,0.0370
3371.00,0.0370
3370.00,0.0370
3369.00,0.0370
3368.00,0.0371
3367.00,0.0371
3366.00,0.0371
3365.00,0.0370
3364.00,0.0370
3363.00,0.0371
3362.00,0.0372
3361.00,0.0373
3360.00,0.0374
3359.00,0.0374
3358.00,0.0374
3357.00,0.0373
3356.00,0.0373
3355.00,0.0373
3354.00,0.0374
3353.00,0.0374
3352.00,0.0374
3351.00,0.0374
3350.00,0.0374
3349.00,0.0374
3348.00,0.0374
3347.00,0.0373
3346.00,0.0373
3345.00,0.0372
3344.00,0.0372
3343.00,0.0372
3342.00,0.0373
3341.00,0.0374
3340.00,0.0375
3339.00,0.0375
3338.00,0.0375
3337.00,0.0375
3336.00,0.0375
3335.00,0.0374
3334.00,0.0374
3333.00,0.0374
3332.00,0.0374
3331.00,0.0373
3330.00,0.0373
3329.00,0.0372
3328.00,0.0372
3327.00,0.0372
3326.00,0.0373
3325.00,0.0374
3324.00,0.0374
3323.00,0.0375
3322.00,0.0375
3321.00,0.0374
3320.00,0.0373
3319.00,0.0373
3318.00,0.0373
3317.00,0.0374
3316.00,0.0374
3315.00,0.0373
3314.00,0.0373
3313.00,0.0373
3312.00,0.0372
3311.00,0.0372
3310.00,0.0373
3309.00,0.0374
3308.00,0.0375
3307.00,0.0375
3306.00,0.0375
3305.00,0.0374
3304.00,0.0373
3303.00,0.0373
3302.00,0.0373
3301.00,0.0373
3300.00,0.0374
3299.00,0.0373
3298.00,0.0373
3297.00,0.0373
3296.00,0.0373
3295.00,0.0374
3294.00,0.0374
3293.00,0.0373
3292.00,0.0373
3291.00,0.0373
3290.00,0.0373
3289.00,0.0373
3288.00,0.0373
3287.00,0.0374
3286.00,0.0374
3285.00,0.0375
3284.00,0.0375
3283.00,0.0375
3282.00,0.0375
3281.00,0.0374
3280.00,0.0374
3279.00,0.0374
3278.00,0.0374
3277.00,0.0374
3276.00,0.0374
3275.00,0.0374
3274.00,0.0374
3273.00,0.0375
3272.00,0.0375
3271.00,0.0375
3270.00,0.0376
3269.00,0.0376
3268.00,0.0376
3267.00,0.0376
3266.00,0.0375
3265.00,0.0374
3264.00,0.0374
3263.00,0.0374
3262.00,0.0374
3261.00,0.0374
3260.00,0.0374
3259.00,0.0375
3258.00,0.0375
3257.00,0.0374
3256.00,0.0374
3255.00,0.0374
3254.00,0.0374
3253.00,0.0375
3252.00,0.0375
3251.00,0.0375
3250.00,0.0375
3249.00,0.0374
3248.00,0.0374
3247.00,0.0374
3246.00,0.0374
3245.00,0.0374
3244.00,0.0374
3243.00,0.0374
3242.00,0.0374
3241.00,0.0374
3240.00,0.0374
3239.00,0.0374
3238.00,0.0374
3237.00,0.0375
3236.00,0.0376
3235.00,0.0377
3234.00,0.0377
3233.00,0.0377
3232.00,0.0377
3231.00,0.0376
3230.00,0.0376
3229.00,0.0375
3228.00,0.0375
3227.00,0.0375
3226.00,0.0375
3225.00,0.0375
3224.00,0.0375
3223.00,0.0375
3222.00,0.0375
3221.00,0.0375
3220.00,0.0374
3219.00,0.0374
3218.00,0.0374
3217.00,0.0374
3216.00,0.0375
3215.00,0.0376
3214.00,0.0376
3213.00,0.0375
3212.00,0.0374
3211.00,0.0373
3210.00,0.0373
3209.00,0.0373
3208.00,0.0373
3207.00,0.0374
3206.00,0.0374
3205.00,0.0374
3204.00,0.0374
3203.00,0.0374
3202.00,0.0374
3201.00,0.0374
3200.00,0.0374
3199.00,0.0374
3198.00,0.0374
3197.00,0.0373
3196.00,0.0373
3195.00,0.0373
3194.00,0.0373
3193.00,0.0373
3192.00,0.0372
3191.00,0.0372
3190.00,0.0371
3189.00,0.0370
3188.00,0.0369
3187.00,0.0369
3186.00,0.0369
3185.00,0.0369
3184.00,0.0370
3183.00,0.0370
3182.00,0.0370
3181.00,0.0370
3180.00,0.0370
3179.00,0.0369
3178.00,0.0368
3177.00,0.0367
3176.00,0.0367
3175.00,0.0367
3174.00,0.0367
3173.00,0.0368
3172.00,0.0368
3171.00,0.0368
3170.00,0.0367
3169.00,0.0367
3168.00,0.0366
3167.00,0.0366
3166.00,0.0366
3165.00,0.0367
3164.00,0.0367
3163.00,0.0368
3162.00,0.0367
3161.00,0.0367
3160.00,0.0365
3159.00,0.0364
3158.00,0.0363
3157.00,0.0363
3156.00,0.0363
3155.00,0.0363
3154.00,0.0364
3153.00,0.0364
3152.00,0.0364
3151.00,0.0364
3150.00,0.0363
3149.00,0.0363
3148.00,0.0362
3147.00,0.0362
3146.00,0.0362
3145.00,0.0362
3144.00,0.0361
3143.00,0.0361
3142.00,0.0361
3141.00,0.0360
3140.00,0.0360
3139.00,0.0359
3138.00,0.0360
3137.00,0.0360
3136.00,0.0360
3135.00,0.0360
3134.00,0.0359
3133.00,0.0359
3132.00,0.0358
3131.00,0.0358
3130.00,0.0358
3129.00,0.0358
3128.00,0.0357
3127.00,0.0357
3126.00,0.0357
3125.00,0.0356
3124.00,0.0356
3123.00,0.0356
3122.00,0.0355
3121.00,0.0355
3120.00,0.0355
3119.00,0.0355
3118.00,0.0355
3117.00,0.0355
3116.00,0.0355
3115.00,0.0355
3114.00,0.0354
3113.00,0.0354
3112.00,0.0354
3111.00,0.0353
3110.00,0.0353
3109.00,0.0353
3108.00,0.0352
3107.00,0.0352
3106.00,0.0353
3105.00,0.0353
3104.00,0.0353
3103.00,0.0352
3102.00,0.0352
3101.00,0.0351
3100.00,0.0350
3099.00,0.0350
3098.00,0.0350
3097.00,0.0350
3096.00,0.0350
3095.00,0.0351
3094.00,0.0352
3093.00,0.0352
3092.00,0.0351
3091.00,0.0350
3090.00,0.0349
3089.00,0.0348
3088.00,0.0347
3087.00,0.0346
3086.00,0.0347
3085.00,0.0347
3084.00,0.0347
3083.00,0.0347
3082.00,0.0347
3081.00,0.0347
3080.00,0.0347
3079.00,0.0347
3078.00,0.0347
3077.00,0.0347
3076.00,0.0346
3075.00,0.0346
3074.00,0.0346
3073.00,0.0346
3072.00,0.0346
3071.00,0.0345
3070.00,0.0345
3069.00,0.0345
3068.00,0.0345
3067.00,0.0345
3066.00,0.0345
3065.00,0.0344
3064.00,0.0343
3063.00,0.0342
3062.00,0.0342
3061.00,0.0342
3060.00,0.0342
3059.00,0.0342
3058.00,0.0341
3057.00,0.0341
3056.00,0.0341
3055.00,0.0341
3054.00,0.0340
3053.00,0.0340
3052.00,0.0339
3051.00,0.0340
3050.00,0.0340
3049.00,0.0340
3048.00,0.0340
3047.00,0.0340
3046.00,0.0339
3045.00,0.0339
3044.00,0.0338
3043.00,0.0337
3042.00,0.0336
3041.00,0.0334
3040.00,0.0334
3039.00,0.0334
3038.00,0.0334
3037.00,0.0334
3036.00,0.0334
3035.00,0.0334
3034.00,0.0335
3033.00,0.0335
3032.00,0.0334
3031.00,0.0334
3030.00,0.0333
3029.00,0.0331
3028.00,0.0330
3027.00,0.0330
3026.00,0.0329
3025.00,0.0329
3024.00,0.0329
3023.00,0.0329
3022.00,0.0329
3021.00,0.0328
3020.00,0.0328
3019.00,0.0326
3018.00,0.0326
3017.00,0.0325
3016.00,0.0325
3015.00,0.0325
3014.00,0.0324
3013.00,0.0323
3012.00,0.0322
3011.00,0.0321
3010.00,0.0320
3009.00,0.0319
3008.00,0.0316
3007.00,0.0315
3006.00,0.0313
3005.00,0.0312
3004.00,0.0311
3003.00,0.0309
3002.00,0.0308
3001.00,0.0306
3000.00,0.0304
2999.00,0.0303
2998.00,0.0302
2997.00,0.0300
2996.00,0.0299
2995.00,0.0299
2994.00,0.0298
2993.00,0.0297
2992.00,0.0296
2991.00,0.0295
2990.00,0.0294
2989.00,0.0293
2988.00,0.0292
2987.00,0.0290
2986.00,0.0287
2985.00,0.0282
2984.00,0.0278
2983.00,0.0275
2982.00,0.0273
2981.00,0.0273
2980.00,0.0274
2979.00,0.0276
2978.00,0.0279
2977.00,0.0281
2976.00,0.0282
2975.00,0.0283
2974.00,0.0282
2973.00,0.0281
2972.00,0.0280
2971.00,0.0280
2970.00,0.0282
2969.00,0.0283
2968.00,0.0285
2967.00,0.0286
2966.00,0.0287
2965.00,0.0287
2964.00,0.0288
2963.00,0.0289
2962.00,0.0290
2961.00,0.0291
2960.00,0.0291
2959.00,0.0291
2958.00,0.0291
2957.00,0.0291
2956.00,0.0292
2955.00,0.0293
2954.00,0.0294
2953.00,0.0295
2952.00,0.0295
2951.00,0.0295
2950.00,0.0296
2949.00,0.0296
2948.00,0.0296
2947.00,0.0297
2946.00,0.0297
2945.00,0.0297
2944.00,0.0298
2943.00,0.0298
2942.00,0.0299
2941.00,0.0299
2940.00,0.0299
2939.00,0.0298
2938.00,0.0297
2937.00,0.0297
2936.00,0.0298
2935.00,0.0298
2934.00,0.0298
2933.00,0.0298
2932.00,0.0298
2931.00,0.0298
2930.00,0.0298
2929.00,0.0298
2928.00,0.0298
2927.00,0.0298
2926.00,0.0297
2925.00,0.0297
2924.00,0.0297
2923.00,0.0296
2922.00,0.0296
2921.00,0.0295
2920.00,0.0294
2919.00,0.0293
2918.00,0.0292
2917.00,0.0292
2916.00,0.0291
2915.00,0.0291
2914.00,0.0291
2913.00,0.0290
2912.00,0.0290
2911.00,0.0290
2910.00,0.0290
2909.00,0.0290
2908.00,0.0290
2907.00,0.0289
2906.00,0.0289
2905.00,0.0288
2904.00,0.0288
2903.00,0.0287
2902.00,0.0286
2901.00,0.0286
2900.00,0.0286
2899.00,0.0285
2898.00,0.0284
2897.00,0.0284
2896.00,0.0283
2895.00,0.0283
2894.00,0.0283
2893.00,0.0282
2892.00,0.0282
2891.00,0.0282
2890.00,0.0281
2889.00,0.0281
2888.00,0.0281
2887.00,0.0281
2886.00,0.0281
2885.00,0.0281
2884.00,0.0280
2883.00,0.0280
2882.00,0.0280
2881.00,0.0280
2880.00,0.0280
2879.00,0.0281
2878.00,0.0282
2877.00,0.0282
2876.00,0.0282
2875.00,0.0282
2874.00,0.0281
2873.00,0.0281
2872.00,0.0280
2871.00,0.0280
2870.00,0.0280
2869.00,0.0281
2868.00,0.0280
2867.00,0.0280
2866.00,0.0281
2865.00,0.0281
2864.00,0.0281
2863.00,0.0281
2862.00,0.0281
2861.00,0.0281
2860.00,0.0282
2859.00,0.0282
2858.00,0.0283
2857.00,0.0284
2856.00,0.0283
2855.00,0.0283
2854.00,0.0282
2853.00,0.0281
2852.00,0.0281
2851.00,0.0282
2850.00,0.0282
2849.00,0.0282
2848.00,0.0282
2847.00,0.0282
2846.00,0.0281
2845.00,0.0281
2844.00,0.0281
2843.00,0.0281
2842.00,0.0281
2841.00,0.0280
2840.00,0.0279
2839.00,0.0278
2838.00,0.0277
2837.00,0.0277
2836.00,0.0278
2835.00,0.0278
2834.00,0.0279
2833.00,0.0278
2832.00,0.0278
2831.00,0.0277
2830.00,0.0276
2829.00,0.0276
2828.00,0.0276
2827.00,0.0276
2826.00,0.0276
2825.00,0.0276
2824.00,0.0276
2823.00,0.0276
2822.00,0.0275
2821.00,0.0275
2820.00,0.0274
2819.00,0.0273
2818.00,0.0273
2817.00,0.0272
2816.00,0.0272
2815.00,0.0271
2814.00,0.0271
2813.00,0.0271
2812.00,0.0271
2811.00,0.0271
2810.00,0.0271
2809.00,0.0270
2808.00,0.0270
2807.00,0.0271
2806.00,0.0271
2805.00,0.0271
2804.00,0.0271
2803.00,0.0271
2802.00,0.0270
2801.00,0.0270
2800.00,0.0270
2799.00,0.0270
2798.00,0.0270
2797.00,0.0269
2796.00,0.0269
2795.00,0.0269
2794.00,0.0269
2793.00,0.0268
2792.00,0.0268
2791.00,0.0268
2790.00,0.0268
2789.00,0.0268
2788.00,0.0267
2787.00,0.0267
2786.00,0.0267
2785.00,0.0266
2784.00,0.0266
2783.00,0.0265
2782.00,0.0265
2781.00,0.0264
2780.00,0.0263
2779.00,0.0263
2778.00,0.0263
2777.00,0.0264
2776.00,0.0264
2775.00,0.0264
2774.00,0.0264
2773.00,0.0264
2772.00,0.0263
2771.00,0.0262
2770.00,0.0261
2769.00,0.0260
2768.00,0.0259
2767.00,0.0259
2766.00,0.0260
2765.00,0.0260
2764.00,0.0260
2763.00,0.0260
2762.00,0.0260
2761.00,0.0260
2760.00,0.0260
2759.00,0.0260
2758.00,0.0260
2757.00,0.0259
2756.00,0.0259
2755.00,0.0259
2754.00,0.0259
2753.00,0.0258
2752.00,0.0258
2751.00,0.0258
2750.00,0.0259
2749.00,0.0259
2748.00,0.0259
2747.00,0.0259
2746.00,0.0258
2745.00,0.0258
2744.00,0.0258
2743.00,0.0258
2742.00,0.0257
2741.00,0.0257
2740.00,0.0257
2739.00,0.0256
2738.00,0.0256
2737.00,0.0255
2736.00,0.0255
2735.00,0.0255
2734.00,0.0255
2733.00,0.0255
2732.00,0.0255
2731.00,0.0255
2730.00,0.0255
2729.00,0.0254
2728.00,0.0254
2727.00,0.0254
2726.00,0.0254
2725.00,0.0254
2724.00,0.0253
2723.00,0.0253
2722.00,0.0253
2721.00,0.0252
2720.00,0.0252
2719.00,0.0252
2718.00,0.0252
2717.00,0.0253
2716.00,0.0253
2715.00,0.0253
2714.00,0.0252
2713.00,0.0252
2712.00,0.0252
2711.00,0.0251
2710.00,0.0251
2709.00,0.0250
2708.00,0.0250
2707.00,0.0250
2706.00,0.0250
2705.00,0.0250
2704.00,0.0249
2703.00,0.0249
2702.00,0.0249
2701.00,0.0249
2700.00,0.0249
2699.00,0.0249
2698.00,0.0248
2697.00,0.0248
2696.00,0.0248
2695.00,0.0248
2694.00,0.0248
2693.00,0.0248
2692.00,0.0248
2691.00,0.0248
2690.00,0.0248
2689.00,0.0247
2688.00,0.0247
2687.00,0.0247
2686.00,0.0247
2685.00,0.0247
2684.00,0.0247
2683.00,0.0246
2682.00,0.0246
2681.00,0.0245
2680.00,0.0245
2679.00,0.0244
2678.00,0.0243
2677.00,0.0243
2676.00,0.0243
2675.00,0.0243
2674.00,0.0244
2673.00,0.0244
2672.00,0.0243
2671.00,0.0243
2670.00,0.0243
2669.00,0.0242
2668.00,0.0242
2667.00,0.0242
2666.00,0.0243
2665.00,0.0243
2664.00,0.0243
2663.00,0.0243
2662.00,0.0244
2661.00,0.0244
2660.00,0.0244
2659.00,0.0244
2658.00,0.0244
2657.00,0.0244
2656.00,0.0244
2655.00,0.0244
2654.00,0.0244
2653.00,0.0244
2652.00,0.0244
2651.00,0.0244
2650.00,0.0244
2649.00,0.0244
2648.00,0.0244
2647.00,0.0243
2646.00,0.0243
2645.00,0.0243
2644.00,0.0243
2643.00,0.0243
2642.00,0.0243
2641.00,0.0243
2640.00,0.0243
2639.00,0.0243
2638.00,0.0243
2637.00,0.0243
2636.00,0.0243
2635.00,0.0243
2634.00,0.0243
2633.00,0.0243
2632.00,0.0244
2631.00,0.0244
2630.00,0.0243
2629.00,0.0242
2628.00,0.0241
2627.00,0.0241
2626.00,0.0241
2625.00,0.0242
2624.00,0.0243
2623.00,0.0243
2622.00,0.0244
2621.00,0.0244
2620.00,0.0244
2619.00,0.0244
2618.00,0.0244
2617.00,0.0243
2616.00,0.0243
2615.00,0.0243
2614.00,0.0242
2613.00,0.0242
2612.00,0.0243
2611.00,0.0243
2610.00,0.0243
2609.00,0.0242
2608.00,0.0241
2607.00,0.0241
2606.00,0.0241
2605.00,0.0242
2604.00,0.0243
2603.00,0.0243
2602.00,0.0243
2601.00,0.0243
2600.00,0.0242
2599.00,0.0242
2598.00,0.0241
2597.00,0.0240
2596.00,0.0240
2595.00,0.0240
2594.00,0.0240
2593.00,0.0241
2592.00,0.0242
2591.00,0.0242
2590.00,0.0242
2589.00,0.0242
2588.00,0.0242
2587.00,0.0241
2586.00,0.0241
2585.00,0.0240
2584.00,0.0239
2583.00,0.0239
2582.00,0.0240
2581.00,0.0240
2580.00,0.0241
2579.00,0.0242
2578.00,0.0242
2577.00,0.0241
2576.00,0.0240
2575.00,0.0240
2574.00,0.0239
2573.00,0.0240
2572.00,0.0239
2571.00,0.0239
2570.00,0.0238
2569.00,0.0238
2568.00,0.0239
2567.00,0.0240
2566.00,0.0241
2565.00,0.0242
2564.00,0.0241
2563.00,0.0241
2562.00,0.0241
2561.00,0.0241
2560.00,0.0241
2559.00,0.0241
2558.00,0.0241
2557.00,0.0240
2556.00,0.0240
2555.00,0.0240
2554.00,0.0240
2553.00,0.0240
2552.00,0.0239
2551.00,0.0238
2550.00,0.0237
2549.00,0.0236
2548.00,0.0236
2547.00,0.0235
2546.00,0.0236
2545.00,0.0236
2544.00,0.0236
2543.00,0.0236
2542.00,0.0235
2541.00,0.0235
2540.00,0.0233
2539.00,0.0233
2538.00,0.0232
2537.00,0.0232
2536.00,0.0233
2535.00,0.0234
2534.00,0.0235
2533.00,0.0236
2532.00,0.0236
2531.00,0.0236
2530.00,0.0234
2529.00,0.0233
2528.00,0.0233
2527.00,0.0232
2526.00,0.0232
2525.00,0.0232
2524.00,0.0232
2523.00,0.0232
2522.00,0.0232
2521.00,0.0232
2520.00,0.0233
2519.00,0.0233
2518.00,0.0234
2517.00,0.0235
2516.00,0.0236
2515.00,0.0236
2514.00,0.0234
2513.00,0.0233
2512.00,0.0233
2511.00,0.0233
2510.00,0.0234
2509.00,0.0235
2508.00,0.0235
2507.00,0.0235
2506.00,0.0234
2505.00,0.0233
2504.00,0.0232
2503.00,0.0232
2502.00,0.0232
2501.00,0.0233
2500.00,0.0234
2499.00,0.0234
2498.00,0.0234
2497.00,0.0234
2496.00,0.0234
2495.00,0.0234
2494.00,0.0234
2493.00,0.0235
2492.00,0.0235
2491.00,0.0234
2490.00,0.0234
2489.00,0.0234
2488.00,0.0234
2487.00,0.0234
2486.00,0.0233
2485.00,0.0232
2484.00,0.0231
2483.00,0.0231
2482.00,0.0232
2481.00,0.0232
2480.00,0.0233
2479.00,0.0232
2478.00,0.0232
2477.00,0.0231
2476.00,0.0230
2475.00,0.0230
2474.00,0.0230
2473.00,0.0231
2472.00,0.0231
2471.00,0.0231
2470.00,0.0231
2469.00,0.0231
2468.00,0.0230
2467.00,0.0230
2466.00,0.0229
2465.00,0.0229
2464.00,0.0229
2463.00,0.0229
2462.00,0.0229
2461.00,0.0229
2460.00,0.0229
2459.00,0.0230
2458.00,0.0230
2457.00,0.0230
2456.00,0.0230
2455.00,0.0230
2454.00,0.0231
2453.00,0.0231
2452.00,0.0232
2451.00,0.0231
2450.00,0.0231
2449.00,0.0230
2448.00,0.0229
2447.00,0.0229
2446.00,0.0228
2445.00,0.0228
2444.00,0.0227
2443.00,0.0227
2442.00,0.0227
2441.00,0.0227
2440.00,0.0227
2439.00,0.0227
2438.00,0.0228
2437.00,0.0228
2436.00,0.0228
2435.00,0.0227
2434.00,0.0227
2433.00,0.0226
2432.00,0.0226
2431.00,0.0226
2430.00,0.0226
2429.00,0.0227
2428.00,0.0226
2427.00,0.0226
2426.00,0.0225
2425.00,0.0225
2424.00,0.0225
2423.00,0.0225
2422.00,0.0225
2421.00,0.0225
2420.00,0.0225
2419.00,0.0225
2418.00,0.0225
2417.00,0.0225
2416.00,0.0224
2415.00,0.0224
2414.00,0.0224
2413.00,0.0224
2412.00,0.0224
2411.00,0.0224
2410.00,0.0224
2409.00,0.0224
2408.00,0.0224
2407.00,0.0224
2406.00,0.0223
2405.00,0.0223
2404.00,0.0223
2403.00,0.0223
2402.00,0.0222
2401.00,0.0221
2400.00,0.0221
2399.00,0.0221
2398.00,0.0221
2397.00,0.0221
2396.00,0.0221
2395.00,0.0220
2394.00,0.0220
2393.00,0.0220
2392.00,0.0219
2391.00,0.0218
2390.00,0.0218
2389.00,0.0218
2388.00,0.0218
2387.00,0.0218
2386.00,0.0218
2385.00,0.0217
2384.00,0.0216
2383.00,0.0216
2382.00,0.0216
2381.00,0.0216
2380.00,0.0217
2379.00,0.0217
2378.00,0.0216
2377.00,0.0215
2376.00,0.0213
2375.00,0.0213
2374.00,0.0213
2373.00,0.0214
2372.00,0.0214
2371.00,0.0213
2370.00,0.0210
2369.00,0.0207
2368.00,0.0205
2367.00,0.0206
2366.00,0.0209
2365.00,0.0212
2364.00,0.0213
2363.00,0.0211
2362.00,0.0210
2361.00,0.0211
2360.00,0.0211
2359.00,0.0212
2358.00,0.0211
2357.00,0.0211
2356.00,0.0210
2355.00,0.0210
2354.00,0.0210
2353.00,0.0210
2352.00,0.0210
2351.00,0.0210
2350.00,0.0210
2349.00,0.0210
2348.00,0.0209
2347.00,0.0207
2346.00,0.0206
2345.00,0.0206
2344.00,0.0208
2343.00,0.0210
2342.00,0.0212
2341.00,0.0213
2340.00,0.0212
2339.00,0.0211
2338.00,0.0208
2337.00,0.0206
2336.00,0.0206
2335.00,0.0208
2334.00,0.0209
2333.00,0.0209
2332.00,0.0209
2331.00,0.0208
2330.00,0.0206
2329.00,0.0206
2328.00,0.0207
2327.00,0.0209
2326.00,0.0211
2325.00,0.0212
2324.00,0.0211
2323.00,0.0210
2322.00,0.0210
2321.00,0.0210
2320.00,0.0210
2319.00,0.0210
2318.00,0.0209
2317.00,0.0209
2316.00,0.0210
2315.00,0.0210
2314.00,0.0210
2313.00,0.0210
2312.00,0.0211
2311.00,0.0212
2310.00,0.0213
2309.00,0.0214
2308.00,0.0214
2307.00,0.0214
2306.00,0.0213
2305.00,0.0213
2304.00,0.0212
2303.00,0.0210
2302.00,0.0209
2301.00,0.0209
2300.00,0.0210
2299.00,0.0210
2298.00,0.0211
2297.00,0.0211
2296.00,0.0211
2295.00,0.0212
2294.00,0.0213
2293.00,0.0214
2292.00,0.0215
2291.00,0.0216
2290.00,0.0216
2289.00,0.0215
2288.00,0.0215
2287.00,0.0216
2286.00,0.0218
2285.00,0.0219
2284.00,0.0220
2283.00,0.0220
2282.00,0.0220
2281.00,0.0219
2280.00,0.0218
2279.00,0.0218
2278.00,0.0218
2277.00,0.0218
2276.00,0.0217
2275.00,0.0216
2274.00,0.0215
2273.00,0.0214
2272.00,0.0213
2271.00,0.0213
2270.00,0.0213
2269.00,0.0213
2268.00,0.0214
2267.00,0.0214
2266.00,0.0215
2265.00,0.0215
2264.00,0.0216
2263.00,0.0216
2262.00,0.0217
2261.00,0.0217
2260.00,0.0218
2259.00,0.0217
2258.00,0.0214
2257.00,0.0211
2256.00,0.0209
2255.00,0.0210
2254.00,0.0212
2253.00,0.0213
2252.00,0.0214
2251.00,0.0214
2250.00,0.0214
2249.00,0.0214
2248.00,0.0213
2247.00,0.0214
2246.00,0.0215
2245.00,0.0216
2244.00,0.0216
2243.00,0.0216
2242.00,0.0215
2241.00,0.0214
2240.00,0.0213
2239.00,0.0212
2238.00,0.0211
2237.00,0.0211
2236.00,0.0212
2235.00,0.0212
2234.00,0.0214
2233.00,0.0214
2232.00,0.0213
2231.00,0.0211
2230.00,0.0209
2229.00,0.0209
2228.00,0.0210
2227.00,0.0211
2226.00,0.0211
2225.00,0.0211
2224.00,0.0211
2223.00,0.0210
2222.00,0.0209
2221.00,0.0208
2220.00,0.0208
2219.00,0.0208
2218.00,0.0209
2217.00,0.0210
2216.00,0.0211
2215.00,0.0212
2214.00,0.0213
2213.00,0.0212
2212.00,0.0210
2211.00,0.0208
2210.00,0.0207
2209.00,0.0208
2208.00,0.0209
2207.00,0.0210
2206.00,0.0211
2205.00,0.0210
2204.00,0.0209
2203.00,0.0208
2202.00,0.0208
2201.00,0.0209
2200.00,0.0209
2199.00,0.0209
2198.00,0.0210
2197.00,0.0210
2196.00,0.0210
2195.00,0.0210
2194.00,0.0208
2193.00,0.0206
2192.00,0.0205
2191.00,0.0203
2190.00,0.0201
2189.00,0.0200
2188.00,0.0201
2187.00,0.0204
2186.00,0.0208
2185.00,0.0210
2184.00,0.0209
2183.00,0.0205
2182.00,0.0203
2181.00,0.0202
2180.00,0.0203
2179.00,0.0205
2178.00,0.0207
2177.00,0.0209
2176.00,0.0210
2175.00,0.0209
2174.00,0.0207
2173.00,0.0205
2172.00,0.0205
2171.00,0.0206
2170.00,0.0208
2169.00,0.0211
2168.00,0.0212
2167.00,0.0211
2166.00,0.0211
2165.00,0.0212
2164.00,0.0215
2163.00,0.0216
2162.00,0.0216
2161.00,0.0212
2160.00,0.0204
2159.00,0.0196
2158.00,0.0191
2157.00,0.0190
2156.00,0.0192
2155.00,0.0193
2154.00,0.0195
2153.00,0.0197
2152.00,0.0197
2151.00,0.0194
2150.00,0.0190
2149.00,0.0189
2148.00,0.0190
2147.00,0.0193
2146.00,0.0196
2145.00,0.0198
2144.00,0.0199
2143.00,0.0199
2142.00,0.0199
2141.00,0.0200
2140.00,0.0199
2139.00,0.0197
2138.00,0.0194
2137.00,0.0192
2136.00,0.0191
2135.00,0.0190
2134.00,0.0190
2133.00,0.0191
2132.00,0.0192
2131.00,0.0193
2130.00,0.0193
2129.00,0.0194
2128.00,0.0195
2127.00,0.0195
2126.00,0.0195
2125.00,0.0194
2124.00,0.0193
2123.00,0.0192
2122.00,0.0192
2121.00,0.0192
2120.00,0.0192
2119.00,0.0192
2118.00,0.0192
2117.00,0.0192
2116.00,0.0191
2115.00,0.0190
2114.00,0.0189
2113.00,0.0188
2112.00,0.0189
2111.00,0.0191
2110.00,0.0193
2109.00,0.0195
2108.00,0.0196
2107.00,0.0197
2106.00,0.0198
2105.00,0.0197
2104.00,0.0197
2103.00,0.0196
2102.00,0.0195
2101.00,0.0195
2100.00,0.0193
2099.00,0.0191
2098.00,0.0188
2097.00,0.0187
2096.00,0.0187
2095.00,0.0188
2094.00,0.0189
2093.00,0.0189
2092.00,0.0189
2091.00,0.0188
2090.00,0.0188
2089.00,0.0188
2088.00,0.0188
2087.00,0.0188
2086.00,0.0189
2085.00,0.0191
2084.00,0.0192
2083.00,0.0193
2082.00,0.0192
2081.00,0.0192
2080.00,0.0191
2079.00,0.0191
2078.00,0.0191
2077.00,0.0191
2076.00,0.0191
2075.00,0.0191
2074.00,0.0191
2073.00,0.0190
2072.00,0.0190
2071.00,0.0191
2070.00,0.0191
2069.00,0.0190
2068.00,0.0188
2067.00,0.0186
2066.00,0.0186
2065.00,0.0186
2064.00,0.0187
2063.00,0.0189
2062.00,0.0190
2061.00,0.0190
2060.00,0.0189
2059.00,0.0187
2058.00,0.0187
2057.00,0.0188
2056.00,0.0189
2055.00,0.0190
2054.00,0.0191
2053.00,0.0193
2052.00,0.0194
2051.00,0.0193
2050.00,0.0191
2049.00,0.0188
2048.00,0.0187
2047.00,0.0187
2046.00,0.0189
2045.00,0.0192
2044.00,0.0194
2043.00,0.0195
2042.00,0.0195
2041.00,0.0192
2040.00,0.0189
2039.00,0.0186
2038.00,0.0186
2037.00,0.0189
2036.00,0.0191
2035.00,0.0191
2034.00,0.0188
2033.00,0.0188
2032.00,0.0191
2031.00,0.0194
2030.00,0.0195
2029.00,0.0194
2028.00,0.0191
2027.00,0.0188
2026.00,0.0185
2025.00,0.0183
2024.00,0.0181
2023.00,0.0179
2022.00,0.0178
2021.00,0.0177
2020.00,0.0175
2019.00,0.0173
2018.00,0.0172
2017.00,0.0173
2016.00,0.0176
2015.00,0.0179
2014.00,0.0181
2013.00,0.0181
2012.00,0.0181
2011.00,0.0180
2010.00,0.0180
2009.00,0.0180
2008.00,0.0179
2007.00,0.0178
2006.00,0.0176
2005.00,0.0175
2004.00,0.0175
2003.00,0.0177
2002.00,0.0180
2001.00,0.0182
2000.00,0.0182
1999.00,0.0181
1998.00,0.0179
1997.00,0.0180
1996.00,0.0183
1995.00,0.0186
1994.00,0.0188
1993.00,0.0188
1992.00,0.0186
1991.00,0.0183
1990.00,0.0180
1989.00,0.0178
1988.00,0.0177
1987.00,0.0176
1986.00,0.0177
1985.00,0.0179
1984.00,0.0181
1983.00,0.0183
1982.00,0.0183
1981.00,0.0181
1980.00,0.0179
1979.00,0.0175
1978.00,0.0171
1977.00,0.0168
1976.00,0.0167
1975.00,0.0169
1974.00,0.0173
1973.00,0.0174
1972.00,0.0174
1971.00,0.0172
1970.00,0.0171
1969.00,0.0173
1968.00,0.0175
1967.00,0.0174
1966.00,0.0171
1965.00,0.0169
1964.00,0.0168
1963.00,0.0169
1962.00,0.0170
1961.00,0.0170
1960.00,0.0170
1959.00,0.0170
1958.00,0.0169
1957.00,0.0168
1956.00,0.0167
1955.00,0.0167
1954.00,0.0168
1953.00,0.0169
1952.00,0.0168
1951.00,0.0166
1950.00,0.0164
1949.00,0.0163
1948.00,0.0164
1947.00,0.0165
1946.00,0.0166
1945.00,0.0166
1944.00,0.0164
1943.00,0.0162
1942.00,0.0160
1941.00,0.0160
1940.00,0.0159
1939.00,0.0157
1938.00,0.0157
1937.00,0.0157
1936.00,0.0158
1935.00,0.0157
1934.00,0.0156
1933.00,0.0155
1932.00,0.0156
1931.00,0.0157
1930.00,0.0159
1929.00,0.0161
1928.00,0.0163
1927.00,0.0164
1926.00,0.0165
1925.00,0.0164
1924.00,0.0163
1923.00,0.0160
1922.00,0.0159
1921.00,0.0158
1920.00,0.0158
1919.00,0.0156
1918.00,0.0154
1917.00,0.0153
1916.00,0.0154
1915.00,0.0156
1914.00,0.0157
1913.00,0.0158
1912.00,0.0158
1911.00,0.0157
1910.00,0.0155
1909.00,0.0154
1908.00,0.0152
1907.00,0.0151
1906.00,0.0151
1905.00,0.0152
1904.00,0.0153
1903.00,0.0153
1902.00,0.0153
1901.00,0.0153
1900.00,0.0153
1899.00,0.0153
1898.00,0.0153
1897.00,0.0153
1896.00,0.0151
1895.00,0.0149
1894.00,0.0148
1893.00,0.0149
1892.00,0.0150
1891.00,0.0151
1890.00,0.0151
1889.00,0.0150
1888.00,0.0148
1887.00,0.0147
1886.00,0.0146
1885.00,0.0146
1884.00,0.0146
1883.00,0.0147
1882.00,0.0147
1881.00,0.0147
1880.00,0.0146
1879.00,0.0145
1878.00,0.0144
1877.00,0.0144
1876.00,0.0144
1875.00,0.0144
1874.00,0.0145
1873.00,0.0146
1872.00,0.0148
1871.00,0.0148
1870.00,0.0147
1869.00,0.0145
1868.00,0.0143
1867.00,0.0142
1866.00,0.0142
1865.00,0.0142
1864.00,0.0141
1863.00,0.0140
1862.00,0.0139
1861.00,0.0139
1860.00,0.0138
1859.00,0.0138
1858.00,0.0138
1857.00,0.0138
1856.00,0.0138
1855.00,0.0138
1854.00,0.0138
1853.00,0.0137
1852.00,0.0137
1851.00,0.0138
1850.00,0.0139
1849.00,0.0139
1848.00,0.0139
1847.00,0.0140
1846.00,0.0140
1845.00,0.0138
1844.00,0.0135
1843.00,0.0132
1842.00,0.0132
1841.00,0.0133
1840.00,0.0134
1839.00,0.0134
1838.00,0.0133
1837.00,0.0134
1836.00,0.0134
1835.00,0.0134
1834.00,0.0134
1833.00,0.0136
1832.00,0.0138
1831.00,0.0138
1830.00,0.0135
1829.00,0.0133
1828.00,0.0133
1827.00,0.0133
1826.00,0.0133
1825.00,0.0131
1824.00,0.0130
1823.00,0.0129
1822.00,0.0129
1821.00,0.0130
1820.00,0.0130
1819.00,0.0129
1818.00,0.0128
1817.00,0.0127
1816.00,0.0126
1815.00,0.0126
1814.00,0.0127
1813.00,0.0128
1812.00,0.0128
1811.00,0.0128
1810.00,0.0127
1809.00,0.0128
1808.00,0.0128
1807.00,0.0129
1806.00,0.0129
1805.00,0.0130
1804.00,0.0131
1803.00,0.0132
1802.00,0.0132
1801.00,0.0132
1800.00,0.0132
1799.00,0.0132
1798.00,0.0132
1797.00,0.0133
1796.00,0.0135
1795.00,0.0136
1794.00,0.0136
1793.00,0.0136
1792.00,0.0135
1791.00,0.0135
1790.00,0.0135
1789.00,0.0137
1788.00,0.0140
1787.00,0.0142
1786.00,0.0144
1785.00,0.0145
1784.00,0.0146
1783.00,0.0148
1782.00,0.0150
1781.00,0.0151
1780.00,0.0151
1779.00,0.0152
1778.00,0.0154
1777.00,0.0156
1776.00,0.0159
1775.00,0.0161
1774.00,0.0163
1773.00,0.0162
1772.00,0.0162
1771.00,0.0163
1770.00,0.0165
1769.00,0.0167
1768.00,0.0168
1767.00,0.0169
1766.00,0.0171
1765.00,0.0175
1764.00,0.0178
1763.00,0.0179
1762.00,0.0178
1761.00,0.0178
1760.00,0.0179
1759.00,0.0182
1758.00,0.0183
1757.00,0.0184
1756.00,0.0185
1755.00,0.0187
1754.00,0.0190
1753.00,0.0192
1752.00,0.0193
1751.00,0.0194
1750.00,0.0195
1749.00,0.0198
1748.00,0.0200
1747.00,0.0202
1746.00,0.0204
1745.00,0.0206
1744.00,0.0209
1743.00,0.0210
1742.00,0.0212
1741.00,0.0213
1740.00,0.0214
1739.00,0.0216
1738.00,0.0218
1737.00,0.0222
1736.00,0.0225
1735.00,0.0227
1734.00,0.0227
1733.00,0.0230
1732.00,0.0235
1731.00,0.0239
1730.00,0.0242
1729.00,0.0245
1728.00,0.0247
1727.00,0.0250
1726.00,0.0253
1725.00,0.0256
1724.00,0.0259
1723.00,0.0262
1722.00,0.0265
1721.00,0.0268
1720.00,0.0271
1719.00,0.0272
1718.00,0.0273
1717.00,0.0277
1716.00,0.0281
1715.00,0.0284
1714.00,0.0286
1713.00,0.0288
1712.00,0.0289
1711.00,0.0291
1710.00,0.0292
1709.00,0.0294
1708.00,0.0297
1707.00,0.0299
1706.00,0.0300
1705.00,0.0301
1704.00,0.0302
1703.00,0.0303
1702.00,0.0304
1701.00,0.0302
1700.00,0.0299
1699.00,0.0299
1698.00,0.0302
1697.00,0.0306
1696.00,0.0307
1695.00,0.0307
1694.00,0.0308
1693.00,0.0310
1692.00,0.0313
1691.00,0.0315
1690.00,0.0316
1689.00,0.0318
1688.00,0.0319
1687.00,0.0320
1686.00,0.0321
1685.00,0.0321
1684.00,0.0324
1683.00,0.0327
1682.00,0.0328
1681.00,0.0329
1680.00,0.0330
1679.00,0.0331
1678.00,0.0333
1677.00,0.0336
1676.00,0.0338
1675.00,0.0341
1674.00,0.0343
1673.00,0.0345
1672.00,0.0347
1671.00,0.0350
1670.00,0.0352
1669.00,0.0355
1668.00,0.0356
1667.00,0.0357
1666.00,0.0358
1665.00,0.0360
1664.00,0.0362
1663.00,0.0364
1662.00,0.0366
1661.00,0.0369
1660.00,0.0372
1659.00,0.0375
1658.00,0.0377
1657.00,0.0378
1656.00,0.0379
1655.00,0.0379
1654.00,0.0379
1653.00,0.0386
1652.00,0.0391
1651.00,0.0394
1650.00,0.0398
1649.00,0.0401
1648.00,0.0403
1647.00,0.0406
1646.00,0.0410
1645.00,0.0414
1644.00,0.0417
1643.00,0.0419
1642.00,0.0421
1641.00,0.0423
1640.00,0.0425
1639.00,0.0427
1638.00,0.0430
1637.00,0.0434
1636.00,0.0441
1635.00,0.0447
1634.00,0.0449
1633.00,0.0449
1632.00,0.0450
1631.00,0.0451
1630.00,0.0453
1629.00,0.0457
1628.00,0.0461
1627.00,0.0464
1626.00,0.0468
1625.00,0.0472
1624.00,0.0476
1623.00,0.0481
1622.00,0.0484
1621.00,0.0485
1620.00,0.0485
1619.00,0.0485
1618.00,0.0487
1617.00,0.0492
1616.00,0.0498
1615.00,0.0503
1614.00,0.0506
1613.00,0.0508
1612.00,0.0510
1611.00,0.0512
1610.00,0.0515
1609.00,0.0518
1608.00,0.0521
1607.00,0.0525
1606.00,0.0528
1605.00,0.0531
1604.00,0.0533
1603.00,0.0536
1602.00,0.0538
1601.00,0.0539
1600.00,0.0541
1599.00,0.0543
1598.00,0.0546
1597.00,0.0549
1596.00,0.0552
1595.00,0.0556
1594.00,0.0559
1593.00,0.0561
1592.00,0.0562
1591.00,0.0563
1590.00,0.0565
1589.00,0.0567
1588.00,0.0569
1587.00,0.0572
1586.00,0.0574
1585.00,0.0575
1584.00,0.0577
1583.00,0.0578
1582.00,0.0580
1581.00,0.0580
1580.00,0.0579
1579.00,0.0578
1578.00,0.0579
1577.00,0.0581
1576.00,0.0585
1575.00,0.0588
1574.00,0.0587
1573.00,0.0585
1572.00,0.0584
1571.00,0.0584
1570.00,0.0585
1569.00,0.0586
1568.00,0.0586
1567.00,0.0585
1566.00,0.0584
1565.00,0.0582
1564.00,0.0579
1563.00,0.0574
1562.00,0.0570
1561.00,0.0566
1560.00,0.0565
1559.00,0.0572
1558.00,0.0576
1557.00,0.0570
1556.00,0.0565
1555.00,0.0562
1554.00,0.0559
1553.00,0.0556
1552.00,0.0554
1551.00,0.0552
1550.00,0.0548
1549.00,0.0543
1548.00,0.0538
1547.00,0.0534
1546.00,0.0531
1545.00,0.0527
1544.00,0.0524
1543.00,0.0519
1542.00,0.0514
1541.00,0.0509
1540.00,0.0508
1539.00,0.0506
1538.00,0.0501
1537.00,0.0496
1536.00,0.0492
1535.00,0.0489
1534.00,0.0485
1533.00,0.0482
1532.00,0.0479
1531.00,0.0475
1530.00,0.0471
1529.00,0.0468
1528.00,0.0465
1527.00,0.0461
1526.00,0.0455
1525.00,0.0450
1524.00,0.0447
1523.00,0.0444
1522.00,0.0441
1521.00,0.0440
1520.00,0.0440
1519.00,0.0439
1518.00,0.0437
1517.00,0.0434
1516.00,0.0431
1515.00,0.0427
1514.00,0.0423
1513.00,0.0420
1512.00,0.0418
1511.00,0.0417
1510.00,0.0415
1509.00,0.0414
1508.00,0.0412
1507.00,0.0411
1506.00,0.0407
1505.00,0.0403
1504.00,0.0400
1503.00,0.0398
1502.00,0.0396
1501.00,0.0394
1500.00,0.0393
1499.00,0.0392
1498.00,0.0391
1497.00,0.0392
1496.00,0.0392
1495.00,0.0391
1494.00,0.0389
1493.00,0.0388
1492.00,0.0388
1491.00,0.0389
1490.00,0.0390
1489.00,0.0391
1488.00,0.0390
1487.00,0.0389
1486.00,0.0387
1485.00,0.0385
1484.00,0.0384
1483.00,0.0384
1482.00,0.0384
1481.00,0.0384
1480.00,0.0383
1479.00,0.0383
1478.00,0.0384
1477.00,0.0384
1476.00,0.0385
1475.00,0.0385
1474.00,0.0385
1473.00,0.0387
1472.00,0.0390
1471.00,0.0392
1470.00,0.0392
1469.00,0.0394
1468.00,0.0395
1467.00,0.0396
1466.00,0.0396
1465.00,0.0397
1464.00,0.0397
1463.00,0.0398
1462.00,0.0398
1461.00,0.0398
1460.00,0.0399
1459.00,0.0401
1458.00,0.0403
1457.00,0.0407
1456.00,0.0410
1455.00,0.0412
1454.00,0.0413
1453.00,0.0414
1452.00,0.0416
1451.00,0.0418
1450.00,0.0421
1449.00,0.0424
1448.00,0.0428
1447.00,0.0430
1446.00,0.0431
1445.00,0.0432
1444.00,0.0433
1443.00,0.0434
1442.00,0.0434
1441.00,0.0435
1440.00,0.0437
1439.00,0.0439
1438.00,0.0442
1437.00,0.0445
1436.00,0.0449
1435.00,0.0450
1434.00,0.0451
1433.00,0.0452
1432.00,0.0453
1431.00,0.0455
1430.00,0.0456
1429.00,0.0457
1428.00,0.0458
1427.00,0.0459
1426.00,0.0460
1425.00,0.0462
1424.00,0.0464
1423.00,0.0465
1422.00,0.0465
1421.00,0.0466
1420.00,0.0469
1419.00,0.0473
1418.00,0.0477
1417.00,0.0479
1416.00,0.0479
1415.00,0.0479
1414.00,0.0478
1413.00,0.0478
1412.00,0.0478
1411.00,0.0479
1410.00,0.0480
1409.00,0.0481
1408.00,0.0482
1407.00,0.0484
1406.00,0.0485
1405.00,0.0486
1404.00,0.0487
1403.00,0.0487
1402.00,0.0487
1401.00,0.0488
1400.00,0.0489
1399.00,0.0490
1398.00,0.0492
1397.00,0.0493
1396.00,0.0495
1395.00,0.0496
1394.00,0.0496
1393.00,0.0496
1392.00,0.0496
1391.00,0.0496
1390.00,0.0496
1389.00,0.0497
1388.00,0.0499
1387.00,0.0501
1386.00,0.0502
1385.00,0.0502
1384.00,0.0501
1383.00,0.0501
1382.00,0.0502
1381.00,0.0503
1380.00,0.0505
1379.00,0.0506
1378.00,0.0507
1377.00,0.0508
1376.00,0.0510
1375.00,0.0512
1374.00,0.0513
1373.00,0.0513
1372.00,0.0513
1371.00,0.0512
1370.00,0.0512
1369.00,0.0513
1368.00,0.0513
1367.00,0.0512
1366.00,0.0512
1365.00,0.0511
1364.00,0.0512
1363.00,0.0513
1362.00,0.0514
1361.00,0.0513
1360.00,0.0512
1359.00,0.0511
1358.00,0.0510
1357.00,0.0510
1356.00,0.0510
1355.00,0.0510
1354.00,0.0509
1353.00,0.0508
1352.00,0.0507
1351.00,0.0505
1350.00,0.0503
1349.00,0.0501
1348.00,0.0500
1347.00,0.0499
1346.00,0.0498
1345.00,0.0497
1344.00,0.0496
1343.00,0.0495
1342.00,0.0495
1341.00,0.0496
1340.00,0.0497
1339.00,0.0497
1338.00,0.0496
1337.00,0.0494
1336.00,0.0493
1335.00,0.0491
1334.00,0.0490
1333.00,0.0489
1332.00,0.0488
1331.00,0.0487
1330.00,0.0486
1329.00,0.0485
1328.00,0.0484
1327.00,0.0483
1326.00,0.0483
1325.00,0.0482
1324.00,0.0482
1323.00,0.0483
1322.00,0.0483
1321.00,0.0484
1320.00,0.0484
1319.00,0.0483
1318.00,0.0482
1317.00,0.0480
1316.00,0.0479
1315.00,0.0478
1314.00,0.0478
1313.00,0.0478
1312.00,0.0479
1311.00,0.0479
1310.00,0.0479
1309.00,0.0479
1308.00,0.0479
1307.00,0.0478
1306.00,0.0478
1305.00,0.0477
1304.00,0.0478
1303.00,0.0478
1302.00,0.0479
1301.00,0.0479
1300.00,0.0478
1299.00,0.0478
1298.00,0.0477
1297.00,0.0476
1296.00,0.0476
1295.00,0.0476
1294.00,0.0477
1293.00,0.0477
1292.00,0.0478
1291.00,0.0479
1290.00,0.0480
1289.00,0.0480
1288.00,0.0480
1287.00,0.0480
1286.00,0.0479
1285.00,0.0480
1284.00,0.0480
1283.00,0.0481
1282.00,0.0481
1281.00,0.0481
1280.00,0.0480
1279.00,0.0479
1278.00,0.0479
1277.00,0.0479
1276.00,0.0479
1275.00,0.0479
1274.00,0.0479
1273.00,0.0479
1272.00,0.0479
1271.00,0.0479
1270.00,0.0479
1269.00,0.0480
1268.00,0.0480
1267.00,0.0480
1266.00,0.0481
1265.00,0.0481
1264.00,0.0480
1263.00,0.0480
1262.00,0.0480
1261.00,0.0480
1260.00,0.0480
1259.00,0.0481
1258.00,0.0481
1257.00,0.0480
1256.00,0.0479
1255.00,0.0479
1254.00,0.0479
1253.00,0.0479
1252.00,0.0480
1251.00,0.0480
1250.00,0.0480
1249.00,0.0479
1248.00,0.0480
1247.00,0.0480
1246.00,0.0481
1245.00,0.0481
1244.00,0.0482
1243.00,0.0482
1242.00,0.0482
1241.00,0.0481
1240.00,0.0481
1239.00,0.0480
1238.00,0.0481
1237.00,0.0482
1236.00,0.0482
1235.00,0.0482
1234.00,0.0481
1233.00,0.0480
1232.00,0.0479
1231.00,0.0479
1230.00,0.0478
1229.00,0.0478
1228.00,0.0479
1227.00,0.0479
1226.00,0.0479
1225.00,0.0478
1224.00,0.0477
1223.00,0.0476
1222.00,0.0476
1221.00,0.0476
1220.00,0.0476
1219.00,0.0475
1218.00,0.0474
1217.00,0.0474
1216.00,0.0473
1215.00,0.0473
1214.00,0.0472
1213.00,0.0471
1212.00,0.0471
1211.00,0.0471
1210.00,0.0471
1209.00,0.0471
1208.00,0.0470
1207.00,0.0470
1206.00,0.0469
1205.00,0.0468
1204.00,0.0467
1203.00,0.0467
1202.00,0.0466
1201.00,0.0465
1200.00,0.0465
1199.00,0.0465
1198.00,0.0464
1197.00,0.0463
1196.00,0.0462
1195.00,0.0461
1194.00,0.0460
1193.00,0.0459
1192.00,0.0459
1191.00,0.0459
1190.00,0.0458
1189.00,0.0456
1188.00,0.0454
1187.00,0.0453
1186.00,0.0452
1185.00,0.0451
1184.00,0.0450
1183.00,0.0450
1182.00,0.0449
1181.00,0.0447
1180.00,0.0446
1179.00,0.0445
1178.00,0.0445
1177.00,0.0444
1176.00,0.0444
1175.00,0.0444
1174.00,0.0444
1173.00,0.0443
1172.00,0.0442
1171.00,0.0440
1170.00,0.0438
1169.00,0.0437
1168.00,0.0436
1167.00,0.0435
1166.00,0.0435
1165.00,0.0434
1164.00,0.0432
1163.00,0.0431
1162.00,0.0430
1161.00,0.0430
1160.00,0.0429
1159.00,0.0429
1158.00,0.0428
1157.00,0.0428
1156.00,0.0428
1155.00,0.0429
1154.00,0.0429
1153.00,0.0428
1152.00,0.0426
1151.00,0.0425
1150.00,0.0423
1149.00,0.0421
1148.00,0.0420
1147.00,0.0420
1146.00,0.0420
1145.00,0.0421
1144.00,0.0421
1143.00,0.0423
1142.00,0.0423
1141.00,0.0423
1140.00,0.0423
1139.00,0.0422
1138.00,0.0422
1137.00,0.0422
1136.00,0.0422
1135.00,0.0422
1134.00,0.0423
1133.00,0.0423
1132.00,0.0423
1131.00,0.0422
1130.00,0.0422
1129.00,0.0423
1128.00,0.0424
1127.00,0.0424
1126.00,0.0422
1125.00,0.0420
1124.00,0.0419
1123.00,0.0421
1122.00,0.0424
1121.00,0.0427
1120.00,0.0429
1119.00,0.0430
1118.00,0.0429
1117.00,0.0429
1116.00,0.0430
1115.00,0.0430
1114.00,0.0430
1113.00,0.0429
1112.00,0.0428
1111.00,0.0427
1110.00,0.0427
1109.00,0.0428
1108.00,0.0427
1107.00,0.0426
1106.00,0.0425
1105.00,0.0425
1104.00,0.0425
1103.00,0.0426
1102.00,0.0427
1101.00,0.0428
1100.00,0.0429
1099.00,0.0428
1098.00,0.0428
1097.00,0.0427
1096.00,0.0425
1095.00,0.0424
1094.00,0.0424
1093.00,0.0424
1092.00,0.0424
1091.00,0.0424
1090.00,0.0424
1089.00,0.0422
1088.00,0.0419
1087.00,0.0418
1086.00,0.0418
1085.00,0.0418
1084.00,0.0419
1083.00,0.0420
1082.00,0.0421
1081.00,0.0422
1080.00,0.0423
1079.00,0.0424
1078.00,0.0425
1077.00,0.0426
1076.00,0.0425
1075.00,0.0422
1074.00,0.0419
1073.00,0.0416
1072.00,0.0415
1071.00,0.0414
1070.00,0.0412
1069.00,0.0411
1068.00,0.0410
1067.00,0.0410
1066.00,0.0412
1065.00,0.0414
1064.00,0.0416
1063.00,0.0416
1062.00,0.0416
1061.00,0.0413
1060.00,0.0411
1059.00,0.0410
1058.00,0.0411
1057.00,0.0413
1056.00,0.0414
1055.00,0.0415
1054.00,0.0415
1053.00,0.0416
1052.00,0.0416
1051.00,0.0416
1050.00,0.0417
1049.00,0.0418
1048.00,0.0420
1047.00,0.0421
1046.00,0.0420
1045.00,0.0420
1044.00,0.0420
1043.00,0.0421
1042.00,0.0420
1041.00,0.0418
1040.00,0.0416
1039.00,0.0416
1038.00,0.0417
1037.00,0.0417
1036.00,0.0417
1035.00,0.0417
1034.00,0.0417
1033.00,0.0417
1032.00,0.0417
1031.00,0.0416
1030.00,0.0414
1029.00,0.0411
1028.00,0.0409
1027.00,0.0407
1026.00,0.0407
1025.00,0.0408
1024.00,0.0408
1023.00,0.0407
1022.00,0.0406
1021.00,0.0404
1020.00,0.0403
1019.00,0.0402
1018.00,0.0400
1017.00,0.0399
1016.00,0.0399
1015.00,0.0400
1014.00,0.0401
1013.00,0.0401
1012.00,0.0401
1011.00,0.0400
1010.00,0.0400
1009.00,0.0400
1008.00,0.0399
1007.00,0.0398
1006.00,0.0397
1005.00,0.0396
1004.00,0.0396
1003.00,0.0396
1002.00,0.0395
1001.00,0.0394
1000.00,0.0392
999.00,0.0389
998.00,0.0386
997.00,0.0384
996.00,0.0384
995.00,0.0385
994.00,0.0384
993.00,0.0382
992.00,0.0380
991.00,0.0378
990.00,0.0376
989.00,0.0375
988.00,0.0375
987.00,0.0376
986.00,0.0376
985.00,0.0375
984.00,0.0374
983.00,0.0371
982.00,0.0370
981.00,0.0369
980.00,0.0369
979.00,0.0368
978.00,0.0367
977.00,0.0365
976.00,0.0363
975.00,0.0362
974.00,0.0361
973.00,0.0362
972.00,0.0361
971.00,0.0360
970.00,0.0358
969.00,0.0355
968.00,0.0353
967.00,0.0352
966.00,0.0351
965.00,0.0350
964.00,0.0350
963.00,0.0350
962.00,0.0350
961.00,0.0350
960.00,0.0350
959.00,0.0348
958.00,0.0346
957.00,0.0345
956.00,0.0345
955.00,0.0345
954.00,0.0345
953.00,0.0344
952.00,0.0345
951.00,0.0346
950.00,0.0347
949.00,0.0348
948.00,0.0347
947.00,0.0346
946.00,0.0345
945.00,0.0345
944.00,0.0345
943.00,0.0346
942.00,0.0346
941.00,0.0347
940.00,0.0348
939.00,0.0350
938.00,0.0352
937.00,0.0353
936.00,0.0352
935.00,0.0351
934.00,0.0350
933.00,0.0352
932.00,0.0356
931.00,0.0359
930.00,0.0361
929.00,0.0363
928.00,0.0364
927.00,0.0366
926.00,0.0367
925.00,0.0367
924.00,0.0368
923.00,0.0369
922.00,0.0370
921.00,0.0370
920.00,0.0371
919.00,0.0371
918.00,0.0372
917.00,0.0374
916.00,0.0377
915.00,0.0380
914.00,0.0381
913.00,0.0379
912.00,0.0378
911.00,0.0377
910.00,0.0376
909.00,0.0374
908.00,0.0372
907.00,0.0371
906.00,0.0372
905.00,0.0375
904.00,0.0379
903.00,0.0384
902.00,0.0387
901.00,0.0387
900.00,0.0386
899.00,0.0386
898.00,0.0386
897.00,0.0386
896.00,0.0386
895.00,0.0385
894.00,0.0383
893.00,0.0382
892.00,0.0381
891.00,0.0380
890.00,0.0381
889.00,0.0383
888.00,0.0384
887.00,0.0384
886.00,0.0382
885.00,0.0381
884.00,0.0383
883.00,0.0386
882.00,0.0389
881.00,0.0390
880.00,0.0390
879.00,0.0388
878.00,0.0386
877.00,0.0383
876.00,0.0381
875.00,0.0380
874.00,0.0380
873.00,0.0381
872.00,0.0382
871.00,0.0383
870.00,0.0384
869.00,0.0385
868.00,0.0384
867.00,0.0382
866.00,0.0381
865.00,0.0382
864.00,0.0384
863.00,0.0387
862.00,0.0389
861.00,0.0390
860.00,0.0391
859.00,0.0390
858.00,0.0388
857.00,0.0387
856.00,0.0388
855.00,0.0390
854.00,0.0393
853.00,0.0394
852.00,0.0394
851.00,0.0395
850.00,0.0396
849.00,0.0399
848.00,0.0402
847.00,0.0405
846.00,0.0409
845.00,0.0412
844.00,0.0415
843.00,0.0416
842.00,0.0415
841.00,0.0414
840.00,0.0413
839.00,0.0412
838.00,0.0413
837.00,0.0416
836.00,0.0418
835.00,0.0420
834.00,0.0420
833.00,0.0421
832.00,0.0421
831.00,0.0423
830.00,0.0424
829.00,0.0425
828.00,0.0427
827.00,0.0430
826.00,0.0434
825.00,0.0437
824.00,0.0441
823.00,0.0444
822.00,0.0446
821.00,0.0446
820.00,0.0446
819.00,0.0446
818.00,0.0446
817.00,0.0444
816.00,0.0444
815.00,0.0445
814.00,0.0447
813.00,0.0449
812.00,0.0451
811.00,0.0452
810.00,0.0452
809.00,0.0452
808.00,0.0453
807.00,0.0453
806.00,0.0454
805.00,0.0454
804.00,0.0455
803.00,0.0456
802.00,0.0457
801.00,0.0461
800.00,0.0465
799.00,0.0469
798.00,0.0471
797.00,0.0471
796.00,0.0470
795.00,0.0469
794.00,0.0469
793.00,0.0470
792.00,0.0471
791.00,0.0474
790.00,0.0476
789.00,0.0478
788.00,0.0478
787.00,0.0478
786.00,0.0480
785.00,0.0484
784.00,0.0487
783.00,0.0489
782.00,0.0489
781.00,0.0489
780.00,0.0490
779.00,0.0490
778.00,0.0491
777.00,0.0493
776.00,0.0495
775.00,0.0496
774.00,0.0495
773.00,0.0493
772.00,0.0492
771.00,0.0493
770.00,0.0495
769.00,0.0497
768.00,0.0499
767.00,0.0500
766.00,0.0499
765.00,0.0499
764.00,0.0500
763.00,0.0500
762.00,0.0499
761.00,0.0498
760.00,0.0498
759.00,0.0500
758.00,0.0505
757.00,0.0508
756.00,0.0509
755.00,0.0509
754.00,0.0508
753.00,0.0509
752.00,0.0510
751.00,0.0512
750.00,0.0514
749.00,0.0516
748.00,0.0517
747.00,0.0519
746.00,0.0519
745.00,0.0519
744.00,0.0518
743.00,0.0518
742.00,0.0518
741.00,0.0517
740.00,0.0517
739.00,0.0515
738.00,0.0515
737.00,0.0516
736.00,0.0518
735.00,0.0520
734.00,0.0521
733.00,0.0521
732.00,0.0522
731.00,0.0523
730.00,0.0524
729.00,0.0527
728.00,0.0531
727.00,0.0535
726.00,0.0538
725.00,0.0540
724.00,0.0539
723.00,0.0538
722.00,0.0538
721.00,0.0539
720.00,0.0540
719.00,0.0540
718.00,0.0540
717.00,0.0539
716.00,0.0538
715.00,0.0537
714.00,0.0537
713.00,0.0539
712.00,0.0542
711.00,0.0545
710.00,0.0546
709.00,0.0547
708.00,0.0549
707.00,0.0551
706.00,0.0554
705.00,0.0558
704.00,0.0564
703.00,0.0569
702.00,0.0570
701.00,0.0568
700.00,0.0564
699.00,0.0562
698.00,0.0563
697.00,0.0565
696.00,0.0566
695.00,0.0567
694.00,0.0568
693.00,0.0572
692.00,0.0577
691.00,0.0580
690.00,0.0583
689.00,0.0585
688.00,0.0586
687.00,0.0586
686.00,0.0585
685.00,0.0584
684.00,0.0582
683.00,0.0579
682.00,0.0576
681.00,0.0575
680.00,0.0576
679.00,0.0578
678.00,0.0580
677.00,0.0582
676.00,0.0585
675.00,0.0587
674.00,0.0588
673.00,0.0588
672.00,0.0589
671.00,0.0592
670.00,0.0596
669.00,0.0600
668.00,0.0604
667.00,0.0604
666.00,0.0604
665.00,0.0605
664.00,0.0606
663.00,0.0604
662.00,0.0600
661.00,0.0594
660.00,0.0589
659.00,0.0589
658.00,0.0595
657.00,0.0605
656.00,0.0613
655.00,0.0616
654.00,0.0614
653.00,0.0609
652.00,0.0604
651.00,0.0602
650.00,0.0603
