Created as New Dataset,Monday, April 03 2023
cm-1,A
4000.00,0.0144
3999.00,0.0144
3998.00,0.0144
3997.00,0.0144
3996.00,0.0144
3995.00,0.0144
3994.00,0.0144
3993.00,0.0144
3992.00,0.0144
3991.00,0.0144
3990.00,0.0144
3989.00,0.0144
3988.00,0.0144
3987.00,0.0143
3986.00,0.0143
3985.00,0.0143
3984.00,0.0144
3983.00,0.0144
3982.00,0.0144
3981.00,0.0144
3980.00,0.0143
3979.00,0.0143
3978.00,0.0143
3977.00,0.0143
3976.00,0.0142
3975.00,0.0142
3974.00,0.0142
3973.00,0.0143
3972.00,0.0143
3971.00,0.0144
3970.00,0.0144
3969.00,0.0144
3968.00,0.0143
3967.00,0.0143
3966.00,0.0142
3965.00,0.0142
3964.00,0.0142
3963.00,0.0143
3962.00,0.0144
3961.00,0.0144
3960.00,0.0143
3959.00,0.0143
3958.00,0.0142
3957.00,0.0142
3956.00,0.0142
3955.00,0.0141
3954.00,0.0141
3953.00,0.0141
3952.00,0.0141
3951.00,0.0142
3950.00,0.0143
3949.00,0.0144
3948.00,0.0144
3947.00,0.0144
3946.00,0.0144
3945.00,0.0143
3944.00,0.0142
3943.00,0.0141
3942.00,0.0141
3941.00,0.0141
3940.00,0.0141
3939.00,0.0141
3938.00,0.0141
3937.00,0.0141
3936.00,0.0140
3935.00,0.0140
3934.00,0.0140
3933.00,0.0141
3932.00,0.0141
3931.00,0.0141
3930.00,0.0142
3929.00,0.0142
3928.00,0.0142
3927.00,0.0142
3926.00,0.0142
3925.00,0.0142
3924.00,0.0142
3923.00,0.0142
3922.00,0.0142
3921.00,0.0142
3920.00,0.0142
3919.00,0.0142
3918.00,0.0142
3917.00,0.0142
3916.00,0.0142
3915.00,0.0142
3914.00,0.0141
3913.00,0.0141
3912.00,0.0141
3911.00,0.0141
3910.00,0.0141
3909.00,0.0140
3908.00,0.0140
3907.00,0.0140
3906.00,0.0139
3905.00,0.0139
3904.00,0.0139
3903.00,0.0139
3902.00,0.0141
3901.00,0.0142
3900.00,0.0142
3899.00,0.0141
3898.00,0.0140
3897.00,0.0140
3896.00,0.0140
3895.00,0.0140
3894.00,0.0141
3893.00,0.0141
3892.00,0.0140
3891.00,0.0139
3890.00,0.0138
3889.00,0.0139
3888.00,0.0139
3887.00,0.0139
3886.00,0.0138
3885.00,0.0137
3884.00,0.0137
3883.00,0.0138
3882.00,0.0139
3881.00,0.0138
3880.00,0.0137
3879.00,0.0138
3878.00,0.0139
3877.00,0.0141
3876.00,0.0142
3875.00,0.0141
3874.00,0.0139
3873.00,0.0139
3872.00,0.0139
3871.00,0.0140
3870.00,0.0140
3869.00,0.0139
3868.00,0.0139
3867.00,0.0140
3866.00,0.0141
3865.00,0.0141
3864.00,0.0141
3863.00,0.0142
3862.00,0.0142
3861.00,0.0142
3860.00,0.0141
3859.00,0.0140
3858.00,0.0138
3857.00,0.0135
3856.00,0.0134
3855.00,0.0134
3854.00,0.0136
3853.00,0.0137
3852.00,0.0136
3851.00,0.0138
3850.00,0.0139
3849.00,0.0139
3848.00,0.0139
3847.00,0.0139
3846.00,0.0139
3845.00,0.0139
3844.00,0.0139
3843.00,0.0139
3842.00,0.0139
3841.00,0.0140
3840.00,0.0141
3839.00,0.0141
3838.00,0.0140
3837.00,0.0139
3836.00,0.0138
3835.00,0.0139
3834.00,0.0139
3833.00,0.0140
3832.00,0.0140
3831.00,0.0139
3830.00,0.0139
3829.00,0.0139
3828.00,0.0139
3827.00,0.0138
3826.00,0.0136
3825.00,0.0136
3824.00,0.0138
3823.00,0.0140
3822.00,0.0141
3821.00,0.0140
3820.00,0.0139
3819.00,0.0139
3818.00,0.0139
3817.00,0.0139
3816.00,0.0139
3815.00,0.0138
3814.00,0.0139
3813.00,0.0139
3812.00,0.0139
3811.00,0.0138
3810.00,0.0137
3809.00,0.0137
3808.00,0.0138
3807.00,0.0138
3806.00,0.0138
3805.00,0.0139
3804.00,0.0141
3803.00,0.0142
3802.00,0.0142
3801.00,0.0140
3800.00,0.0139
3799.00,0.0140
3798.00,0.0140
3797.00,0.0139
3796.00,0.0138
3795.00,0.0138
3794.00,0.0138
3793.00,0.0139
3792.00,0.0139
3791.00,0.0138
3790.00,0.0138
3789.00,0.0138
3788.00,0.0139
3787.00,0.0140
3786.00,0.0140
3785.00,0.0140
3784.00,0.0140
3783.00,0.0140
3782.00,0.0140
3781.00,0.0140
3780.00,0.0139
3779.00,0.0139
3778.00,0.0138
3777.00,0.0139
3776.00,0.0139
3775.00,0.0139
3774.00,0.0138
3773.00,0.0138
3772.00,0.0138
3771.00,0.0138
3770.00,0.0137
3769.00,0.0137
3768.00,0.0137
3767.00,0.0138
3766.00,0.0138
3765.00,0.0138
3764.00,0.0138
3763.00,0.0138
3762.00,0.0139
3761.00,0.0139
3760.00,0.0138
3759.00,0.0138
3758.00,0.0137
3757.00,0.0136
3756.00,0.0135
3755.00,0.0135
3754.00,0.0134
3753.00,0.0135
3752.00,0.0136
3751.00,0.0138
3750.00,0.0138
3749.00,0.0138
3748.00,0.0139
3747.00,0.0140
3746.00,0.0141
3745.00,0.0140
3744.00,0.0137
3743.00,0.0135
3742.00,0.0137
3741.00,0.0138
3740.00,0.0139
3739.00,0.0139
3738.00,0.0139
3737.00,0.0140
3736.00,0.0139
3735.00,0.0138
3734.00,0.0136
3733.00,0.0136
3732.00,0.0135
3731.00,0.0135
3730.00,0.0136
3729.00,0.0136
3728.00,0.0136
3727.00,0.0136
3726.00,0.0136
3725.00,0.0136
3724.00,0.0136
3723.00,0.0136
3722.00,0.0136
3721.00,0.0137
3720.00,0.0138
3719.00,0.0138
3718.00,0.0138
3717.00,0.0137
3716.00,0.0136
3715.00,0.0136
3714.00,0.0136
3713.00,0.0138
3712.00,0.0139
3711.00,0.0139
3710.00,0.0138
3709.00,0.0137
3708.00,0.0138
3707.00,0.0138
3706.00,0.0139
3705.00,0.0140
3704.00,0.0140
3703.00,0.0140
3702.00,0.0139
3701.00,0.0139
3700.00,0.0139
3699.00,0.0141
3698.00,0.0141
3697.00,0.0141
3696.00,0.0140
3695.00,0.0139
3694.00,0.0138
3693.00,0.0138
3692.00,0.0139
3691.00,0.0141
3690.00,0.0143
3689.00,0.0144
3688.00,0.0142
3687.00,0.0141
3686.00,0.0141
3685.00,0.0141
3684.00,0.0140
3683.00,0.0140
3682.00,0.0139
3681.00,0.0138
3680.00,0.0136
3679.00,0.0135
3678.00,0.0135
3677.00,0.0135
3676.00,0.0135
3675.00,0.0134
3674.00,0.0133
3673.00,0.0135
3672.00,0.0137
3671.00,0.0139
3670.00,0.0139
3669.00,0.0140
3668.00,0.0140
3667.00,0.0141
3666.00,0.0142
3665.00,0.0142
3664.00,0.0142
3663.00,0.0142
3662.00,0.0142
3661.00,0.0143
3660.00,0.0144
3659.00,0.0146
3658.00,0.0148
3657.00,0.0148
3656.00,0.0148
3655.00,0.0148
3654.00,0.0149
3653.00,0.0149
3652.00,0.0149
3651.00,0.0148
3650.00,0.0149
3649.00,0.0150
3648.00,0.0150
3647.00,0.0150
3646.00,0.0150
3645.00,0.0152
3644.00,0.0153
3643.00,0.0154
3642.00,0.0154
3641.00,0.0153
3640.00,0.0154
3639.00,0.0154
3638.00,0.0154
3637.00,0.0154
3636.00,0.0155
3635.00,0.0155
3634.00,0.0155
3633.00,0.0155
3632.00,0.0154
3631.00,0.0155
3630.00,0.0156
3629.00,0.0157
3628.00,0.0158
3627.00,0.0158
3626.00,0.0159
3625.00,0.0160
3624.00,0.0159
3623.00,0.0159
3622.00,0.0159
3621.00,0.0160
3620.00,0.0161
3619.00,0.0162
3618.00,0.0163
3617.00,0.0163
3616.00,0.0164
3615.00,0.0164
3614.00,0.0163
3613.00,0.0162
3612.00,0.0162
3611.00,0.0162
3610.00,0.0164
3609.00,0.0165
3608.00,0.0166
3607.00,0.0166
3606.00,0.0165
3605.00,0.0164
3604.00,0.0163
3603.00,0.0164
3602.00,0.0165
3601.00,0.0166
3600.00,0.0166
3599.00,0.0166
3598.00,0.0165
3597.00,0.0165
3596.00,0.0165
3595.00,0.0164
3594.00,0.0164
3593.00,0.0164
3592.00,0.0163
3591.00,0.0163
3590.00,0.0164
3589.00,0.0165
3588.00,0.0166
3587.00,0.0167
3586.00,0.0168
3585.00,0.0169
3584.00,0.0169
3583.00,0.0170
3582.00,0.0169
3581.00,0.0169
3580.00,0.0168
3579.00,0.0168
3578.00,0.0168
3577.00,0.0168
3576.00,0.0169
3575.00,0.0169
3574.00,0.0169
3573.00,0.0169
3572.00,0.0169
3571.00,0.0169
3570.00,0.0168
3569.00,0.0168
3568.00,0.0169
3567.00,0.0171
3566.00,0.0172
3565.00,0.0172
3564.00,0.0171
3563.00,0.0171
3562.00,0.0170
3561.00,0.0171
3560.00,0.0171
3559.00,0.0172
3558.00,0.0173
3557.00,0.0174
3556.00,0.0174
3555.00,0.0175
3554.00,0.0174
3553.00,0.0175
3552.00,0.0175
3551.00,0.0175
3550.00,0.0176
3549.00,0.0176
3548.00,0.0176
3547.00,0.0177
3546.00,0.0177
3545.00,0.0178
3544.00,0.0178
3543.00,0.0178
3542.00,0.0178
3541.00,0.0177
3540.00,0.0177
3539.00,0.0175
3538.00,0.0175
3537.00,0.0174
3536.00,0.0175
3535.00,0.0176
3534.00,0.0178
3533.00,0.0179
3532.00,0.0180
3531.00,0.0180
3530.00,0.0179
3529.00,0.0178
3528.00,0.0177
3527.00,0.0176
3526.00,0.0177
3525.00,0.0179
3524.00,0.0180
3523.00,0.0181
3522.00,0.0181
3521.00,0.0180
3520.00,0.0179
3519.00,0.0178
3518.00,0.0177
3517.00,0.0177
3516.00,0.0177
3515.00,0.0177
3514.00,0.0178
3513.00,0.0180
3512.00,0.0181
3511.00,0.0182
3510.00,0.0181
3509.00,0.0181
3508.00,0.0180
3507.00,0.0180
3506.00,0.0180
3505.00,0.0181
3504.00,0.0181
3503.00,0.0182
3502.00,0.0182
3501.00,0.0182
3500.00,0.0182
3499.00,0.0183
3498.00,0.0183
3497.00,0.0184
3496.00,0.0184
3495.00,0.0184
3494.00,0.0183
3493.00,0.0183
3492.00,0.0183
3491.00,0.0183
3490.00,0.0182
3489.00,0.0183
3488.00,0.0183
3487.00,0.0183
3486.00,0.0183
3485.00,0.0183
3484.00,0.0183
3483.00,0.0183
3482.00,0.0184
3481.00,0.0184
3480.00,0.0184
3479.00,0.0184
3478.00,0.0184
3477.00,0.0184
3476.00,0.0185
3475.00,0.0186
3474.00,0.0186
3473.00,0.0186
3472.00,0.0186
3471.00,0.0187
3470.00,0.0187
3469.00,0.0187
3468.00,0.0187
3467.00,0.0187
3466.00,0.0188
3465.00,0.0188
3464.00,0.0188
3463.00,0.0187
3462.00,0.0186
3461.00,0.0185
3460.00,0.0186
3459.00,0.0187
3458.00,0.0188
3457.00,0.0188
3456.00,0.0188
3455.00,0.0187
3454.00,0.0186
3453.00,0.0187
3452.00,0.0188
3451.00,0.0188
3450.00,0.0189
3449.00,0.0189
3448.00,0.0189
3447.00,0.0189
3446.00,0.0189
3445.00,0.0189
3444.00,0.0190
3443.00,0.0189
3442.00,0.0189
3441.00,0.0188
3440.00,0.0188
3439.00,0.0187
3438.00,0.0188
3437.00,0.0188
3436.00,0.0187
3435.00,0.0187
3434.00,0.0187
3433.00,0.0188
3432.00,0.0188
3431.00,0.0189
3430.00,0.0189
3429.00,0.0189
3428.00,0.0189
3427.00,0.0189
3426.00,0.0189
3425.00,0.0190
3424.00,0.0191
3423.00,0.0191
3422.00,0.0192
3421.00,0.0192
3420.00,0.0191
3419.00,0.0191
3418.00,0.0191
3417.00,0.0191
3416.00,0.0190
3415.00,0.0190
3414.00,0.0189
3413.00,0.0189
3412.00,0.0190
3411.00,0.0191
3410.00,0.0192
3409.00,0.0192
3408.00,0.0193
3407.00,0.0192
3406.00,0.0192
3405.00,0.0191
3404.00,0.0191
3403.00,0.0190
3402.00,0.0191
3401.00,0.0191
3400.00,0.0192
3399.00,0.0192
3398.00,0.0192
3397.00,0.0192
3396.00,0.0191
3395.00,0.0191
3394.00,0.0191
3393.00,0.0191
3392.00,0.0192
3391.00,0.0192
3390.00,0.0193
3389.00,0.0193
3388.00,0.0193
3387.00,0.0192
3386.00,0.0192
3385.00,0.0192
3384.00,0.0192
3383.00,0.0192
3382.00,0.0193
3381.00,0.0193
3380.00,0.0193
3379.00,0.0194
3378.00,0.0194
3377.00,0.0194
3376.00,0.0193
3375.00,0.0193
3374.00,0.0192
3373.00,0.0192
3372.00,0.0191
3371.00,0.0191
3370.00,0.0191
3369.00,0.0192
3368.00,0.0193
3367.00,0.0193
3366.00,0.0192
3365.00,0.0191
3364.00,0.0191
3363.00,0.0191
3362.00,0.0192
3361.00,0.0194
3360.00,0.0194
3359.00,0.0194
3358.00,0.0194
3357.00,0.0194
3356.00,0.0193
3355.00,0.0194
3354.00,0.0194
3353.00,0.0194
3352.00,0.0194
3351.00,0.0194
3350.00,0.0194
3349.00,0.0194
3348.00,0.0194
3347.00,0.0193
3346.00,0.0193
3345.00,0.0193
3344.00,0.0193
3343.00,0.0193
3342.00,0.0193
3341.00,0.0193
3340.00,0.0194
3339.00,0.0194
3338.00,0.0194
3337.00,0.0194
3336.00,0.0194
3335.00,0.0194
3334.00,0.0194
3333.00,0.0193
3332.00,0.0193
3331.00,0.0192
3330.00,0.0192
3329.00,0.0191
3328.00,0.0191
3327.00,0.0191
3326.00,0.0192
3325.00,0.0193
3324.00,0.0194
3323.00,0.0194
3322.00,0.0194
3321.00,0.0194
3320.00,0.0194
3319.00,0.0193
3318.00,0.0193
3317.00,0.0193
3316.00,0.0192
3315.00,0.0192
3314.00,0.0192
3313.00,0.0192
3312.00,0.0191
3311.00,0.0191
3310.00,0.0192
3309.00,0.0192
3308.00,0.0193
3307.00,0.0194
3306.00,0.0194
3305.00,0.0193
3304.00,0.0193
3303.00,0.0193
3302.00,0.0192
3301.00,0.0192
3300.00,0.0192
3299.00,0.0192
3298.00,0.0192
3297.00,0.0192
3296.00,0.0192
3295.00,0.0193
3294.00,0.0193
3293.00,0.0193
3292.00,0.0192
3291.00,0.0191
3290.00,0.0191
3289.00,0.0191
3288.00,0.0191
3287.00,0.0192
3286.00,0.0192
3285.00,0.0193
3284.00,0.0193
3283.00,0.0193
3282.00,0.0193
3281.00,0.0192
3280.00,0.0192
3279.00,0.0192
3278.00,0.0192
3277.00,0.0191
3276.00,0.0191
3275.00,0.0192
3274.00,0.0192
3273.00,0.0193
3272.00,0.0193
3271.00,0.0194
3270.00,0.0194
3269.00,0.0194
3268.00,0.0194
3267.00,0.0193
3266.00,0.0193
3265.00,0.0192
3264.00,0.0191
3263.00,0.0191
3262.00,0.0191
3261.00,0.0192
3260.00,0.0192
3259.00,0.0193
3258.00,0.0193
3257.00,0.0192
3256.00,0.0191
3255.00,0.0191
3254.00,0.0191
3253.00,0.0192
3252.00,0.0192
3251.00,0.0192
3250.00,0.0192
3249.00,0.0192
3248.00,0.0191
3247.00,0.0191
3246.00,0.0192
3245.00,0.0192
3244.00,0.0192
3243.00,0.0192
3242.00,0.0191
3241.00,0.0190
3240.00,0.0190
3239.00,0.0191
3238.00,0.0192
3237.00,0.0193
3236.00,0.0194
3235.00,0.0194
3234.00,0.0194
3233.00,0.0194
3232.00,0.0194
3231.00,0.0194
3230.00,0.0193
3229.00,0.0192
3228.00,0.0191
3227.00,0.0191
3226.00,0.0191
3225.00,0.0191
3224.00,0.0191
3223.00,0.0191
3222.00,0.0191
3221.00,0.0191
3220.00,0.0191
3219.00,0.0191
3218.00,0.0191
3217.00,0.0191
3216.00,0.0192
3215.00,0.0192
3214.00,0.0192
3213.00,0.0192
3212.00,0.0191
3211.00,0.0191
3210.00,0.0190
3209.00,0.0190
3208.00,0.0191
3207.00,0.0191
3206.00,0.0191
3205.00,0.0191
3204.00,0.0192
3203.00,0.0192
3202.00,0.0192
3201.00,0.0192
3200.00,0.0192
3199.00,0.0192
3198.00,0.0192
3197.00,0.0192
3196.00,0.0192
3195.00,0.0192
3194.00,0.0191
3193.00,0.0191
3192.00,0.0190
3191.00,0.0190
3190.00,0.0190
3189.00,0.0189
3188.00,0.0189
3187.00,0.0189
3186.00,0.0188
3185.00,0.0188
3184.00,0.0189
3183.00,0.0189
3182.00,0.0190
3181.00,0.0190
3180.00,0.0190
3179.00,0.0190
3178.00,0.0189
3177.00,0.0188
3176.00,0.0188
3175.00,0.0188
3174.00,0.0189
3173.00,0.0190
3172.00,0.0190
3171.00,0.0190
3170.00,0.0190
3169.00,0.0190
3168.00,0.0189
3167.00,0.0189
3166.00,0.0189
3165.00,0.0190
3164.00,0.0190
3163.00,0.0191
3162.00,0.0190
3161.00,0.0190
3160.00,0.0188
3159.00,0.0187
3158.00,0.0186
3157.00,0.0186
3156.00,0.0186
3155.00,0.0187
3154.00,0.0188
3153.00,0.0189
3152.00,0.0189
3151.00,0.0188
3150.00,0.0188
3149.00,0.0187
3148.00,0.0187
3147.00,0.0187
3146.00,0.0187
3145.00,0.0187
3144.00,0.0188
3143.00,0.0187
3142.00,0.0187
3141.00,0.0187
3140.00,0.0187
3139.00,0.0187
3138.00,0.0187
3137.00,0.0187
3136.00,0.0187
3135.00,0.0187
3134.00,0.0186
3133.00,0.0186
3132.00,0.0186
3131.00,0.0186
3130.00,0.0187
3129.00,0.0187
3128.00,0.0187
3127.00,0.0186
3126.00,0.0186
3125.00,0.0186
3124.00,0.0186
3123.00,0.0186
3122.00,0.0185
3121.00,0.0185
3120.00,0.0185
3119.00,0.0185
3118.00,0.0186
3117.00,0.0186
3116.00,0.0186
3115.00,0.0185
3114.00,0.0185
3113.00,0.0185
3112.00,0.0185
3111.00,0.0185
3110.00,0.0185
3109.00,0.0185
3108.00,0.0185
3107.00,0.0186
3106.00,0.0186
3105.00,0.0186
3104.00,0.0186
3103.00,0.0185
3102.00,0.0185
3101.00,0.0184
3100.00,0.0184
3099.00,0.0184
3098.00,0.0184
3097.00,0.0184
3096.00,0.0185
3095.00,0.0186
3094.00,0.0186
3093.00,0.0186
3092.00,0.0186
3091.00,0.0185
3090.00,0.0185
3089.00,0.0184
3088.00,0.0183
3087.00,0.0183
3086.00,0.0183
3085.00,0.0184
3084.00,0.0185
3083.00,0.0185
3082.00,0.0184
3081.00,0.0184
3080.00,0.0184
3079.00,0.0184
3078.00,0.0184
3077.00,0.0184
3076.00,0.0184
3075.00,0.0184
3074.00,0.0184
3073.00,0.0184
3072.00,0.0184
3071.00,0.0184
3070.00,0.0184
3069.00,0.0185
3068.00,0.0185
3067.00,0.0185
3066.00,0.0185
3065.00,0.0184
3064.00,0.0183
3063.00,0.0182
3062.00,0.0182
3061.00,0.0183
3060.00,0.0183
3059.00,0.0183
3058.00,0.0183
3057.00,0.0183
3056.00,0.0183
3055.00,0.0183
3054.00,0.0182
3053.00,0.0182
3052.00,0.0183
3051.00,0.0183
3050.00,0.0183
3049.00,0.0183
3048.00,0.0183
3047.00,0.0183
3046.00,0.0183
3045.00,0.0182
3044.00,0.0182
3043.00,0.0181
3042.00,0.0180
3041.00,0.0179
3040.00,0.0179
3039.00,0.0179
3038.00,0.0179
3037.00,0.0180
3036.00,0.0180
3035.00,0.0181
3034.00,0.0181
3033.00,0.0181
3032.00,0.0181
3031.00,0.0180
3030.00,0.0179
3029.00,0.0178
3028.00,0.0178
3027.00,0.0178
3026.00,0.0178
3025.00,0.0178
3024.00,0.0178
3023.00,0.0178
3022.00,0.0178
3021.00,0.0178
3020.00,0.0177
3019.00,0.0176
3018.00,0.0175
3017.00,0.0175
3016.00,0.0174
3015.00,0.0174
3014.00,0.0173
3013.00,0.0172
3012.00,0.0172
3011.00,0.0171
3010.00,0.0171
3009.00,0.0169
3008.00,0.0168
3007.00,0.0166
3006.00,0.0165
3005.00,0.0164
3004.00,0.0163
3003.00,0.0161
3002.00,0.0160
3001.00,0.0158
3000.00,0.0157
2999.00,0.0155
2998.00,0.0154
2997.00,0.0153
2996.00,0.0152
2995.00,0.0152
2994.00,0.0151
2993.00,0.0150
2992.00,0.0149
2991.00,0.0149
2990.00,0.0148
2989.00,0.0147
2988.00,0.0146
2987.00,0.0144
2986.00,0.0141
2985.00,0.0137
2984.00,0.0133
2983.00,0.0130
2982.00,0.0128
2981.00,0.0128
2980.00,0.0130
2979.00,0.0132
2978.00,0.0134
2977.00,0.0136
2976.00,0.0137
2975.00,0.0138
2974.00,0.0138
2973.00,0.0137
2972.00,0.0136
2971.00,0.0136
2970.00,0.0137
2969.00,0.0139
2968.00,0.0141
2967.00,0.0142
2966.00,0.0142
2965.00,0.0143
2964.00,0.0144
2963.00,0.0145
2962.00,0.0146
2961.00,0.0146
2960.00,0.0146
2959.00,0.0146
2958.00,0.0146
2957.00,0.0146
2956.00,0.0147
2955.00,0.0149
2954.00,0.0150
2953.00,0.0151
2952.00,0.0151
2951.00,0.0152
2950.00,0.0153
2949.00,0.0153
2948.00,0.0153
2947.00,0.0153
2946.00,0.0153
2945.00,0.0154
2944.00,0.0154
2943.00,0.0155
2942.00,0.0155
2941.00,0.0155
2940.00,0.0155
2939.00,0.0154
2938.00,0.0154
2937.00,0.0154
2936.00,0.0154
2935.00,0.0153
2934.00,0.0153
2933.00,0.0152
2932.00,0.0151
2931.00,0.0151
2930.00,0.0150
2929.00,0.0150
2928.00,0.0150
2927.00,0.0150
2926.00,0.0149
2925.00,0.0148
2924.00,0.0148
2923.00,0.0148
2922.00,0.0148
2921.00,0.0148
2920.00,0.0148
2919.00,0.0147
2918.00,0.0146
2917.00,0.0146
2916.00,0.0146
2915.00,0.0147
2914.00,0.0148
2913.00,0.0148
2912.00,0.0149
2911.00,0.0150
2910.00,0.0151
2909.00,0.0151
2908.00,0.0151
2907.00,0.0151
2906.00,0.0151
2905.00,0.0151
2904.00,0.0151
2903.00,0.0151
2902.00,0.0151
2901.00,0.0151
2900.00,0.0151
2899.00,0.0151
2898.00,0.0151
2897.00,0.0151
2896.00,0.0150
2895.00,0.0150
2894.00,0.0150
2893.00,0.0150
2892.00,0.0150
2891.00,0.0150
2890.00,0.0150
2889.00,0.0150
2888.00,0.0150
2887.00,0.0150
2886.00,0.0150
2885.00,0.0150
2884.00,0.0150
2883.00,0.0150
2882.00,0.0151
2881.00,0.0151
2880.00,0.0152
2879.00,0.0152
2878.00,0.0152
2877.00,0.0153
2876.00,0.0153
2875.00,0.0153
2874.00,0.0153
2873.00,0.0152
2872.00,0.0152
2871.00,0.0152
2870.00,0.0153
2869.00,0.0153
2868.00,0.0153
2867.00,0.0153
2866.00,0.0153
2865.00,0.0153
2864.00,0.0153
2863.00,0.0153
2862.00,0.0153
2861.00,0.0154
2860.00,0.0154
2859.00,0.0155
2858.00,0.0155
2857.00,0.0155
2856.00,0.0154
2855.00,0.0153
2854.00,0.0153
2853.00,0.0152
2852.00,0.0153
2851.00,0.0154
2850.00,0.0155
2849.00,0.0155
2848.00,0.0155
2847.00,0.0156
2846.00,0.0156
2845.00,0.0157
2844.00,0.0157
2843.00,0.0157
2842.00,0.0157
2841.00,0.0157
2840.00,0.0157
2839.00,0.0157
2838.00,0.0157
2837.00,0.0157
2836.00,0.0158
2835.00,0.0159
2834.00,0.0159
2833.00,0.0159
2832.00,0.0159
2831.00,0.0158
2830.00,0.0158
2829.00,0.0158
2828.00,0.0158
2827.00,0.0158
2826.00,0.0159
2825.00,0.0159
2824.00,0.0159
2823.00,0.0159
2822.00,0.0158
2821.00,0.0158
2820.00,0.0157
2819.00,0.0157
2818.00,0.0157
2817.00,0.0157
2816.00,0.0157
2815.00,0.0157
2814.00,0.0156
2813.00,0.0156
2812.00,0.0156
2811.00,0.0156
2810.00,0.0156
2809.00,0.0156
2808.00,0.0156
2807.00,0.0156
2806.00,0.0156
2805.00,0.0156
2804.00,0.0156
2803.00,0.0156
2802.00,0.0156
2801.00,0.0156
2800.00,0.0157
2799.00,0.0157
2798.00,0.0157
2797.00,0.0156
2796.00,0.0156
2795.00,0.0156
2794.00,0.0156
2793.00,0.0156
2792.00,0.0156
2791.00,0.0156
2790.00,0.0157
2789.00,0.0157
2788.00,0.0156
2787.00,0.0156
2786.00,0.0156
2785.00,0.0156
2784.00,0.0155
2783.00,0.0155
2782.00,0.0155
2781.00,0.0154
2780.00,0.0154
2779.00,0.0154
2778.00,0.0154
2777.00,0.0154
2776.00,0.0155
2775.00,0.0155
2774.00,0.0155
2773.00,0.0155
2772.00,0.0154
2771.00,0.0154
2770.00,0.0153
2769.00,0.0153
2768.00,0.0152
2767.00,0.0153
2766.00,0.0153
2765.00,0.0153
2764.00,0.0153
2763.00,0.0153
2762.00,0.0154
2761.00,0.0154
2760.00,0.0154
2759.00,0.0154
2758.00,0.0154
2757.00,0.0154
2756.00,0.0153
2755.00,0.0153
2754.00,0.0153
2753.00,0.0153
2752.00,0.0153
2751.00,0.0153
2750.00,0.0153
2749.00,0.0153
2748.00,0.0153
2747.00,0.0153
2746.00,0.0153
2745.00,0.0153
2744.00,0.0153
2743.00,0.0153
2742.00,0.0153
2741.00,0.0153
2740.00,0.0152
2739.00,0.0152
2738.00,0.0151
2737.00,0.0151
2736.00,0.0151
2735.00,0.0151
2734.00,0.0151
2733.00,0.0152
2732.00,0.0152
2731.00,0.0152
2730.00,0.0152
2729.00,0.0152
2728.00,0.0151
2727.00,0.0151
2726.00,0.0151
2725.00,0.0151
2724.00,0.0151
2723.00,0.0151
2722.00,0.0151
2721.00,0.0151
2720.00,0.0151
2719.00,0.0151
2718.00,0.0151
2717.00,0.0151
2716.00,0.0151
2715.00,0.0151
2714.00,0.0151
2713.00,0.0151
2712.00,0.0151
2711.00,0.0151
2710.00,0.0151
2709.00,0.0151
2708.00,0.0150
2707.00,0.0150
2706.00,0.0150
2705.00,0.0150
2704.00,0.0150
2703.00,0.0150
2702.00,0.0149
2701.00,0.0149
2700.00,0.0149
2699.00,0.0150
2698.00,0.0150
2697.00,0.0150
2696.00,0.0149
2695.00,0.0149
2694.00,0.0150
2693.00,0.0150
2692.00,0.0150
2691.00,0.0150
2690.00,0.0149
2689.00,0.0149
2688.00,0.0149
2687.00,0.0149
2686.00,0.0149
2685.00,0.0150
2684.00,0.0150
2683.00,0.0150
2682.00,0.0150
2681.00,0.0149
2680.00,0.0149
2679.00,0.0148
2678.00,0.0148
2677.00,0.0147
2676.00,0.0147
2675.00,0.0147
2674.00,0.0148
2673.00,0.0148
2672.00,0.0148
2671.00,0.0148
2670.00,0.0147
2669.00,0.0147
2668.00,0.0147
2667.00,0.0147
2666.00,0.0148
2665.00,0.0148
2664.00,0.0149
2663.00,0.0149
2662.00,0.0149
2661.00,0.0149
2660.00,0.0150
2659.00,0.0150
2658.00,0.0150
2657.00,0.0150
2656.00,0.0150
2655.00,0.0149
2654.00,0.0149
2653.00,0.0149
2652.00,0.0150
2651.00,0.0150
2650.00,0.0150
2649.00,0.0150
2648.00,0.0150
2647.00,0.0149
2646.00,0.0149
2645.00,0.0149
2644.00,0.0149
2643.00,0.0150
2642.00,0.0150
2641.00,0.0150
2640.00,0.0150
2639.00,0.0150
2638.00,0.0150
2637.00,0.0150
2636.00,0.0149
2635.00,0.0149
2634.00,0.0150
2633.00,0.0150
2632.00,0.0150
2631.00,0.0150
2630.00,0.0150
2629.00,0.0149
2628.00,0.0148
2627.00,0.0147
2626.00,0.0147
2625.00,0.0148
2624.00,0.0149
2623.00,0.0150
2622.00,0.0150
2621.00,0.0150
2620.00,0.0150
2619.00,0.0150
2618.00,0.0150
2617.00,0.0150
2616.00,0.0150
2615.00,0.0149
2614.00,0.0149
2613.00,0.0149
2612.00,0.0149
2611.00,0.0150
2610.00,0.0149
2609.00,0.0149
2608.00,0.0148
2607.00,0.0148
2606.00,0.0149
2605.00,0.0150
2604.00,0.0150
2603.00,0.0151
2602.00,0.0151
2601.00,0.0150
2600.00,0.0150
2599.00,0.0149
2598.00,0.0149
2597.00,0.0149
2596.00,0.0148
2595.00,0.0148
2594.00,0.0148
2593.00,0.0149
2592.00,0.0149
2591.00,0.0150
2590.00,0.0150
2589.00,0.0150
2588.00,0.0150
2587.00,0.0149
2586.00,0.0148
2585.00,0.0148
2584.00,0.0147
2583.00,0.0147
2582.00,0.0147
2581.00,0.0148
2580.00,0.0148
2579.00,0.0149
2578.00,0.0149
2577.00,0.0148
2576.00,0.0148
2575.00,0.0147
2574.00,0.0147
2573.00,0.0147
2572.00,0.0147
2571.00,0.0146
2570.00,0.0146
2569.00,0.0146
2568.00,0.0147
2567.00,0.0148
2566.00,0.0149
2565.00,0.0149
2564.00,0.0148
2563.00,0.0148
2562.00,0.0149
2561.00,0.0149
2560.00,0.0149
2559.00,0.0149
2558.00,0.0149
2557.00,0.0149
2556.00,0.0149
2555.00,0.0149
2554.00,0.0149
2553.00,0.0148
2552.00,0.0147
2551.00,0.0146
2550.00,0.0145
2549.00,0.0144
2548.00,0.0144
2547.00,0.0144
2546.00,0.0144
2545.00,0.0145
2544.00,0.0145
2543.00,0.0146
2542.00,0.0145
2541.00,0.0144
2540.00,0.0142
2539.00,0.0141
2538.00,0.0141
2537.00,0.0141
2536.00,0.0142
2535.00,0.0142
2534.00,0.0144
2533.00,0.0144
2532.00,0.0145
2531.00,0.0144
2530.00,0.0143
2529.00,0.0143
2528.00,0.0143
2527.00,0.0143
2526.00,0.0142
2525.00,0.0142
2524.00,0.0141
2523.00,0.0141
2522.00,0.0142
2521.00,0.0142
2520.00,0.0143
2519.00,0.0144
2518.00,0.0145
2517.00,0.0145
2516.00,0.0146
2515.00,0.0145
2514.00,0.0144
2513.00,0.0143
2512.00,0.0142
2511.00,0.0143
2510.00,0.0144
2509.00,0.0145
2508.00,0.0145
2507.00,0.0145
2506.00,0.0145
2505.00,0.0144
2504.00,0.0144
2503.00,0.0144
2502.00,0.0145
2501.00,0.0145
2500.00,0.0146
2499.00,0.0146
2498.00,0.0145
2497.00,0.0145
2496.00,0.0145
2495.00,0.0145
2494.00,0.0145
2493.00,0.0145
2492.00,0.0145
2491.00,0.0145
2490.00,0.0145
2489.00,0.0145
2488.00,0.0145
2487.00,0.0145
2486.00,0.0145
2485.00,0.0144
2484.00,0.0143
2483.00,0.0143
2482.00,0.0143
2481.00,0.0144
2480.00,0.0144
2479.00,0.0144
2478.00,0.0144
2477.00,0.0144
2476.00,0.0143
2475.00,0.0143
2474.00,0.0144
2473.00,0.0144
2472.00,0.0144
2471.00,0.0144
2470.00,0.0143
2469.00,0.0143
2468.00,0.0142
2467.00,0.0142
2466.00,0.0141
2465.00,0.0141
2464.00,0.0141
2463.00,0.0141
2462.00,0.0141
2461.00,0.0141
2460.00,0.0142
2459.00,0.0142
2458.00,0.0143
2457.00,0.0143
2456.00,0.0143
2455.00,0.0144
2454.00,0.0145
2453.00,0.0146
2452.00,0.0146
2451.00,0.0145
2450.00,0.0144
2449.00,0.0143
2448.00,0.0142
2447.00,0.0142
2446.00,0.0142
2445.00,0.0142
2444.00,0.0141
2443.00,0.0141
2442.00,0.0141
2441.00,0.0141
2440.00,0.0142
2439.00,0.0142
2438.00,0.0142
2437.00,0.0142
2436.00,0.0141
2435.00,0.0140
2434.00,0.0140
2433.00,0.0139
2432.00,0.0139
2431.00,0.0140
2430.00,0.0141
2429.00,0.0141
2428.00,0.0141
2427.00,0.0141
2426.00,0.0140
2425.00,0.0140
2424.00,0.0140
2423.00,0.0140
2422.00,0.0140
2421.00,0.0140
2420.00,0.0140
2419.00,0.0139
2418.00,0.0139
2417.00,0.0138
2416.00,0.0138
2415.00,0.0138
2414.00,0.0139
2413.00,0.0139
2412.00,0.0140
2411.00,0.0140
2410.00,0.0140
2409.00,0.0140
2408.00,0.0140
2407.00,0.0139
2406.00,0.0139
2405.00,0.0139
2404.00,0.0138
2403.00,0.0138
2402.00,0.0137
2401.00,0.0137
2400.00,0.0137
2399.00,0.0137
2398.00,0.0137
2397.00,0.0136
2396.00,0.0136
2395.00,0.0136
2394.00,0.0136
2393.00,0.0135
2392.00,0.0135
2391.00,0.0135
2390.00,0.0135
2389.00,0.0135
2388.00,0.0135
2387.00,0.0134
2386.00,0.0134
2385.00,0.0134
2384.00,0.0133
2383.00,0.0132
2382.00,0.0131
2381.00,0.0131
2380.00,0.0131
2379.00,0.0131
2378.00,0.0131
2377.00,0.0131
2376.00,0.0130
2375.00,0.0130
2374.00,0.0130
2373.00,0.0131
2372.00,0.0130
2371.00,0.0129
2370.00,0.0126
2369.00,0.0123
2368.00,0.0120
2367.00,0.0120
2366.00,0.0122
2365.00,0.0125
2364.00,0.0127
2363.00,0.0127
2362.00,0.0128
2361.00,0.0129
2360.00,0.0130
2359.00,0.0130
2358.00,0.0129
2357.00,0.0128
2356.00,0.0128
2355.00,0.0127
2354.00,0.0126
2353.00,0.0126
2352.00,0.0127
2351.00,0.0128
2350.00,0.0127
2349.00,0.0124
2348.00,0.0121
2347.00,0.0118
2346.00,0.0118
2345.00,0.0121
2344.00,0.0125
2343.00,0.0128
2342.00,0.0131
2341.00,0.0132
2340.00,0.0132
2339.00,0.0130
2338.00,0.0128
2337.00,0.0127
2336.00,0.0127
2335.00,0.0128
2334.00,0.0129
2333.00,0.0130
2332.00,0.0130
2331.00,0.0129
2330.00,0.0129
2329.00,0.0130
2328.00,0.0132
2327.00,0.0134
2326.00,0.0135
2325.00,0.0135
2324.00,0.0134
2323.00,0.0133
2322.00,0.0133
2321.00,0.0134
2320.00,0.0134
2319.00,0.0133
2318.00,0.0132
2317.00,0.0132
2316.00,0.0131
2315.00,0.0131
2314.00,0.0131
2313.00,0.0131
2312.00,0.0131
2311.00,0.0132
2310.00,0.0133
2309.00,0.0134
2308.00,0.0135
2307.00,0.0134
2306.00,0.0134
2305.00,0.0133
2304.00,0.0132
2303.00,0.0131
2302.00,0.0131
2301.00,0.0131
2300.00,0.0132
2299.00,0.0133
2298.00,0.0134
2297.00,0.0133
2296.00,0.0133
2295.00,0.0133
2294.00,0.0133
2293.00,0.0135
2292.00,0.0136
2291.00,0.0137
2290.00,0.0137
2289.00,0.0137
2288.00,0.0137
2287.00,0.0138
2286.00,0.0139
2285.00,0.0140
2284.00,0.0141
2283.00,0.0141
2282.00,0.0141
2281.00,0.0140
2280.00,0.0139
2279.00,0.0138
2278.00,0.0139
2277.00,0.0138
2276.00,0.0137
2275.00,0.0136
2274.00,0.0134
2273.00,0.0133
2272.00,0.0133
2271.00,0.0134
2270.00,0.0134
2269.00,0.0133
2268.00,0.0133
2267.00,0.0132
2266.00,0.0132
2265.00,0.0132
2264.00,0.0134
2263.00,0.0135
2262.00,0.0136
2261.00,0.0137
2260.00,0.0138
2259.00,0.0138
2258.00,0.0136
2257.00,0.0133
2256.00,0.0130
2255.00,0.0130
2254.00,0.0130
2253.00,0.0131
2252.00,0.0132
2251.00,0.0133
2250.00,0.0134
2249.00,0.0134
2248.00,0.0133
2247.00,0.0134
2246.00,0.0135
2245.00,0.0136
2244.00,0.0137
2243.00,0.0136
2242.00,0.0135
2241.00,0.0133
2240.00,0.0132
2239.00,0.0131
2238.00,0.0131
2237.00,0.0131
2236.00,0.0132
2235.00,0.0133
2234.00,0.0134
2233.00,0.0135
2232.00,0.0134
2231.00,0.0133
2230.00,0.0132
2229.00,0.0131
2228.00,0.0131
2227.00,0.0132
2226.00,0.0132
2225.00,0.0132
2224.00,0.0131
2223.00,0.0130
2222.00,0.0129
2221.00,0.0129
2220.00,0.0130
2219.00,0.0130
2218.00,0.0130
2217.00,0.0131
2216.00,0.0132
2215.00,0.0133
2214.00,0.0135
2213.00,0.0135
2212.00,0.0134
2211.00,0.0132
2210.00,0.0131
2209.00,0.0132
2208.00,0.0133
2207.00,0.0134
2206.00,0.0134
2205.00,0.0134
2204.00,0.0134
2203.00,0.0133
2202.00,0.0132
2201.00,0.0131
2200.00,0.0130
2199.00,0.0129
2198.00,0.0129
2197.00,0.0130
2196.00,0.0130
2195.00,0.0130
2194.00,0.0130
2193.00,0.0130
2192.00,0.0129
2191.00,0.0128
2190.00,0.0125
2189.00,0.0123
2188.00,0.0124
2187.00,0.0127
2186.00,0.0131
2185.00,0.0133
2184.00,0.0131
2183.00,0.0128
2182.00,0.0125
2181.00,0.0125
2180.00,0.0127
2179.00,0.0130
2178.00,0.0133
2177.00,0.0135
2176.00,0.0135
2175.00,0.0133
2174.00,0.0130
2173.00,0.0128
2172.00,0.0128
2171.00,0.0129
2170.00,0.0132
2169.00,0.0135
2168.00,0.0136
2167.00,0.0136
2166.00,0.0137
2165.00,0.0139
2164.00,0.0142
2163.00,0.0145
2162.00,0.0145
2161.00,0.0142
2160.00,0.0134
2159.00,0.0125
2158.00,0.0119
2157.00,0.0116
2156.00,0.0117
2155.00,0.0119
2154.00,0.0122
2153.00,0.0125
2152.00,0.0126
2151.00,0.0124
2150.00,0.0120
2149.00,0.0117
2148.00,0.0116
2147.00,0.0119
2146.00,0.0123
2145.00,0.0126
2144.00,0.0129
2143.00,0.0130
2142.00,0.0132
2141.00,0.0132
2140.00,0.0131
2139.00,0.0129
2138.00,0.0126
2137.00,0.0123
2136.00,0.0121
2135.00,0.0119
2134.00,0.0118
2133.00,0.0119
2132.00,0.0120
2131.00,0.0121
2130.00,0.0122
2129.00,0.0124
2128.00,0.0125
2127.00,0.0126
2126.00,0.0126
2125.00,0.0125
2124.00,0.0125
2123.00,0.0124
2122.00,0.0124
2121.00,0.0124
2120.00,0.0124
2119.00,0.0124
2118.00,0.0125
2117.00,0.0125
2116.00,0.0124
2115.00,0.0122
2114.00,0.0120
2113.00,0.0119
2112.00,0.0120
2111.00,0.0123
2110.00,0.0125
2109.00,0.0127
2108.00,0.0129
2107.00,0.0129
2106.00,0.0129
2105.00,0.0128
2104.00,0.0127
2103.00,0.0127
2102.00,0.0127
2101.00,0.0126
2100.00,0.0125
2099.00,0.0123
2098.00,0.0121
2097.00,0.0120
2096.00,0.0121
2095.00,0.0122
2094.00,0.0123
2093.00,0.0123
2092.00,0.0124
2091.00,0.0123
2090.00,0.0123
2089.00,0.0123
2088.00,0.0124
2087.00,0.0125
2086.00,0.0126
2085.00,0.0127
2084.00,0.0128
2083.00,0.0128
2082.00,0.0127
2081.00,0.0127
2080.00,0.0127
2079.00,0.0127
2078.00,0.0127
2077.00,0.0127
2076.00,0.0127
2075.00,0.0128
2074.00,0.0127
2073.00,0.0127
2072.00,0.0126
2071.00,0.0127
2070.00,0.0127
2069.00,0.0126
2068.00,0.0124
2067.00,0.0123
2066.00,0.0123
2065.00,0.0124
2064.00,0.0126
2063.00,0.0127
2062.00,0.0128
2061.00,0.0127
2060.00,0.0126
2059.00,0.0124
2058.00,0.0124
2057.00,0.0124
2056.00,0.0124
2055.00,0.0124
2054.00,0.0125
2053.00,0.0128
2052.00,0.0129
2051.00,0.0129
2050.00,0.0127
2049.00,0.0126
2048.00,0.0125
2047.00,0.0126
2046.00,0.0128
2045.00,0.0129
2044.00,0.0129
2043.00,0.0129
2042.00,0.0128
2041.00,0.0127
2040.00,0.0126
2039.00,0.0126
2038.00,0.0128
2037.00,0.0131
2036.00,0.0133
2035.00,0.0131
2034.00,0.0128
2033.00,0.0126
2032.00,0.0127
2031.00,0.0130
2030.00,0.0130
2029.00,0.0129
2028.00,0.0126
2027.00,0.0124
2026.00,0.0124
2025.00,0.0124
2024.00,0.0122
2023.00,0.0120
2022.00,0.0119
2021.00,0.0119
2020.00,0.0118
2019.00,0.0116
2018.00,0.0114
2017.00,0.0113
2016.00,0.0114
2015.00,0.0117
2014.00,0.0120
2013.00,0.0121
2012.00,0.0122
2011.00,0.0122
2010.00,0.0121
2009.00,0.0121
2008.00,0.0119
2007.00,0.0117
2006.00,0.0116
2005.00,0.0116
2004.00,0.0116
2003.00,0.0118
2002.00,0.0121
2001.00,0.0124
2000.00,0.0125
1999.00,0.0123
1998.00,0.0122
1997.00,0.0121
1996.00,0.0122
1995.00,0.0125
1994.00,0.0128
1993.00,0.0130
1992.00,0.0130
1991.00,0.0127
1990.00,0.0124
1989.00,0.0123
1988.00,0.0123
1987.00,0.0123
1986.00,0.0123
1985.00,0.0122
1984.00,0.0122
1983.00,0.0123
1982.00,0.0123
1981.00,0.0124
1980.00,0.0122
1979.00,0.0119
1978.00,0.0115
1977.00,0.0113
1976.00,0.0113
1975.00,0.0116
1974.00,0.0119
1973.00,0.0121
1972.00,0.0119
1971.00,0.0116
1970.00,0.0114
1969.00,0.0116
1968.00,0.0118
1967.00,0.0119
1966.00,0.0118
1965.00,0.0116
1964.00,0.0114
1963.00,0.0114
1962.00,0.0113
1961.00,0.0113
1960.00,0.0114
1959.00,0.0116
1958.00,0.0118
1957.00,0.0118
1956.00,0.0117
1955.00,0.0116
1954.00,0.0116
1953.00,0.0116
1952.00,0.0117
1951.00,0.0116
1950.00,0.0114
1949.00,0.0112
1948.00,0.0112
1947.00,0.0113
1946.00,0.0113
1945.00,0.0112
1944.00,0.0109
1943.00,0.0108
1942.00,0.0107
1941.00,0.0108
1940.00,0.0108
1939.00,0.0108
1938.00,0.0109
1937.00,0.0109
1936.00,0.0110
1935.00,0.0109
1934.00,0.0108
1933.00,0.0107
1932.00,0.0108
1931.00,0.0109
1930.00,0.0111
1929.00,0.0113
1928.00,0.0115
1927.00,0.0117
1926.00,0.0117
1925.00,0.0116
1924.00,0.0115
1923.00,0.0113
1922.00,0.0113
1921.00,0.0113
1920.00,0.0112
1919.00,0.0111
1918.00,0.0109
1917.00,0.0109
1916.00,0.0110
1915.00,0.0110
1914.00,0.0110
1913.00,0.0110
1912.00,0.0109
1911.00,0.0109
1910.00,0.0109
1909.00,0.0108
1908.00,0.0107
1907.00,0.0107
1906.00,0.0107
1905.00,0.0108
1904.00,0.0110
1903.00,0.0111
1902.00,0.0111
1901.00,0.0110
1900.00,0.0110
1899.00,0.0110
1898.00,0.0110
1897.00,0.0110
1896.00,0.0108
1895.00,0.0106
1894.00,0.0106
1893.00,0.0106
1892.00,0.0107
1891.00,0.0108
1890.00,0.0108
1889.00,0.0107
1888.00,0.0107
1887.00,0.0106
1886.00,0.0106
1885.00,0.0107
1884.00,0.0107
1883.00,0.0107
1882.00,0.0107
1881.00,0.0107
1880.00,0.0107
1879.00,0.0107
1878.00,0.0106
1877.00,0.0105
1876.00,0.0104
1875.00,0.0105
1874.00,0.0106
1873.00,0.0108
1872.00,0.0109
1871.00,0.0109
1870.00,0.0108
1869.00,0.0106
1868.00,0.0105
1867.00,0.0105
1866.00,0.0105
1865.00,0.0106
1864.00,0.0106
1863.00,0.0105
1862.00,0.0104
1861.00,0.0103
1860.00,0.0102
1859.00,0.0102
1858.00,0.0102
1857.00,0.0104
1856.00,0.0104
1855.00,0.0104
1854.00,0.0104
1853.00,0.0103
1852.00,0.0102
1851.00,0.0103
1850.00,0.0104
1849.00,0.0104
1848.00,0.0105
1847.00,0.0105
1846.00,0.0106
1845.00,0.0106
1844.00,0.0105
1843.00,0.0104
1842.00,0.0103
1841.00,0.0103
1840.00,0.0103
1839.00,0.0102
1838.00,0.0102
1837.00,0.0103
1836.00,0.0103
1835.00,0.0102
1834.00,0.0102
1833.00,0.0103
1832.00,0.0103
1831.00,0.0104
1830.00,0.0103
1829.00,0.0102
1828.00,0.0101
1827.00,0.0102
1826.00,0.0102
1825.00,0.0101
1824.00,0.0101
1823.00,0.0101
1822.00,0.0102
1821.00,0.0102
1820.00,0.0101
1819.00,0.0100
1818.00,0.0099
1817.00,0.0099
1816.00,0.0098
1815.00,0.0099
1814.00,0.0099
1813.00,0.0100
1812.00,0.0100
1811.00,0.0100
1810.00,0.0100
1809.00,0.0100
1808.00,0.0101
1807.00,0.0101
1806.00,0.0101
1805.00,0.0102
1804.00,0.0102
1803.00,0.0102
1802.00,0.0103
1801.00,0.0103
1800.00,0.0102
1799.00,0.0102
1798.00,0.0103
1797.00,0.0103
1796.00,0.0104
1795.00,0.0104
1794.00,0.0104
1793.00,0.0104
1792.00,0.0104
1791.00,0.0105
1790.00,0.0105
1789.00,0.0105
1788.00,0.0106
1787.00,0.0107
1786.00,0.0107
1785.00,0.0108
1784.00,0.0108
1783.00,0.0108
1782.00,0.0109
1781.00,0.0109
1780.00,0.0108
1779.00,0.0109
1778.00,0.0110
1777.00,0.0111
1776.00,0.0112
1775.00,0.0113
1774.00,0.0114
1773.00,0.0114
1772.00,0.0113
1771.00,0.0112
1770.00,0.0113
1769.00,0.0115
1768.00,0.0116
1767.00,0.0117
1766.00,0.0117
1765.00,0.0118
1764.00,0.0118
1763.00,0.0118
1762.00,0.0117
1761.00,0.0117
1760.00,0.0118
1759.00,0.0119
1758.00,0.0119
1757.00,0.0120
1756.00,0.0120
1755.00,0.0121
1754.00,0.0122
1753.00,0.0123
1752.00,0.0123
1751.00,0.0122
1750.00,0.0121
1749.00,0.0121
1748.00,0.0121
1747.00,0.0122
1746.00,0.0123
1745.00,0.0124
1744.00,0.0126
1743.00,0.0127
1742.00,0.0128
1741.00,0.0128
1740.00,0.0129
1739.00,0.0129
1738.00,0.0130
1737.00,0.0132
1736.00,0.0134
1735.00,0.0136
1734.00,0.0137
1733.00,0.0137
1732.00,0.0137
1731.00,0.0138
1730.00,0.0139
1729.00,0.0140
1728.00,0.0142
1727.00,0.0143
1726.00,0.0144
1725.00,0.0146
1724.00,0.0147
1723.00,0.0149
1722.00,0.0150
1721.00,0.0151
1720.00,0.0151
1719.00,0.0151
1718.00,0.0152
1717.00,0.0154
1716.00,0.0155
1715.00,0.0157
1714.00,0.0159
1713.00,0.0160
1712.00,0.0161
1711.00,0.0162
1710.00,0.0163
1709.00,0.0163
1708.00,0.0164
1707.00,0.0164
1706.00,0.0164
1705.00,0.0165
1704.00,0.0166
1703.00,0.0168
1702.00,0.0170
1701.00,0.0170
1700.00,0.0169
1699.00,0.0168
1698.00,0.0169
1697.00,0.0170
1696.00,0.0170
1695.00,0.0170
1694.00,0.0170
1693.00,0.0171
1692.00,0.0171
1691.00,0.0171
1690.00,0.0172
1689.00,0.0172
1688.00,0.0172
1687.00,0.0172
1686.00,0.0171
1685.00,0.0170
1684.00,0.0169
1683.00,0.0169
1682.00,0.0169
1681.00,0.0170
1680.00,0.0170
1679.00,0.0171
1678.00,0.0172
1677.00,0.0174
1676.00,0.0175
1675.00,0.0176
1674.00,0.0176
1673.00,0.0176
1672.00,0.0175
1671.00,0.0175
1670.00,0.0175
1669.00,0.0175
1668.00,0.0175
1667.00,0.0175
1666.00,0.0176
1665.00,0.0176
1664.00,0.0176
1663.00,0.0177
1662.00,0.0177
1661.00,0.0178
1660.00,0.0180
1659.00,0.0182
1658.00,0.0183
1657.00,0.0183
1656.00,0.0183
1655.00,0.0181
1654.00,0.0180
1653.00,0.0181
1652.00,0.0182
1651.00,0.0184
1650.00,0.0185
1649.00,0.0185
1648.00,0.0185
1647.00,0.0187
1646.00,0.0189
1645.00,0.0191
1644.00,0.0193
1643.00,0.0194
1642.00,0.0194
1641.00,0.0194
1640.00,0.0195
1639.00,0.0195
1638.00,0.0195
1637.00,0.0196
1636.00,0.0198
1635.00,0.0200
1634.00,0.0201
1633.00,0.0201
1632.00,0.0201
1631.00,0.0201
1630.00,0.0202
1629.00,0.0203
1628.00,0.0204
1627.00,0.0205
1626.00,0.0207
1625.00,0.0208
1624.00,0.0209
1623.00,0.0210
1622.00,0.0211
1621.00,0.0212
1620.00,0.0213
1619.00,0.0214
1618.00,0.0214
1617.00,0.0215
1616.00,0.0215
1615.00,0.0216
1614.00,0.0217
1613.00,0.0218
1612.00,0.0218
1611.00,0.0219
1610.00,0.0220
1609.00,0.0220
1608.00,0.0221
1607.00,0.0222
1606.00,0.0223
1605.00,0.0224
1604.00,0.0224
1603.00,0.0225
1602.00,0.0224
1601.00,0.0223
1600.00,0.0223
1599.00,0.0223
1598.00,0.0224
1597.00,0.0225
1596.00,0.0226
1595.00,0.0228
1594.00,0.0228
1593.00,0.0229
1592.00,0.0229
1591.00,0.0229
1590.00,0.0229
1589.00,0.0230
1588.00,0.0231
1587.00,0.0232
1586.00,0.0233
1585.00,0.0233
1584.00,0.0233
1583.00,0.0233
1582.00,0.0233
1581.00,0.0232
1580.00,0.0232
1579.00,0.0233
1578.00,0.0234
1577.00,0.0235
1576.00,0.0235
1575.00,0.0234
1574.00,0.0234
1573.00,0.0233
1572.00,0.0233
1571.00,0.0233
1570.00,0.0233
1569.00,0.0233
1568.00,0.0233
1567.00,0.0234
1566.00,0.0233
1565.00,0.0232
1564.00,0.0231
1563.00,0.0231
1562.00,0.0231
1561.00,0.0229
1560.00,0.0229
1559.00,0.0229
1558.00,0.0228
1557.00,0.0227
1556.00,0.0227
1555.00,0.0227
1554.00,0.0227
1553.00,0.0228
1552.00,0.0227
1551.00,0.0226
1550.00,0.0225
1549.00,0.0224
1548.00,0.0222
1547.00,0.0221
1546.00,0.0221
1545.00,0.0220
1544.00,0.0218
1543.00,0.0217
1542.00,0.0215
1541.00,0.0214
1540.00,0.0212
1539.00,0.0210
1538.00,0.0210
1537.00,0.0210
1536.00,0.0210
1535.00,0.0209
1534.00,0.0208
1533.00,0.0207
1532.00,0.0206
1531.00,0.0206
1530.00,0.0206
1529.00,0.0206
1528.00,0.0205
1527.00,0.0204
1526.00,0.0203
1525.00,0.0201
1524.00,0.0200
1523.00,0.0199
1522.00,0.0198
1521.00,0.0198
1520.00,0.0198
1519.00,0.0198
1518.00,0.0198
1517.00,0.0197
1516.00,0.0196
1515.00,0.0196
1514.00,0.0196
1513.00,0.0196
1512.00,0.0195
1511.00,0.0194
1510.00,0.0193
1509.00,0.0193
1508.00,0.0193
1507.00,0.0192
1506.00,0.0191
1505.00,0.0191
1504.00,0.0191
1503.00,0.0191
1502.00,0.0190
1501.00,0.0190
1500.00,0.0189
1499.00,0.0190
1498.00,0.0191
1497.00,0.0191
1496.00,0.0191
1495.00,0.0190
1494.00,0.0189
1493.00,0.0188
1492.00,0.0187
1491.00,0.0187
1490.00,0.0188
1489.00,0.0188
1488.00,0.0188
1487.00,0.0187
1486.00,0.0187
1485.00,0.0187
1484.00,0.0186
1483.00,0.0186
1482.00,0.0186
1481.00,0.0186
1480.00,0.0186
1479.00,0.0186
1478.00,0.0186
1477.00,0.0186
1476.00,0.0186
1475.00,0.0185
1474.00,0.0185
1473.00,0.0185
1472.00,0.0186
1471.00,0.0187
1470.00,0.0187
1469.00,0.0188
1468.00,0.0188
1467.00,0.0188
1466.00,0.0187
1465.00,0.0187
1464.00,0.0186
1463.00,0.0186
1462.00,0.0185
1461.00,0.0185
1460.00,0.0185
1459.00,0.0185
1458.00,0.0186
1457.00,0.0188
1456.00,0.0188
1455.00,0.0188
1454.00,0.0188
1453.00,0.0189
1452.00,0.0189
1451.00,0.0190
1450.00,0.0191
1449.00,0.0193
1448.00,0.0194
1447.00,0.0195
1446.00,0.0196
1445.00,0.0196
1444.00,0.0196
1443.00,0.0195
1442.00,0.0195
1441.00,0.0196
1440.00,0.0196
1439.00,0.0198
1438.00,0.0199
1437.00,0.0200
1436.00,0.0201
1435.00,0.0200
1434.00,0.0199
1433.00,0.0199
1432.00,0.0200
1431.00,0.0200
1430.00,0.0199
1429.00,0.0199
1428.00,0.0199
1427.00,0.0199
1426.00,0.0200
1425.00,0.0200
1424.00,0.0201
1423.00,0.0202
1422.00,0.0202
1421.00,0.0202
1420.00,0.0203
1419.00,0.0204
1418.00,0.0204
1417.00,0.0205
1416.00,0.0205
1415.00,0.0205
1414.00,0.0204
1413.00,0.0203
1412.00,0.0203
1411.00,0.0203
1410.00,0.0202
1409.00,0.0202
1408.00,0.0202
1407.00,0.0202
1406.00,0.0202
1405.00,0.0201
1404.00,0.0201
1403.00,0.0200
1402.00,0.0199
1401.00,0.0198
1400.00,0.0197
1399.00,0.0197
1398.00,0.0198
1397.00,0.0198
1396.00,0.0198
1395.00,0.0198
1394.00,0.0197
1393.00,0.0197
1392.00,0.0197
1391.00,0.0197
1390.00,0.0197
1389.00,0.0198
1388.00,0.0198
1387.00,0.0199
1386.00,0.0198
1385.00,0.0198
1384.00,0.0197
1383.00,0.0197
1382.00,0.0198
1381.00,0.0198
1380.00,0.0199
1379.00,0.0199
1378.00,0.0200
1377.00,0.0200
1376.00,0.0201
1375.00,0.0202
1374.00,0.0203
1373.00,0.0203
1372.00,0.0204
1371.00,0.0204
1370.00,0.0205
1369.00,0.0206
1368.00,0.0206
1367.00,0.0207
1366.00,0.0207
1365.00,0.0207
1364.00,0.0207
1363.00,0.0208
1362.00,0.0209
1361.00,0.0210
1360.00,0.0210
1359.00,0.0210
1358.00,0.0210
1357.00,0.0210
1356.00,0.0211
1355.00,0.0211
1354.00,0.0211
1353.00,0.0211
1352.00,0.0211
1351.00,0.0210
1350.00,0.0209
1349.00,0.0209
1348.00,0.0209
1347.00,0.0209
1346.00,0.0209
1345.00,0.0209
1344.00,0.0209
1343.00,0.0209
1342.00,0.0209
1341.00,0.0209
1340.00,0.0210
1339.00,0.0211
1338.00,0.0211
1337.00,0.0210
1336.00,0.0210
1335.00,0.0210
1334.00,0.0210
1333.00,0.0210
1332.00,0.0210
1331.00,0.0210
1330.00,0.0210
1329.00,0.0209
1328.00,0.0209
1327.00,0.0209
1326.00,0.0210
1325.00,0.0210
1324.00,0.0210
1323.00,0.0211
1322.00,0.0212
1321.00,0.0213
1320.00,0.0213
1319.00,0.0213
1318.00,0.0212
1317.00,0.0211
1316.00,0.0210
1315.00,0.0209
1314.00,0.0210
1313.00,0.0211
1312.00,0.0212
1311.00,0.0214
1310.00,0.0214
1309.00,0.0214
1308.00,0.0213
1307.00,0.0213
1306.00,0.0212
1305.00,0.0213
1304.00,0.0214
1303.00,0.0215
1302.00,0.0216
1301.00,0.0216
1300.00,0.0215
1299.00,0.0215
1298.00,0.0214
1297.00,0.0213
1296.00,0.0213
1295.00,0.0214
1294.00,0.0214
1293.00,0.0215
1292.00,0.0216
1291.00,0.0216
1290.00,0.0217
1289.00,0.0217
1288.00,0.0218
1287.00,0.0217
1286.00,0.0217
1285.00,0.0217
1284.00,0.0218
1283.00,0.0219
1282.00,0.0220
1281.00,0.0220
1280.00,0.0219
1279.00,0.0218
1278.00,0.0218
1277.00,0.0217
1276.00,0.0217
1275.00,0.0217
1274.00,0.0218
1273.00,0.0218
1272.00,0.0218
1271.00,0.0218
1270.00,0.0218
1269.00,0.0218
1268.00,0.0217
1267.00,0.0218
1266.00,0.0218
1265.00,0.0219
1264.00,0.0219
1263.00,0.0218
1262.00,0.0218
1261.00,0.0217
1260.00,0.0218
1259.00,0.0219
1258.00,0.0219
1257.00,0.0220
1256.00,0.0219
1255.00,0.0219
1254.00,0.0219
1253.00,0.0220
1252.00,0.0220
1251.00,0.0221
1250.00,0.0220
1249.00,0.0221
1248.00,0.0221
1247.00,0.0222
1246.00,0.0223
1245.00,0.0224
1244.00,0.0224
1243.00,0.0225
1242.00,0.0225
1241.00,0.0225
1240.00,0.0225
1239.00,0.0225
1238.00,0.0226
1237.00,0.0227
1236.00,0.0228
1235.00,0.0228
1234.00,0.0228
1233.00,0.0229
1232.00,0.0229
1231.00,0.0229
1230.00,0.0229
1229.00,0.0229
1228.00,0.0230
1227.00,0.0231
1226.00,0.0231
1225.00,0.0231
1224.00,0.0231
1223.00,0.0231
1222.00,0.0232
1221.00,0.0233
1220.00,0.0234
1219.00,0.0233
1218.00,0.0233
1217.00,0.0233
1216.00,0.0234
1215.00,0.0234
1214.00,0.0234
1213.00,0.0233
1212.00,0.0233
1211.00,0.0235
1210.00,0.0236
1209.00,0.0237
1208.00,0.0237
1207.00,0.0237
1206.00,0.0237
1205.00,0.0236
1204.00,0.0236
1203.00,0.0237
1202.00,0.0237
1201.00,0.0238
1200.00,0.0238
1199.00,0.0238
1198.00,0.0238
1197.00,0.0238
1196.00,0.0237
1195.00,0.0237
1194.00,0.0237
1193.00,0.0237
1192.00,0.0238
1191.00,0.0238
1190.00,0.0237
1189.00,0.0236
1188.00,0.0235
1187.00,0.0235
1186.00,0.0235
1185.00,0.0235
1184.00,0.0235
1183.00,0.0235
1182.00,0.0234
1181.00,0.0233
1180.00,0.0232
1179.00,0.0231
1178.00,0.0230
1177.00,0.0230
1176.00,0.0230
1175.00,0.0229
1174.00,0.0229
1173.00,0.0229
1172.00,0.0229
1171.00,0.0229
1170.00,0.0228
1169.00,0.0228
1168.00,0.0228
1167.00,0.0228
1166.00,0.0228
1165.00,0.0227
1164.00,0.0227
1163.00,0.0226
1162.00,0.0226
1161.00,0.0226
1160.00,0.0226
1159.00,0.0226
1158.00,0.0225
1157.00,0.0225
1156.00,0.0225
1155.00,0.0226
1154.00,0.0227
1153.00,0.0226
1152.00,0.0225
1151.00,0.0224
1150.00,0.0223
1149.00,0.0223
1148.00,0.0223
1147.00,0.0224
1146.00,0.0225
1145.00,0.0226
1144.00,0.0227
1143.00,0.0228
1142.00,0.0229
1141.00,0.0229
1140.00,0.0229
1139.00,0.0228
1138.00,0.0228
1137.00,0.0229
1136.00,0.0229
1135.00,0.0231
1134.00,0.0232
1133.00,0.0233
1132.00,0.0233
1131.00,0.0233
1130.00,0.0233
1129.00,0.0234
1128.00,0.0236
1127.00,0.0237
1126.00,0.0235
1125.00,0.0233
1124.00,0.0233
1123.00,0.0235
1122.00,0.0239
1121.00,0.0242
1120.00,0.0245
1119.00,0.0247
1118.00,0.0247
1117.00,0.0247
1116.00,0.0248
1115.00,0.0250
1114.00,0.0250
1113.00,0.0250
1112.00,0.0248
1111.00,0.0248
1110.00,0.0248
1109.00,0.0249
1108.00,0.0250
1107.00,0.0250
1106.00,0.0249
1105.00,0.0248
1104.00,0.0248
1103.00,0.0249
1102.00,0.0251
1101.00,0.0253
1100.00,0.0253
1099.00,0.0253
1098.00,0.0254
1097.00,0.0253
1096.00,0.0252
1095.00,0.0251
1094.00,0.0250
1093.00,0.0250
1092.00,0.0251
1091.00,0.0251
1090.00,0.0251
1089.00,0.0249
1088.00,0.0247
1087.00,0.0246
1086.00,0.0247
1085.00,0.0248
1084.00,0.0248
1083.00,0.0248
1082.00,0.0248
1081.00,0.0250
1080.00,0.0251
1079.00,0.0253
1078.00,0.0255
1077.00,0.0256
1076.00,0.0255
1075.00,0.0253
1074.00,0.0250
1073.00,0.0249
1072.00,0.0249
1071.00,0.0248
1070.00,0.0247
1069.00,0.0246
1068.00,0.0246
1067.00,0.0247
1066.00,0.0249
1065.00,0.0251
1064.00,0.0253
1063.00,0.0254
1062.00,0.0254
1061.00,0.0252
1060.00,0.0250
1059.00,0.0248
1058.00,0.0249
1057.00,0.0250
1056.00,0.0252
1055.00,0.0253
1054.00,0.0254
1053.00,0.0256
1052.00,0.0257
1051.00,0.0257
1050.00,0.0259
1049.00,0.0260
1048.00,0.0262
1047.00,0.0263
1046.00,0.0264
1045.00,0.0264
1044.00,0.0265
1043.00,0.0265
1042.00,0.0265
1041.00,0.0264
1040.00,0.0263
1039.00,0.0264
1038.00,0.0265
1037.00,0.0266
1036.00,0.0266
1035.00,0.0266
1034.00,0.0266
1033.00,0.0266
1032.00,0.0265
1031.00,0.0264
1030.00,0.0262
1029.00,0.0260
1028.00,0.0258
1027.00,0.0257
1026.00,0.0257
1025.00,0.0257
1024.00,0.0257
1023.00,0.0256
1022.00,0.0255
1021.00,0.0254
1020.00,0.0253
1019.00,0.0252
1018.00,0.0251
1017.00,0.0251
1016.00,0.0252
1015.00,0.0253
1014.00,0.0254
1013.00,0.0254
1012.00,0.0253
1011.00,0.0253
1010.00,0.0253
1009.00,0.0254
1008.00,0.0254
1007.00,0.0252
1006.00,0.0251
1005.00,0.0250
1004.00,0.0250
1003.00,0.0251
1002.00,0.0250
1001.00,0.0249
1000.00,0.0246
999.00,0.0242
998.00,0.0239
997.00,0.0237
996.00,0.0237
995.00,0.0237
994.00,0.0236
993.00,0.0234
992.00,0.0231
991.00,0.0229
990.00,0.0227
989.00,0.0227
988.00,0.0227
987.00,0.0228
986.00,0.0229
985.00,0.0228
984.00,0.0227
983.00,0.0224
982.00,0.0222
981.00,0.0221
980.00,0.0221
979.00,0.0220
978.00,0.0219
977.00,0.0216
976.00,0.0214
975.00,0.0212
974.00,0.0211
973.00,0.0211
972.00,0.0212
971.00,0.0211
970.00,0.0209
969.00,0.0207
968.00,0.0205
967.00,0.0204
966.00,0.0203
965.00,0.0202
964.00,0.0202
963.00,0.0202
962.00,0.0202
961.00,0.0202
960.00,0.0201
959.00,0.0200
958.00,0.0199
957.00,0.0198
956.00,0.0198
955.00,0.0197
954.00,0.0196
953.00,0.0195
952.00,0.0195
951.00,0.0197
950.00,0.0198
949.00,0.0200
948.00,0.0199
947.00,0.0198
946.00,0.0196
945.00,0.0194
944.00,0.0194
943.00,0.0194
942.00,0.0194
941.00,0.0195
940.00,0.0197
939.00,0.0199
938.00,0.0201
937.00,0.0201
936.00,0.0200
935.00,0.0199
934.00,0.0198
933.00,0.0200
932.00,0.0202
931.00,0.0204
930.00,0.0206
929.00,0.0207
928.00,0.0208
927.00,0.0209
926.00,0.0210
925.00,0.0211
924.00,0.0212
923.00,0.0212
922.00,0.0212
921.00,0.0212
920.00,0.0212
919.00,0.0212
918.00,0.0213
917.00,0.0215
916.00,0.0218
915.00,0.0220
914.00,0.0220
913.00,0.0218
912.00,0.0217
911.00,0.0215
910.00,0.0214
909.00,0.0212
908.00,0.0210
907.00,0.0208
906.00,0.0208
905.00,0.0211
904.00,0.0216
903.00,0.0221
902.00,0.0223
901.00,0.0223
900.00,0.0221
899.00,0.0219
898.00,0.0219
897.00,0.0220
896.00,0.0220
895.00,0.0220
894.00,0.0219
893.00,0.0217
892.00,0.0215
891.00,0.0214
890.00,0.0214
889.00,0.0215
888.00,0.0216
887.00,0.0216
886.00,0.0214
885.00,0.0214
884.00,0.0216
883.00,0.0219
882.00,0.0221
881.00,0.0222
880.00,0.0221
879.00,0.0218
878.00,0.0215
877.00,0.0213
876.00,0.0211
875.00,0.0210
874.00,0.0210
873.00,0.0210
872.00,0.0211
871.00,0.0211
870.00,0.0212
869.00,0.0211
868.00,0.0210
867.00,0.0208
866.00,0.0208
865.00,0.0209
864.00,0.0211
863.00,0.0212
862.00,0.0214
861.00,0.0214
860.00,0.0214
859.00,0.0213
858.00,0.0211
857.00,0.0210
856.00,0.0210
855.00,0.0212
854.00,0.0214
853.00,0.0214
852.00,0.0212
851.00,0.0211
850.00,0.0211
849.00,0.0213
848.00,0.0216
847.00,0.0218
846.00,0.0220
845.00,0.0221
844.00,0.0222
843.00,0.0221
842.00,0.0220
841.00,0.0219
840.00,0.0217
839.00,0.0216
838.00,0.0215
837.00,0.0216
836.00,0.0217
835.00,0.0218
834.00,0.0218
833.00,0.0218
832.00,0.0218
831.00,0.0218
830.00,0.0218
829.00,0.0218
828.00,0.0218
827.00,0.0218
826.00,0.0219
825.00,0.0222
824.00,0.0224
823.00,0.0227
822.00,0.0228
821.00,0.0229
820.00,0.0229
819.00,0.0229
818.00,0.0228
817.00,0.0225
816.00,0.0223
815.00,0.0222
814.00,0.0223
813.00,0.0225
812.00,0.0227
811.00,0.0229
810.00,0.0229
809.00,0.0230
808.00,0.0230
807.00,0.0229
806.00,0.0229
805.00,0.0228
804.00,0.0228
803.00,0.0227
802.00,0.0228
801.00,0.0231
800.00,0.0234
799.00,0.0237
798.00,0.0238
797.00,0.0237
796.00,0.0236
795.00,0.0235
794.00,0.0234
793.00,0.0234
792.00,0.0235
791.00,0.0238
790.00,0.0240
789.00,0.0240
788.00,0.0239
787.00,0.0237
786.00,0.0236
785.00,0.0238
784.00,0.0241
783.00,0.0243
782.00,0.0244
781.00,0.0244
780.00,0.0243
779.00,0.0242
778.00,0.0242
777.00,0.0243
776.00,0.0244
775.00,0.0245
774.00,0.0243
773.00,0.0241
772.00,0.0239
771.00,0.0240
770.00,0.0241
769.00,0.0241
768.00,0.0240
767.00,0.0239
766.00,0.0237
765.00,0.0235
764.00,0.0235
763.00,0.0235
762.00,0.0235
761.00,0.0235
760.00,0.0237
759.00,0.0241
758.00,0.0245
757.00,0.0247
756.00,0.0247
755.00,0.0244
754.00,0.0243
753.00,0.0242
752.00,0.0243
751.00,0.0245
750.00,0.0247
749.00,0.0248
748.00,0.0249
747.00,0.0248
746.00,0.0246
745.00,0.0243
744.00,0.0241
743.00,0.0240
742.00,0.0240
741.00,0.0240
740.00,0.0238
739.00,0.0235
738.00,0.0233
737.00,0.0233
736.00,0.0233
735.00,0.0233
734.00,0.0232
733.00,0.0232
732.00,0.0233
731.00,0.0234
730.00,0.0235
729.00,0.0237
728.00,0.0240
727.00,0.0242
726.00,0.0243
725.00,0.0243
724.00,0.0241
723.00,0.0238
722.00,0.0235
721.00,0.0234
720.00,0.0234
719.00,0.0235
718.00,0.0235
717.00,0.0234
716.00,0.0233
715.00,0.0231
714.00,0.0232
713.00,0.0234
712.00,0.0238
711.00,0.0241
710.00,0.0242
709.00,0.0241
708.00,0.0239
707.00,0.0239
706.00,0.0240
705.00,0.0243
704.00,0.0247
703.00,0.0250
702.00,0.0249
701.00,0.0245
700.00,0.0240
699.00,0.0238
698.00,0.0239
697.00,0.0241
696.00,0.0243
695.00,0.0244
694.00,0.0246
693.00,0.0249
692.00,0.0251
691.00,0.0253
690.00,0.0255
689.00,0.0258
688.00,0.0259
687.00,0.0257
686.00,0.0254
685.00,0.0250
684.00,0.0245
683.00,0.0241
682.00,0.0238
681.00,0.0238
680.00,0.0239
679.00,0.0241
678.00,0.0242
677.00,0.0243
676.00,0.0243
675.00,0.0242
674.00,0.0241
673.00,0.0242
672.00,0.0243
671.00,0.0244
670.00,0.0243
669.00,0.0243
668.00,0.0248
667.00,0.0257
666.00,0.0262
665.00,0.0263
664.00,0.0262
663.00,0.0259
662.00,0.0255
661.00,0.0248
660.00,0.0240
659.00,0.0235
658.00,0.0236
657.00,0.0244
656.00,0.0252
655.00,0.0255
654.00,0.0251
653.00,0.0244
652.00,0.0239
651.00,0.0237
650.00,0.0240
