Created as New Dataset,Monday, April 03 2023
cm-1,A
4000.00,0.0314
3999.00,0.0314
3998.00,0.0314
3997.00,0.0314
3996.00,0.0314
3995.00,0.0314
3994.00,0.0314
3993.00,0.0313
3992.00,0.0313
3991.00,0.0313
3990.00,0.0312
3989.00,0.0312
3988.00,0.0313
3987.00,0.0313
3986.00,0.0313
3985.00,0.0313
3984.00,0.0312
3983.00,0.0312
3982.00,0.0312
3981.00,0.0312
3980.00,0.0312
3979.00,0.0312
3978.00,0.0311
3977.00,0.0311
3976.00,0.0311
3975.00,0.0311
3974.00,0.0311
3973.00,0.0311
3972.00,0.0310
3971.00,0.0310
3970.00,0.0310
3969.00,0.0310
3968.00,0.0310
3967.00,0.0310
3966.00,0.0310
3965.00,0.0310
3964.00,0.0310
3963.00,0.0310
3962.00,0.0310
3961.00,0.0310
3960.00,0.0309
3959.00,0.0309
3958.00,0.0309
3957.00,0.0308
3956.00,0.0308
3955.00,0.0307
3954.00,0.0307
3953.00,0.0307
3952.00,0.0307
3951.00,0.0307
3950.00,0.0307
3949.00,0.0307
3948.00,0.0307
3947.00,0.0307
3946.00,0.0307
3945.00,0.0306
3944.00,0.0306
3943.00,0.0305
3942.00,0.0305
3941.00,0.0305
3940.00,0.0306
3939.00,0.0306
3938.00,0.0306
3937.00,0.0306
3936.00,0.0306
3935.00,0.0306
3934.00,0.0306
3933.00,0.0306
3932.00,0.0306
3931.00,0.0305
3930.00,0.0304
3929.00,0.0304
3928.00,0.0303
3927.00,0.0303
3926.00,0.0302
3925.00,0.0302
3924.00,0.0302
3923.00,0.0302
3922.00,0.0303
3921.00,0.0304
3920.00,0.0304
3919.00,0.0304
3918.00,0.0304
3917.00,0.0304
3916.00,0.0303
3915.00,0.0302
3914.00,0.0301
3913.00,0.0301
3912.00,0.0301
3911.00,0.0300
3910.00,0.0300
3909.00,0.0301
3908.00,0.0301
3907.00,0.0301
3906.00,0.0302
3905.00,0.0303
3904.00,0.0304
3903.00,0.0304
3902.00,0.0304
3901.00,0.0303
3900.00,0.0302
3899.00,0.0301
3898.00,0.0300
3897.00,0.0300
3896.00,0.0300
3895.00,0.0300
3894.00,0.0299
3893.00,0.0299
3892.00,0.0298
3891.00,0.0299
3890.00,0.0299
3889.00,0.0300
3888.00,0.0301
3887.00,0.0301
3886.00,0.0300
3885.00,0.0299
3884.00,0.0298
3883.00,0.0297
3882.00,0.0296
3881.00,0.0295
3880.00,0.0294
3879.00,0.0295
3878.00,0.0296
3877.00,0.0296
3876.00,0.0296
3875.00,0.0296
3874.00,0.0295
3873.00,0.0295
3872.00,0.0296
3871.00,0.0296
3870.00,0.0296
3869.00,0.0296
3868.00,0.0296
3867.00,0.0297
3866.00,0.0297
3865.00,0.0295
3864.00,0.0293
3863.00,0.0292
3862.00,0.0293
3861.00,0.0295
3860.00,0.0295
3859.00,0.0295
3858.00,0.0294
3857.00,0.0293
3856.00,0.0293
3855.00,0.0295
3854.00,0.0295
3853.00,0.0294
3852.00,0.0291
3851.00,0.0291
3850.00,0.0291
3849.00,0.0292
3848.00,0.0292
3847.00,0.0291
3846.00,0.0291
3845.00,0.0291
3844.00,0.0292
3843.00,0.0292
3842.00,0.0292
3841.00,0.0292
3840.00,0.0291
3839.00,0.0290
3838.00,0.0290
3837.00,0.0289
3836.00,0.0289
3835.00,0.0289
3834.00,0.0288
3833.00,0.0288
3832.00,0.0289
3831.00,0.0289
3830.00,0.0289
3829.00,0.0289
3828.00,0.0288
3827.00,0.0288
3826.00,0.0287
3825.00,0.0287
3824.00,0.0289
3823.00,0.0290
3822.00,0.0291
3821.00,0.0290
3820.00,0.0289
3819.00,0.0288
3818.00,0.0287
3817.00,0.0286
3816.00,0.0284
3815.00,0.0283
3814.00,0.0282
3813.00,0.0283
3812.00,0.0284
3811.00,0.0283
3810.00,0.0283
3809.00,0.0284
3808.00,0.0285
3807.00,0.0286
3806.00,0.0286
3805.00,0.0286
3804.00,0.0286
3803.00,0.0285
3802.00,0.0284
3801.00,0.0282
3800.00,0.0281
3799.00,0.0281
3798.00,0.0281
3797.00,0.0280
3796.00,0.0280
3795.00,0.0280
3794.00,0.0280
3793.00,0.0280
3792.00,0.0279
3791.00,0.0279
3790.00,0.0278
3789.00,0.0279
3788.00,0.0279
3787.00,0.0278
3786.00,0.0278
3785.00,0.0277
3784.00,0.0277
3783.00,0.0277
3782.00,0.0278
3781.00,0.0277
3780.00,0.0276
3779.00,0.0275
3778.00,0.0275
3777.00,0.0276
3776.00,0.0276
3775.00,0.0276
3774.00,0.0276
3773.00,0.0276
3772.00,0.0277
3771.00,0.0278
3770.00,0.0278
3769.00,0.0278
3768.00,0.0277
3767.00,0.0277
3766.00,0.0276
3765.00,0.0276
3764.00,0.0276
3763.00,0.0277
3762.00,0.0277
3761.00,0.0277
3760.00,0.0276
3759.00,0.0275
3758.00,0.0275
3757.00,0.0276
3756.00,0.0277
3755.00,0.0277
3754.00,0.0279
3753.00,0.0280
3752.00,0.0281
3751.00,0.0281
3750.00,0.0282
3749.00,0.0281
3748.00,0.0279
3747.00,0.0278
3746.00,0.0277
3745.00,0.0277
3744.00,0.0277
3743.00,0.0276
3742.00,0.0276
3741.00,0.0277
3740.00,0.0277
3739.00,0.0278
3738.00,0.0278
3737.00,0.0278
3736.00,0.0277
3735.00,0.0275
3734.00,0.0274
3733.00,0.0274
3732.00,0.0274
3731.00,0.0273
3730.00,0.0272
3729.00,0.0272
3728.00,0.0272
3727.00,0.0272
3726.00,0.0271
3725.00,0.0270
3724.00,0.0269
3723.00,0.0268
3722.00,0.0267
3721.00,0.0266
3720.00,0.0266
3719.00,0.0266
3718.00,0.0266
3717.00,0.0266
3716.00,0.0267
3715.00,0.0268
3714.00,0.0269
3713.00,0.0270
3712.00,0.0269
3711.00,0.0269
3710.00,0.0268
3709.00,0.0269
3708.00,0.0269
3707.00,0.0269
3706.00,0.0269
3705.00,0.0268
3704.00,0.0268
3703.00,0.0267
3702.00,0.0267
3701.00,0.0267
3700.00,0.0268
3699.00,0.0269
3698.00,0.0269
3697.00,0.0269
3696.00,0.0269
3695.00,0.0269
3694.00,0.0269
3693.00,0.0270
3692.00,0.0270
3691.00,0.0269
3690.00,0.0269
3689.00,0.0268
3688.00,0.0267
3687.00,0.0267
3686.00,0.0267
3685.00,0.0267
3684.00,0.0268
3683.00,0.0268
3682.00,0.0269
3681.00,0.0269
3680.00,0.0269
3679.00,0.0270
3678.00,0.0271
3677.00,0.0273
3676.00,0.0274
3675.00,0.0275
3674.00,0.0276
3673.00,0.0278
3672.00,0.0280
3671.00,0.0280
3670.00,0.0279
3669.00,0.0278
3668.00,0.0278
3667.00,0.0280
3666.00,0.0281
3665.00,0.0282
3664.00,0.0283
3663.00,0.0285
3662.00,0.0286
3661.00,0.0288
3660.00,0.0289
3659.00,0.0291
3658.00,0.0294
3657.00,0.0298
3656.00,0.0301
3655.00,0.0303
3654.00,0.0304
3653.00,0.0305
3652.00,0.0307
3651.00,0.0311
3650.00,0.0316
3649.00,0.0319
3648.00,0.0321
3647.00,0.0323
3646.00,0.0324
3645.00,0.0325
3644.00,0.0327
3643.00,0.0328
3642.00,0.0329
3641.00,0.0331
3640.00,0.0333
3639.00,0.0335
3638.00,0.0337
3637.00,0.0340
3636.00,0.0343
3635.00,0.0346
3634.00,0.0349
3633.00,0.0350
3632.00,0.0352
3631.00,0.0356
3630.00,0.0362
3629.00,0.0368
3628.00,0.0372
3627.00,0.0374
3626.00,0.0374
3625.00,0.0373
3624.00,0.0373
3623.00,0.0374
3622.00,0.0375
3621.00,0.0378
3620.00,0.0383
3619.00,0.0387
3618.00,0.0389
3617.00,0.0391
3616.00,0.0392
3615.00,0.0393
3614.00,0.0395
3613.00,0.0398
3612.00,0.0401
3611.00,0.0404
3610.00,0.0407
3609.00,0.0409
3608.00,0.0410
3607.00,0.0411
3606.00,0.0412
3605.00,0.0413
3604.00,0.0413
3603.00,0.0414
3602.00,0.0415
3601.00,0.0417
3600.00,0.0419
3599.00,0.0420
3598.00,0.0421
3597.00,0.0423
3596.00,0.0425
3595.00,0.0428
3594.00,0.0432
3593.00,0.0434
3592.00,0.0436
3591.00,0.0436
3590.00,0.0436
3589.00,0.0437
3588.00,0.0440
3587.00,0.0444
3586.00,0.0447
3585.00,0.0449
3584.00,0.0450
3583.00,0.0450
3582.00,0.0451
3581.00,0.0452
3580.00,0.0453
3579.00,0.0454
3578.00,0.0456
3577.00,0.0458
3576.00,0.0460
3575.00,0.0462
3574.00,0.0464
3573.00,0.0465
3572.00,0.0466
3571.00,0.0465
3570.00,0.0465
3569.00,0.0467
3568.00,0.0471
3567.00,0.0476
3566.00,0.0480
3565.00,0.0483
3564.00,0.0483
3563.00,0.0483
3562.00,0.0483
3561.00,0.0484
3560.00,0.0485
3559.00,0.0486
3558.00,0.0487
3557.00,0.0488
3556.00,0.0489
3555.00,0.0490
3554.00,0.0492
3553.00,0.0495
3552.00,0.0497
3551.00,0.0499
3550.00,0.0500
3549.00,0.0501
3548.00,0.0502
3547.00,0.0505
3546.00,0.0508
3545.00,0.0510
3544.00,0.0512
3543.00,0.0512
3542.00,0.0513
3541.00,0.0512
3540.00,0.0513
3539.00,0.0513
3538.00,0.0514
3537.00,0.0516
3536.00,0.0518
3535.00,0.0520
3534.00,0.0522
3533.00,0.0523
3532.00,0.0523
3531.00,0.0524
3530.00,0.0525
3529.00,0.0527
3528.00,0.0529
3527.00,0.0531
3526.00,0.0533
3525.00,0.0535
3524.00,0.0536
3523.00,0.0538
3522.00,0.0539
3521.00,0.0539
3520.00,0.0540
3519.00,0.0540
3518.00,0.0541
3517.00,0.0542
3516.00,0.0544
3515.00,0.0545
3514.00,0.0545
3513.00,0.0545
3512.00,0.0546
3511.00,0.0548
3510.00,0.0550
3509.00,0.0552
3508.00,0.0554
3507.00,0.0555
3506.00,0.0555
3505.00,0.0556
3504.00,0.0557
3503.00,0.0559
3502.00,0.0561
3501.00,0.0563
3500.00,0.0564
3499.00,0.0565
3498.00,0.0565
3497.00,0.0566
3496.00,0.0567
3495.00,0.0569
3494.00,0.0570
3493.00,0.0571
3492.00,0.0571
3491.00,0.0572
3490.00,0.0573
3489.00,0.0575
3488.00,0.0576
3487.00,0.0577
3486.00,0.0578
3485.00,0.0578
3484.00,0.0579
3483.00,0.0580
3482.00,0.0581
3481.00,0.0583
3480.00,0.0585
3479.00,0.0586
3478.00,0.0587
3477.00,0.0588
3476.00,0.0588
3475.00,0.0589
3474.00,0.0590
3473.00,0.0591
3472.00,0.0592
3471.00,0.0593
3470.00,0.0594
3469.00,0.0595
3468.00,0.0596
3467.00,0.0597
3466.00,0.0598
3465.00,0.0599
3464.00,0.0600
3463.00,0.0601
3462.00,0.0602
3461.00,0.0604
3460.00,0.0605
3459.00,0.0605
3458.00,0.0606
3457.00,0.0607
3456.00,0.0608
3455.00,0.0608
3454.00,0.0609
3453.00,0.0610
3452.00,0.0611
3451.00,0.0612
3450.00,0.0613
3449.00,0.0614
3448.00,0.0616
3447.00,0.0618
3446.00,0.0619
3445.00,0.0620
3444.00,0.0620
3443.00,0.0621
3442.00,0.0622
3441.00,0.0623
3440.00,0.0624
3439.00,0.0625
3438.00,0.0626
3437.00,0.0626
3436.00,0.0627
3435.00,0.0627
3434.00,0.0628
3433.00,0.0629
3432.00,0.0630
3431.00,0.0631
3430.00,0.0631
3429.00,0.0632
3428.00,0.0633
3427.00,0.0634
3426.00,0.0634
3425.00,0.0635
3424.00,0.0635
3423.00,0.0636
3422.00,0.0637
3421.00,0.0639
3420.00,0.0640
3419.00,0.0641
3418.00,0.0642
3417.00,0.0642
3416.00,0.0642
3415.00,0.0643
3414.00,0.0643
3413.00,0.0644
3412.00,0.0645
3411.00,0.0645
3410.00,0.0646
3409.00,0.0646
3408.00,0.0647
3407.00,0.0648
3406.00,0.0648
3405.00,0.0649
3404.00,0.0650
3403.00,0.0651
3402.00,0.0651
3401.00,0.0652
3400.00,0.0652
3399.00,0.0653
3398.00,0.0653
3397.00,0.0654
3396.00,0.0655
3395.00,0.0656
3394.00,0.0656
3393.00,0.0657
3392.00,0.0658
3391.00,0.0658
3390.00,0.0659
3389.00,0.0659
3388.00,0.0659
3387.00,0.0660
3386.00,0.0660
3385.00,0.0661
3384.00,0.0661
3383.00,0.0662
3382.00,0.0662
3381.00,0.0662
3380.00,0.0663
3379.00,0.0664
3378.00,0.0665
3377.00,0.0665
3376.00,0.0665
3375.00,0.0666
3374.00,0.0666
3373.00,0.0666
3372.00,0.0666
3371.00,0.0666
3370.00,0.0667
3369.00,0.0667
3368.00,0.0667
3367.00,0.0667
3366.00,0.0668
3365.00,0.0669
3364.00,0.0670
3363.00,0.0670
3362.00,0.0671
3361.00,0.0671
3360.00,0.0671
3359.00,0.0671
3358.00,0.0670
3357.00,0.0671
3356.00,0.0671
3355.00,0.0671
3354.00,0.0671
3353.00,0.0672
3352.00,0.0672
3351.00,0.0673
3350.00,0.0675
3349.00,0.0675
3348.00,0.0675
3347.00,0.0675
3346.00,0.0675
3345.00,0.0674
3344.00,0.0674
3343.00,0.0674
3342.00,0.0674
3341.00,0.0675
3340.00,0.0675
3339.00,0.0675
3338.00,0.0675
3337.00,0.0675
3336.00,0.0675
3335.00,0.0675
3334.00,0.0676
3333.00,0.0676
3332.00,0.0676
3331.00,0.0675
3330.00,0.0675
3329.00,0.0675
3328.00,0.0676
3327.00,0.0676
3326.00,0.0676
3325.00,0.0676
3324.00,0.0676
3323.00,0.0676
3322.00,0.0676
3321.00,0.0676
3320.00,0.0676
3319.00,0.0677
3318.00,0.0677
3317.00,0.0678
3316.00,0.0678
3315.00,0.0678
3314.00,0.0678
3313.00,0.0678
3312.00,0.0678
3311.00,0.0677
3310.00,0.0677
3309.00,0.0677
3308.00,0.0677
3307.00,0.0677
3306.00,0.0677
3305.00,0.0677
3304.00,0.0677
3303.00,0.0677
3302.00,0.0678
3301.00,0.0678
3300.00,0.0679
3299.00,0.0679
3298.00,0.0679
3297.00,0.0679
3296.00,0.0679
3295.00,0.0679
3294.00,0.0679
3293.00,0.0679
3292.00,0.0680
3291.00,0.0680
3290.00,0.0680
3289.00,0.0680
3288.00,0.0680
3287.00,0.0679
3286.00,0.0679
3285.00,0.0679
3284.00,0.0679
3283.00,0.0679
3282.00,0.0680
3281.00,0.0680
3280.00,0.0680
3279.00,0.0681
3278.00,0.0681
3277.00,0.0681
3276.00,0.0681
3275.00,0.0681
3274.00,0.0681
3273.00,0.0681
3272.00,0.0681
3271.00,0.0681
3270.00,0.0681
3269.00,0.0681
3268.00,0.0681
3267.00,0.0681
3266.00,0.0681
3265.00,0.0681
3264.00,0.0681
3263.00,0.0681
3262.00,0.0681
3261.00,0.0681
3260.00,0.0681
3259.00,0.0682
3258.00,0.0682
3257.00,0.0683
3256.00,0.0683
3255.00,0.0683
3254.00,0.0683
3253.00,0.0683
3252.00,0.0683
3251.00,0.0684
3250.00,0.0684
3249.00,0.0684
3248.00,0.0684
3247.00,0.0684
3246.00,0.0684
3245.00,0.0684
3244.00,0.0685
3243.00,0.0685
3242.00,0.0685
3241.00,0.0685
3240.00,0.0685
3239.00,0.0685
3238.00,0.0685
3237.00,0.0685
3236.00,0.0685
3235.00,0.0685
3234.00,0.0685
3233.00,0.0686
3232.00,0.0686
3231.00,0.0687
3230.00,0.0687
3229.00,0.0687
3228.00,0.0687
3227.00,0.0687
3226.00,0.0687
3225.00,0.0686
3224.00,0.0686
3223.00,0.0685
3222.00,0.0685
3221.00,0.0686
3220.00,0.0686
3219.00,0.0686
3218.00,0.0686
3217.00,0.0686
3216.00,0.0686
3215.00,0.0686
3214.00,0.0686
3213.00,0.0686
3212.00,0.0686
3211.00,0.0686
3210.00,0.0686
3209.00,0.0686
3208.00,0.0685
3207.00,0.0685
3206.00,0.0686
3205.00,0.0686
3204.00,0.0686
3203.00,0.0685
3202.00,0.0685
3201.00,0.0685
3200.00,0.0685
3199.00,0.0685
3198.00,0.0686
3197.00,0.0686
3196.00,0.0685
3195.00,0.0685
3194.00,0.0685
3193.00,0.0685
3192.00,0.0685
3191.00,0.0684
3190.00,0.0684
3189.00,0.0684
3188.00,0.0684
3187.00,0.0684
3186.00,0.0684
3185.00,0.0683
3184.00,0.0683
3183.00,0.0682
3182.00,0.0682
3181.00,0.0682
3180.00,0.0682
3179.00,0.0682
3178.00,0.0682
3177.00,0.0681
3176.00,0.0681
3175.00,0.0681
3174.00,0.0681
3173.00,0.0681
3172.00,0.0681
3171.00,0.0681
3170.00,0.0681
3169.00,0.0680
3168.00,0.0680
3167.00,0.0679
3166.00,0.0678
3165.00,0.0677
3164.00,0.0677
3163.00,0.0677
3162.00,0.0677
3161.00,0.0677
3160.00,0.0677
3159.00,0.0677
3158.00,0.0677
3157.00,0.0676
3156.00,0.0675
3155.00,0.0675
3154.00,0.0674
3153.00,0.0674
3152.00,0.0673
3151.00,0.0673
3150.00,0.0673
3149.00,0.0673
3148.00,0.0673
3147.00,0.0673
3146.00,0.0672
3145.00,0.0672
3144.00,0.0671
3143.00,0.0671
3142.00,0.0671
3141.00,0.0671
3140.00,0.0670
3139.00,0.0670
3138.00,0.0670
3137.00,0.0669
3136.00,0.0669
3135.00,0.0668
3134.00,0.0668
3133.00,0.0668
3132.00,0.0667
3131.00,0.0667
3130.00,0.0667
3129.00,0.0667
3128.00,0.0666
3127.00,0.0665
3126.00,0.0665
3125.00,0.0664
3124.00,0.0663
3123.00,0.0663
3122.00,0.0663
3121.00,0.0662
3120.00,0.0662
3119.00,0.0662
3118.00,0.0662
3117.00,0.0661
3116.00,0.0661
3115.00,0.0660
3114.00,0.0660
3113.00,0.0660
3112.00,0.0659
3111.00,0.0659
3110.00,0.0658
3109.00,0.0658
3108.00,0.0658
3107.00,0.0658
3106.00,0.0658
3105.00,0.0658
3104.00,0.0657
3103.00,0.0657
3102.00,0.0657
3101.00,0.0656
3100.00,0.0656
3099.00,0.0655
3098.00,0.0654
3097.00,0.0654
3096.00,0.0654
3095.00,0.0654
3094.00,0.0654
3093.00,0.0654
3092.00,0.0654
3091.00,0.0653
3090.00,0.0653
3089.00,0.0653
3088.00,0.0653
3087.00,0.0652
3086.00,0.0652
3085.00,0.0651
3084.00,0.0651
3083.00,0.0650
3082.00,0.0650
3081.00,0.0650
3080.00,0.0650
3079.00,0.0650
3078.00,0.0649
3077.00,0.0648
3076.00,0.0648
3075.00,0.0647
3074.00,0.0647
3073.00,0.0647
3072.00,0.0646
3071.00,0.0645
3070.00,0.0645
3069.00,0.0644
3068.00,0.0644
3067.00,0.0644
3066.00,0.0644
3065.00,0.0643
3064.00,0.0643
3063.00,0.0643
3062.00,0.0642
3061.00,0.0642
3060.00,0.0641
3059.00,0.0640
3058.00,0.0640
3057.00,0.0639
3056.00,0.0639
3055.00,0.0638
3054.00,0.0637
3053.00,0.0636
3052.00,0.0636
3051.00,0.0635
3050.00,0.0635
3049.00,0.0634
3048.00,0.0634
3047.00,0.0634
3046.00,0.0633
3045.00,0.0633
3044.00,0.0632
3043.00,0.0631
3042.00,0.0631
3041.00,0.0630
3040.00,0.0630
3039.00,0.0629
3038.00,0.0629
3037.00,0.0628
3036.00,0.0628
3035.00,0.0627
3034.00,0.0626
3033.00,0.0625
3032.00,0.0625
3031.00,0.0624
3030.00,0.0624
3029.00,0.0623
3028.00,0.0623
3027.00,0.0622
3026.00,0.0621
3025.00,0.0621
3024.00,0.0620
3023.00,0.0620
3022.00,0.0619
3021.00,0.0618
3020.00,0.0617
3019.00,0.0617
3018.00,0.0617
3017.00,0.0617
3016.00,0.0617
3015.00,0.0616
3014.00,0.0615
3013.00,0.0615
3012.00,0.0615
3011.00,0.0614
3010.00,0.0613
3009.00,0.0612
3008.00,0.0611
3007.00,0.0611
3006.00,0.0610
3005.00,0.0610
3004.00,0.0609
3003.00,0.0609
3002.00,0.0608
3001.00,0.0608
3000.00,0.0607
2999.00,0.0606
2998.00,0.0606
2997.00,0.0605
2996.00,0.0605
2995.00,0.0605
2994.00,0.0604
2993.00,0.0604
2992.00,0.0603
2991.00,0.0602
2990.00,0.0602
2989.00,0.0601
2988.00,0.0601
2987.00,0.0600
2986.00,0.0600
2985.00,0.0600
2984.00,0.0599
2983.00,0.0598
2982.00,0.0597
2981.00,0.0597
2980.00,0.0596
2979.00,0.0596
2978.00,0.0595
2977.00,0.0594
2976.00,0.0594
2975.00,0.0593
2974.00,0.0593
2973.00,0.0592
2972.00,0.0592
2971.00,0.0591
2970.00,0.0590
2969.00,0.0589
2968.00,0.0589
2967.00,0.0588
2966.00,0.0587
2965.00,0.0586
2964.00,0.0585
2963.00,0.0584
2962.00,0.0583
2961.00,0.0582
2960.00,0.0582
2959.00,0.0581
2958.00,0.0581
2957.00,0.0580
2956.00,0.0580
2955.00,0.0579
2954.00,0.0579
2953.00,0.0579
2952.00,0.0578
2951.00,0.0578
2950.00,0.0577
2949.00,0.0577
2948.00,0.0576
2947.00,0.0575
2946.00,0.0575
2945.00,0.0574
2944.00,0.0573
2943.00,0.0573
2942.00,0.0572
2941.00,0.0571
2940.00,0.0569
2939.00,0.0568
2938.00,0.0567
2937.00,0.0567
2936.00,0.0566
2935.00,0.0565
2934.00,0.0563
2933.00,0.0562
2932.00,0.0560
2931.00,0.0558
2930.00,0.0557
2929.00,0.0555
2928.00,0.0554
2927.00,0.0553
2926.00,0.0552
2925.00,0.0552
2924.00,0.0551
2923.00,0.0550
2922.00,0.0550
2921.00,0.0549
2920.00,0.0549
2919.00,0.0549
2918.00,0.0549
2917.00,0.0549
2916.00,0.0549
2915.00,0.0549
2914.00,0.0551
2913.00,0.0552
2912.00,0.0552
2911.00,0.0552
2910.00,0.0552
2909.00,0.0552
2908.00,0.0553
2907.00,0.0553
2906.00,0.0553
2905.00,0.0553
2904.00,0.0553
2903.00,0.0553
2902.00,0.0553
2901.00,0.0553
2900.00,0.0553
2899.00,0.0552
2898.00,0.0552
2897.00,0.0552
2896.00,0.0551
2895.00,0.0551
2894.00,0.0551
2893.00,0.0551
2892.00,0.0550
2891.00,0.0550
2890.00,0.0549
2889.00,0.0549
2888.00,0.0549
2887.00,0.0549
2886.00,0.0549
2885.00,0.0548
2884.00,0.0548
2883.00,0.0547
2882.00,0.0547
2881.00,0.0546
2880.00,0.0546
2879.00,0.0546
2878.00,0.0545
2877.00,0.0544
2876.00,0.0543
2875.00,0.0542
2874.00,0.0542
2873.00,0.0541
2872.00,0.0540
2871.00,0.0540
2870.00,0.0539
2869.00,0.0538
2868.00,0.0537
2867.00,0.0536
2866.00,0.0536
2865.00,0.0535
2864.00,0.0534
2863.00,0.0534
2862.00,0.0533
2861.00,0.0532
2860.00,0.0530
2859.00,0.0529
2858.00,0.0528
2857.00,0.0526
2856.00,0.0525
2855.00,0.0524
2854.00,0.0524
2853.00,0.0524
2852.00,0.0524
2851.00,0.0524
2850.00,0.0523
2849.00,0.0523
2848.00,0.0524
2847.00,0.0524
2846.00,0.0525
2845.00,0.0526
2844.00,0.0526
2843.00,0.0527
2842.00,0.0527
2841.00,0.0527
2840.00,0.0527
2839.00,0.0526
2838.00,0.0526
2837.00,0.0526
2836.00,0.0525
2835.00,0.0524
2834.00,0.0523
2833.00,0.0523
2832.00,0.0522
2831.00,0.0522
2830.00,0.0522
2829.00,0.0522
2828.00,0.0522
2827.00,0.0521
2826.00,0.0521
2825.00,0.0521
2824.00,0.0520
2823.00,0.0519
2822.00,0.0519
2821.00,0.0519
2820.00,0.0519
2819.00,0.0518
2818.00,0.0518
2817.00,0.0517
2816.00,0.0516
2815.00,0.0516
2814.00,0.0516
2813.00,0.0515
2812.00,0.0515
2811.00,0.0514
2810.00,0.0514
2809.00,0.0513
2808.00,0.0512
2807.00,0.0512
2806.00,0.0511
2805.00,0.0510
2804.00,0.0510
2803.00,0.0510
2802.00,0.0510
2801.00,0.0509
2800.00,0.0508
2799.00,0.0508
2798.00,0.0507
2797.00,0.0507
2796.00,0.0507
2795.00,0.0507
2794.00,0.0506
2793.00,0.0506
2792.00,0.0505
2791.00,0.0505
2790.00,0.0504
2789.00,0.0504
2788.00,0.0504
2787.00,0.0503
2786.00,0.0503
2785.00,0.0502
2784.00,0.0502
2783.00,0.0501
2782.00,0.0501
2781.00,0.0500
2780.00,0.0500
2779.00,0.0499
2778.00,0.0498
2777.00,0.0498
2776.00,0.0498
2775.00,0.0498
2774.00,0.0497
2773.00,0.0497
2772.00,0.0496
2771.00,0.0496
2770.00,0.0496
2769.00,0.0495
2768.00,0.0495
2767.00,0.0495
2766.00,0.0494
2765.00,0.0493
2764.00,0.0493
2763.00,0.0492
2762.00,0.0492
2761.00,0.0491
2760.00,0.0491
2759.00,0.0490
2758.00,0.0490
2757.00,0.0490
2756.00,0.0490
2755.00,0.0489
2754.00,0.0489
2753.00,0.0488
2752.00,0.0488
2751.00,0.0487
2750.00,0.0487
2749.00,0.0486
2748.00,0.0486
2747.00,0.0486
2746.00,0.0485
2745.00,0.0485
2744.00,0.0484
2743.00,0.0483
2742.00,0.0483
2741.00,0.0482
2740.00,0.0482
2739.00,0.0481
2738.00,0.0481
2737.00,0.0480
2736.00,0.0480
2735.00,0.0479
2734.00,0.0479
2733.00,0.0479
2732.00,0.0479
2731.00,0.0478
2730.00,0.0478
2729.00,0.0477
2728.00,0.0477
2727.00,0.0476
2726.00,0.0476
2725.00,0.0475
2724.00,0.0475
2723.00,0.0475
2722.00,0.0474
2721.00,0.0474
2720.00,0.0474
2719.00,0.0474
2718.00,0.0473
2717.00,0.0473
2716.00,0.0472
2715.00,0.0472
2714.00,0.0471
2713.00,0.0471
2712.00,0.0470
2711.00,0.0469
2710.00,0.0469
2709.00,0.0468
2708.00,0.0468
2707.00,0.0468
2706.00,0.0468
2705.00,0.0467
2704.00,0.0467
2703.00,0.0466
2702.00,0.0466
2701.00,0.0465
2700.00,0.0465
2699.00,0.0464
2698.00,0.0464
2697.00,0.0464
2696.00,0.0464
2695.00,0.0464
2694.00,0.0464
2693.00,0.0464
2692.00,0.0463
2691.00,0.0462
2690.00,0.0462
2689.00,0.0461
2688.00,0.0461
2687.00,0.0461
2686.00,0.0460
2685.00,0.0460
2684.00,0.0459
2683.00,0.0459
2682.00,0.0459
2681.00,0.0459
2680.00,0.0459
2679.00,0.0458
2678.00,0.0458
2677.00,0.0457
2676.00,0.0457
2675.00,0.0457
2674.00,0.0457
2673.00,0.0456
2672.00,0.0456
2671.00,0.0455
2670.00,0.0455
2669.00,0.0455
2668.00,0.0455
2667.00,0.0455
2666.00,0.0455
2665.00,0.0455
2664.00,0.0456
2663.00,0.0456
2662.00,0.0455
2661.00,0.0455
2660.00,0.0455
2659.00,0.0455
2658.00,0.0455
2657.00,0.0455
2656.00,0.0455
2655.00,0.0456
2654.00,0.0456
2653.00,0.0456
2652.00,0.0456
2651.00,0.0455
2650.00,0.0455
2649.00,0.0454
2648.00,0.0454
2647.00,0.0454
2646.00,0.0454
2645.00,0.0454
2644.00,0.0454
2643.00,0.0454
2642.00,0.0454
2641.00,0.0454
2640.00,0.0454
2639.00,0.0454
2638.00,0.0454
2637.00,0.0453
2636.00,0.0453
2635.00,0.0453
2634.00,0.0454
2633.00,0.0454
2632.00,0.0454
2631.00,0.0454
2630.00,0.0454
2629.00,0.0454
2628.00,0.0454
2627.00,0.0454
2626.00,0.0453
2625.00,0.0453
2624.00,0.0453
2623.00,0.0453
2622.00,0.0452
2621.00,0.0452
2620.00,0.0452
2619.00,0.0452
2618.00,0.0452
2617.00,0.0452
2616.00,0.0452
2615.00,0.0452
2614.00,0.0453
2613.00,0.0453
2612.00,0.0453
2611.00,0.0452
2610.00,0.0452
2609.00,0.0452
2608.00,0.0452
2607.00,0.0452
2606.00,0.0452
2605.00,0.0452
2604.00,0.0452
2603.00,0.0452
2602.00,0.0452
2601.00,0.0451
2600.00,0.0451
2599.00,0.0451
2598.00,0.0451
2597.00,0.0451
2596.00,0.0451
2595.00,0.0450
2594.00,0.0450
2593.00,0.0450
2592.00,0.0450
2591.00,0.0450
2590.00,0.0450
2589.00,0.0450
2588.00,0.0450
2587.00,0.0449
2586.00,0.0449
2585.00,0.0448
2584.00,0.0448
2583.00,0.0448
2582.00,0.0449
2581.00,0.0449
2580.00,0.0450
2579.00,0.0450
2578.00,0.0449
2577.00,0.0449
2576.00,0.0448
2575.00,0.0448
2574.00,0.0448
2573.00,0.0448
2572.00,0.0447
2571.00,0.0447
2570.00,0.0447
2569.00,0.0447
2568.00,0.0447
2567.00,0.0446
2566.00,0.0446
2565.00,0.0446
2564.00,0.0446
2563.00,0.0446
2562.00,0.0446
2561.00,0.0445
2560.00,0.0445
2559.00,0.0444
2558.00,0.0444
2557.00,0.0445
2556.00,0.0445
2555.00,0.0445
2554.00,0.0445
2553.00,0.0445
2552.00,0.0445
2551.00,0.0445
2550.00,0.0444
2549.00,0.0444
2548.00,0.0444
2547.00,0.0443
2546.00,0.0443
2545.00,0.0443
2544.00,0.0443
2543.00,0.0443
2542.00,0.0442
2541.00,0.0442
2540.00,0.0442
2539.00,0.0442
2538.00,0.0442
2537.00,0.0442
2536.00,0.0441
2535.00,0.0440
2534.00,0.0440
2533.00,0.0439
2532.00,0.0439
2531.00,0.0439
2530.00,0.0440
2529.00,0.0440
2528.00,0.0440
2527.00,0.0440
2526.00,0.0440
2525.00,0.0440
2524.00,0.0440
2523.00,0.0440
2522.00,0.0440
2521.00,0.0440
2520.00,0.0439
2519.00,0.0438
2518.00,0.0438
2517.00,0.0438
2516.00,0.0438
2515.00,0.0438
2514.00,0.0438
2513.00,0.0438
2512.00,0.0438
2511.00,0.0438
2510.00,0.0437
2509.00,0.0436
2508.00,0.0436
2507.00,0.0436
2506.00,0.0436
2505.00,0.0436
2504.00,0.0436
2503.00,0.0436
2502.00,0.0435
2501.00,0.0435
2500.00,0.0435
2499.00,0.0435
2498.00,0.0435
2497.00,0.0435
2496.00,0.0435
2495.00,0.0435
2494.00,0.0435
2493.00,0.0435
2492.00,0.0434
2491.00,0.0434
2490.00,0.0434
2489.00,0.0434
2488.00,0.0434
2487.00,0.0433
2486.00,0.0433
2485.00,0.0432
2484.00,0.0432
2483.00,0.0431
2482.00,0.0431
2481.00,0.0431
2480.00,0.0432
2479.00,0.0432
2478.00,0.0432
2477.00,0.0432
2476.00,0.0432
2475.00,0.0431
2474.00,0.0430
2473.00,0.0430
2472.00,0.0429
2471.00,0.0429
2470.00,0.0429
2469.00,0.0429
2468.00,0.0429
2467.00,0.0428
2466.00,0.0428
2465.00,0.0428
2464.00,0.0428
2463.00,0.0428
2462.00,0.0428
2461.00,0.0428
2460.00,0.0428
2459.00,0.0428
2458.00,0.0428
2457.00,0.0428
2456.00,0.0428
2455.00,0.0427
2454.00,0.0427
2453.00,0.0427
2452.00,0.0427
2451.00,0.0427
2450.00,0.0427
2449.00,0.0426
2448.00,0.0426
2447.00,0.0425
2446.00,0.0425
2445.00,0.0424
2444.00,0.0423
2443.00,0.0423
2442.00,0.0423
2441.00,0.0423
2440.00,0.0423
2439.00,0.0422
2438.00,0.0421
2437.00,0.0421
2436.00,0.0420
2435.00,0.0420
2434.00,0.0420
2433.00,0.0420
2432.00,0.0419
2431.00,0.0419
2430.00,0.0419
2429.00,0.0419
2428.00,0.0419
2427.00,0.0419
2426.00,0.0419
2425.00,0.0419
2424.00,0.0419
2423.00,0.0418
2422.00,0.0417
2421.00,0.0417
2420.00,0.0417
2419.00,0.0417
2418.00,0.0417
2417.00,0.0416
2416.00,0.0416
2415.00,0.0415
2414.00,0.0415
2413.00,0.0415
2412.00,0.0414
2411.00,0.0414
2410.00,0.0414
2409.00,0.0413
2408.00,0.0413
2407.00,0.0412
2406.00,0.0411
2405.00,0.0411
2404.00,0.0411
2403.00,0.0411
2402.00,0.0410
2401.00,0.0410
2400.00,0.0409
2399.00,0.0409
2398.00,0.0409
2397.00,0.0409
2396.00,0.0409
2395.00,0.0408
2394.00,0.0407
2393.00,0.0407
2392.00,0.0406
2391.00,0.0406
2390.00,0.0406
2389.00,0.0406
2388.00,0.0405
2387.00,0.0404
2386.00,0.0403
2385.00,0.0403
2384.00,0.0402
2383.00,0.0402
2382.00,0.0402
2381.00,0.0401
2380.00,0.0400
2379.00,0.0398
2378.00,0.0396
2377.00,0.0394
2376.00,0.0393
2375.00,0.0392
2374.00,0.0391
2373.00,0.0391
2372.00,0.0391
2371.00,0.0391
2370.00,0.0391
2369.00,0.0391
2368.00,0.0390
2367.00,0.0390
2366.00,0.0389
2365.00,0.0389
2364.00,0.0388
2363.00,0.0386
2362.00,0.0385
2361.00,0.0386
2360.00,0.0387
2359.00,0.0387
2358.00,0.0386
2357.00,0.0386
2356.00,0.0386
2355.00,0.0387
2354.00,0.0387
2353.00,0.0388
2352.00,0.0388
2351.00,0.0386
2350.00,0.0383
2349.00,0.0381
2348.00,0.0381
2347.00,0.0384
2346.00,0.0388
2345.00,0.0390
2344.00,0.0387
2343.00,0.0384
2342.00,0.0382
2341.00,0.0383
2340.00,0.0384
2339.00,0.0384
2338.00,0.0384
2337.00,0.0384
2336.00,0.0384
2335.00,0.0383
2334.00,0.0383
2333.00,0.0383
2332.00,0.0383
2331.00,0.0384
2330.00,0.0384
2329.00,0.0384
2328.00,0.0385
2327.00,0.0385
2326.00,0.0387
2325.00,0.0389
2324.00,0.0390
2323.00,0.0390
2322.00,0.0389
2321.00,0.0388
2320.00,0.0387
2319.00,0.0387
2318.00,0.0387
2317.00,0.0388
2316.00,0.0388
2315.00,0.0388
2314.00,0.0387
2313.00,0.0386
2312.00,0.0385
2311.00,0.0385
2310.00,0.0385
2309.00,0.0385
2308.00,0.0385
2307.00,0.0385
2306.00,0.0386
2305.00,0.0386
2304.00,0.0385
2303.00,0.0385
2302.00,0.0385
2301.00,0.0385
2300.00,0.0386
2299.00,0.0386
2298.00,0.0386
2297.00,0.0387
2296.00,0.0387
2295.00,0.0387
2294.00,0.0387
2293.00,0.0388
2292.00,0.0389
2291.00,0.0390
2290.00,0.0391
2289.00,0.0391
2288.00,0.0392
2287.00,0.0392
2286.00,0.0392
2285.00,0.0391
2284.00,0.0391
2283.00,0.0391
2282.00,0.0391
2281.00,0.0391
2280.00,0.0390
2279.00,0.0390
2278.00,0.0389
2277.00,0.0388
2276.00,0.0388
2275.00,0.0387
2274.00,0.0387
2273.00,0.0388
2272.00,0.0388
2271.00,0.0388
2270.00,0.0388
2269.00,0.0387
2268.00,0.0387
2267.00,0.0386
2266.00,0.0386
2265.00,0.0386
2264.00,0.0387
2263.00,0.0388
2262.00,0.0389
2261.00,0.0389
2260.00,0.0389
2259.00,0.0388
2258.00,0.0387
2257.00,0.0386
2256.00,0.0385
2255.00,0.0384
2254.00,0.0385
2253.00,0.0385
2252.00,0.0386
2251.00,0.0386
2250.00,0.0386
2249.00,0.0385
2248.00,0.0385
2247.00,0.0384
2246.00,0.0384
2245.00,0.0383
2244.00,0.0383
2243.00,0.0383
2242.00,0.0383
2241.00,0.0384
2240.00,0.0384
2239.00,0.0385
2238.00,0.0385
2237.00,0.0384
2236.00,0.0384
2235.00,0.0384
2234.00,0.0384
2233.00,0.0385
2232.00,0.0385
2231.00,0.0384
2230.00,0.0384
2229.00,0.0383
2228.00,0.0383
2227.00,0.0383
2226.00,0.0382
2225.00,0.0382
2224.00,0.0381
2223.00,0.0381
2222.00,0.0381
2221.00,0.0381
2220.00,0.0381
2219.00,0.0380
2218.00,0.0380
2217.00,0.0380
2216.00,0.0380
2215.00,0.0381
2214.00,0.0383
2213.00,0.0384
2212.00,0.0384
2211.00,0.0383
2210.00,0.0382
2209.00,0.0381
2208.00,0.0380
2207.00,0.0379
2206.00,0.0378
2205.00,0.0377
2204.00,0.0377
2203.00,0.0376
2202.00,0.0377
2201.00,0.0378
2200.00,0.0379
2199.00,0.0380
2198.00,0.0381
2197.00,0.0381
2196.00,0.0380
2195.00,0.0379
2194.00,0.0379
2193.00,0.0378
2192.00,0.0377
2191.00,0.0377
2190.00,0.0377
2189.00,0.0378
2188.00,0.0380
2187.00,0.0380
2186.00,0.0380
2185.00,0.0379
2184.00,0.0377
2183.00,0.0376
2182.00,0.0376
2181.00,0.0377
2180.00,0.0377
2179.00,0.0377
2178.00,0.0376
2177.00,0.0373
2176.00,0.0372
2175.00,0.0371
2174.00,0.0373
2173.00,0.0376
2172.00,0.0378
2171.00,0.0381
2170.00,0.0383
2169.00,0.0385
2168.00,0.0385
2167.00,0.0383
2166.00,0.0381
2165.00,0.0380
2164.00,0.0380
2163.00,0.0380
2162.00,0.0378
2161.00,0.0373
2160.00,0.0366
2159.00,0.0360
2158.00,0.0358
2157.00,0.0359
2156.00,0.0361
2155.00,0.0362
2154.00,0.0362
2153.00,0.0362
2152.00,0.0360
2151.00,0.0358
2150.00,0.0357
2149.00,0.0356
2148.00,0.0356
2147.00,0.0357
2146.00,0.0357
2145.00,0.0356
2144.00,0.0356
2143.00,0.0355
2142.00,0.0354
2141.00,0.0354
2140.00,0.0353
2139.00,0.0353
2138.00,0.0353
2137.00,0.0351
2136.00,0.0349
2135.00,0.0346
2134.00,0.0344
2133.00,0.0344
2132.00,0.0344
2131.00,0.0344
2130.00,0.0344
2129.00,0.0344
2128.00,0.0344
2127.00,0.0344
2126.00,0.0345
2125.00,0.0346
2124.00,0.0346
2123.00,0.0346
2122.00,0.0346
2121.00,0.0346
2120.00,0.0346
2119.00,0.0346
2118.00,0.0346
2117.00,0.0346
2116.00,0.0346
2115.00,0.0346
2114.00,0.0346
2113.00,0.0345
2112.00,0.0345
2111.00,0.0345
2110.00,0.0345
2109.00,0.0345
2108.00,0.0345
2107.00,0.0345
2106.00,0.0344
2105.00,0.0342
2104.00,0.0342
2103.00,0.0341
2102.00,0.0341
2101.00,0.0341
2100.00,0.0341
2099.00,0.0341
2098.00,0.0340
2097.00,0.0339
2096.00,0.0339
2095.00,0.0338
2094.00,0.0337
2093.00,0.0336
2092.00,0.0336
2091.00,0.0336
2090.00,0.0336
2089.00,0.0336
2088.00,0.0336
2087.00,0.0336
2086.00,0.0336
2085.00,0.0336
2084.00,0.0336
2083.00,0.0336
2082.00,0.0335
2081.00,0.0334
2080.00,0.0334
2079.00,0.0334
2078.00,0.0335
2077.00,0.0336
2076.00,0.0336
2075.00,0.0335
2074.00,0.0334
2073.00,0.0333
2072.00,0.0333
2071.00,0.0333
2070.00,0.0333
2069.00,0.0333
2068.00,0.0332
2067.00,0.0331
2066.00,0.0330
2065.00,0.0330
2064.00,0.0329
2063.00,0.0329
2062.00,0.0329
2061.00,0.0329
2060.00,0.0330
2059.00,0.0330
2058.00,0.0330
2057.00,0.0330
2056.00,0.0331
2055.00,0.0331
2054.00,0.0332
2053.00,0.0334
2052.00,0.0336
2051.00,0.0337
2050.00,0.0336
2049.00,0.0335
2048.00,0.0333
2047.00,0.0332
2046.00,0.0332
2045.00,0.0333
2044.00,0.0334
2043.00,0.0333
2042.00,0.0333
2041.00,0.0333
2040.00,0.0333
2039.00,0.0335
2038.00,0.0337
2037.00,0.0339
2036.00,0.0339
2035.00,0.0337
2034.00,0.0335
2033.00,0.0333
2032.00,0.0331
2031.00,0.0329
2030.00,0.0327
2029.00,0.0327
2028.00,0.0327
2027.00,0.0325
2026.00,0.0324
2025.00,0.0324
2024.00,0.0324
2023.00,0.0324
2022.00,0.0324
2021.00,0.0323
2020.00,0.0322
2019.00,0.0319
2018.00,0.0318
2017.00,0.0319
2016.00,0.0320
2015.00,0.0322
2014.00,0.0322
2013.00,0.0322
2012.00,0.0321
2011.00,0.0320
2010.00,0.0318
2009.00,0.0317
2008.00,0.0316
2007.00,0.0314
2006.00,0.0313
2005.00,0.0313
2004.00,0.0313
2003.00,0.0312
2002.00,0.0312
2001.00,0.0312
2000.00,0.0312
1999.00,0.0312
1998.00,0.0312
1997.00,0.0313
1996.00,0.0314
1995.00,0.0315
1994.00,0.0317
1993.00,0.0317
1992.00,0.0316
1991.00,0.0314
1990.00,0.0312
1989.00,0.0310
1988.00,0.0308
1987.00,0.0306
1986.00,0.0307
1985.00,0.0309
1984.00,0.0311
1983.00,0.0313
1982.00,0.0315
1981.00,0.0317
1980.00,0.0317
1979.00,0.0314
1978.00,0.0311
1977.00,0.0308
1976.00,0.0306
1975.00,0.0305
1974.00,0.0305
1973.00,0.0306
1972.00,0.0306
1971.00,0.0306
1970.00,0.0305
1969.00,0.0303
1968.00,0.0302
1967.00,0.0300
1966.00,0.0300
1965.00,0.0300
1964.00,0.0301
1963.00,0.0300
1962.00,0.0299
1961.00,0.0298
1960.00,0.0297
1959.00,0.0295
1958.00,0.0294
1957.00,0.0293
1956.00,0.0292
1955.00,0.0292
1954.00,0.0291
1953.00,0.0290
1952.00,0.0289
1951.00,0.0289
1950.00,0.0288
1949.00,0.0288
1948.00,0.0288
1947.00,0.0288
1946.00,0.0288
1945.00,0.0289
1944.00,0.0288
1943.00,0.0287
1942.00,0.0284
1941.00,0.0282
1940.00,0.0282
1939.00,0.0281
1938.00,0.0281
1937.00,0.0281
1936.00,0.0281
1935.00,0.0280
1934.00,0.0279
1933.00,0.0278
1932.00,0.0277
1931.00,0.0277
1930.00,0.0276
1929.00,0.0275
1928.00,0.0274
1927.00,0.0274
1926.00,0.0274
1925.00,0.0275
1924.00,0.0275
1923.00,0.0273
1922.00,0.0272
1921.00,0.0273
1920.00,0.0274
1919.00,0.0273
1918.00,0.0270
1917.00,0.0268
1916.00,0.0268
1915.00,0.0269
1914.00,0.0269
1913.00,0.0269
1912.00,0.0268
1911.00,0.0266
1910.00,0.0264
1909.00,0.0261
1908.00,0.0260
1907.00,0.0259
1906.00,0.0259
1905.00,0.0259
1904.00,0.0259
1903.00,0.0259
1902.00,0.0259
1901.00,0.0259
1900.00,0.0259
1899.00,0.0258
1898.00,0.0257
1897.00,0.0257
1896.00,0.0255
1895.00,0.0253
1894.00,0.0252
1893.00,0.0253
1892.00,0.0254
1891.00,0.0254
1890.00,0.0251
1889.00,0.0247
1888.00,0.0245
1887.00,0.0245
1886.00,0.0246
1885.00,0.0246
1884.00,0.0246
1883.00,0.0245
1882.00,0.0245
1881.00,0.0245
1880.00,0.0245
1879.00,0.0244
1878.00,0.0243
1877.00,0.0242
1876.00,0.0242
1875.00,0.0241
1874.00,0.0241
1873.00,0.0241
1872.00,0.0243
1871.00,0.0244
1870.00,0.0242
1869.00,0.0237
1868.00,0.0232
1867.00,0.0229
1866.00,0.0230
1865.00,0.0232
1864.00,0.0233
1863.00,0.0233
1862.00,0.0232
1861.00,0.0231
1860.00,0.0230
1859.00,0.0229
1858.00,0.0229
1857.00,0.0228
1856.00,0.0228
1855.00,0.0227
1854.00,0.0226
1853.00,0.0226
1852.00,0.0225
1851.00,0.0226
1850.00,0.0226
1849.00,0.0227
1848.00,0.0227
1847.00,0.0228
1846.00,0.0227
1845.00,0.0224
1844.00,0.0219
1843.00,0.0215
1842.00,0.0215
1841.00,0.0217
1840.00,0.0218
1839.00,0.0218
1838.00,0.0217
1837.00,0.0215
1836.00,0.0214
1835.00,0.0214
1834.00,0.0215
1833.00,0.0217
1832.00,0.0217
1831.00,0.0215
1830.00,0.0208
1829.00,0.0203
1828.00,0.0203
1827.00,0.0206
1826.00,0.0206
1825.00,0.0205
1824.00,0.0203
1823.00,0.0203
1822.00,0.0204
1821.00,0.0205
1820.00,0.0206
1819.00,0.0205
1818.00,0.0204
1817.00,0.0203
1816.00,0.0203
1815.00,0.0203
1814.00,0.0204
1813.00,0.0205
1812.00,0.0205
1811.00,0.0203
1810.00,0.0202
1809.00,0.0202
1808.00,0.0203
1807.00,0.0205
1806.00,0.0206
1805.00,0.0208
1804.00,0.0211
1803.00,0.0213
1802.00,0.0213
1801.00,0.0213
1800.00,0.0212
1799.00,0.0212
1798.00,0.0216
1797.00,0.0220
1796.00,0.0224
1795.00,0.0228
1794.00,0.0230
1793.00,0.0231
1792.00,0.0229
1791.00,0.0228
1790.00,0.0230
1789.00,0.0235
1788.00,0.0240
1787.00,0.0245
1786.00,0.0249
1785.00,0.0252
1784.00,0.0256
1783.00,0.0259
1782.00,0.0262
1781.00,0.0265
1780.00,0.0268
1779.00,0.0272
1778.00,0.0278
1777.00,0.0284
1776.00,0.0290
1775.00,0.0296
1774.00,0.0300
1773.00,0.0302
1772.00,0.0301
1771.00,0.0301
1770.00,0.0306
1769.00,0.0312
1768.00,0.0317
1767.00,0.0321
1766.00,0.0324
1765.00,0.0329
1764.00,0.0333
1763.00,0.0336
1762.00,0.0336
1761.00,0.0338
1760.00,0.0341
1759.00,0.0346
1758.00,0.0350
1757.00,0.0352
1756.00,0.0355
1755.00,0.0360
1754.00,0.0366
1753.00,0.0372
1752.00,0.0379
1751.00,0.0384
1750.00,0.0386
1749.00,0.0387
1748.00,0.0389
1747.00,0.0393
1746.00,0.0399
1745.00,0.0405
1744.00,0.0411
1743.00,0.0416
1742.00,0.0421
1741.00,0.0427
1740.00,0.0433
1739.00,0.0439
1738.00,0.0445
1737.00,0.0454
1736.00,0.0463
1735.00,0.0473
1734.00,0.0479
1733.00,0.0483
1732.00,0.0487
1731.00,0.0490
1730.00,0.0493
1729.00,0.0498
1728.00,0.0504
1727.00,0.0511
1726.00,0.0517
1725.00,0.0523
1724.00,0.0529
1723.00,0.0534
1722.00,0.0538
1721.00,0.0541
1720.00,0.0544
1719.00,0.0548
1718.00,0.0553
1717.00,0.0557
1716.00,0.0559
1715.00,0.0560
1714.00,0.0561
1713.00,0.0563
1712.00,0.0566
1711.00,0.0568
1710.00,0.0569
1709.00,0.0570
1708.00,0.0570
1707.00,0.0570
1706.00,0.0568
1705.00,0.0568
1704.00,0.0569
1703.00,0.0571
1702.00,0.0572
1701.00,0.0573
1700.00,0.0573
1699.00,0.0573
1698.00,0.0575
1697.00,0.0574
1696.00,0.0570
1695.00,0.0568
1694.00,0.0569
1693.00,0.0570
1692.00,0.0570
1691.00,0.0570
1690.00,0.0570
1689.00,0.0572
1688.00,0.0573
1687.00,0.0575
1686.00,0.0575
1685.00,0.0574
1684.00,0.0570
1683.00,0.0569
1682.00,0.0574
1681.00,0.0578
1680.00,0.0581
1679.00,0.0584
1678.00,0.0587
1677.00,0.0589
1676.00,0.0593
1675.00,0.0595
1674.00,0.0597
1673.00,0.0599
1672.00,0.0601
1671.00,0.0603
1670.00,0.0605
1669.00,0.0607
1668.00,0.0611
1667.00,0.0615
1666.00,0.0619
1665.00,0.0623
1664.00,0.0626
1663.00,0.0630
1662.00,0.0634
1661.00,0.0638
1660.00,0.0643
1659.00,0.0647
1658.00,0.0650
1657.00,0.0652
1656.00,0.0653
1655.00,0.0654
1654.00,0.0660
1653.00,0.0667
1652.00,0.0673
1651.00,0.0681
1650.00,0.0682
1649.00,0.0683
1648.00,0.0687
1647.00,0.0694
1646.00,0.0699
1645.00,0.0705
1644.00,0.0711
1643.00,0.0715
1642.00,0.0718
1641.00,0.0722
1640.00,0.0725
1639.00,0.0728
1638.00,0.0730
1637.00,0.0735
1636.00,0.0742
1635.00,0.0749
1634.00,0.0756
1633.00,0.0763
1632.00,0.0768
1631.00,0.0772
1630.00,0.0776
1629.00,0.0780
1628.00,0.0785
1627.00,0.0790
1626.00,0.0795
1625.00,0.0801
1624.00,0.0808
1623.00,0.0815
1622.00,0.0822
1621.00,0.0827
1620.00,0.0831
1619.00,0.0835
1618.00,0.0842
1617.00,0.0851
1616.00,0.0859
1615.00,0.0864
1614.00,0.0868
1613.00,0.0871
1612.00,0.0876
1611.00,0.0882
1610.00,0.0888
1609.00,0.0894
1608.00,0.0899
1607.00,0.0905
1606.00,0.0910
1605.00,0.0915
1604.00,0.0920
1603.00,0.0925
1602.00,0.0930
1601.00,0.0935
1600.00,0.0940
1599.00,0.0946
1598.00,0.0951
1597.00,0.0955
1596.00,0.0961
1595.00,0.0966
1594.00,0.0971
1593.00,0.0975
1592.00,0.0980
1591.00,0.0984
1590.00,0.0989
1589.00,0.0993
1588.00,0.0996
1587.00,0.1000
1586.00,0.1003
1585.00,0.1006
1584.00,0.1009
1583.00,0.1013
1582.00,0.1016
1581.00,0.1018
1580.00,0.1018
1579.00,0.1018
1578.00,0.1019
1577.00,0.1024
1576.00,0.1031
1575.00,0.1036
1574.00,0.1035
1573.00,0.1031
1572.00,0.1026
1571.00,0.1025
1570.00,0.1026
1569.00,0.1028
1568.00,0.1029
1567.00,0.1029
1566.00,0.1026
1565.00,0.1024
1564.00,0.1021
1563.00,0.1017
1562.00,0.1009
1561.00,0.0997
1560.00,0.0995
1559.00,0.1006
1558.00,0.1008
1557.00,0.1008
1556.00,0.1007
1555.00,0.1003
1554.00,0.0999
1553.00,0.0993
1552.00,0.0988
1551.00,0.0982
1550.00,0.0977
1549.00,0.0972
1548.00,0.0966
1547.00,0.0961
1546.00,0.0955
1545.00,0.0950
1544.00,0.0944
1543.00,0.0938
1542.00,0.0931
1541.00,0.0925
1540.00,0.0917
1539.00,0.0909
1538.00,0.0906
1537.00,0.0903
1536.00,0.0896
1535.00,0.0888
1534.00,0.0881
1533.00,0.0875
1532.00,0.0870
1531.00,0.0866
1530.00,0.0862
1529.00,0.0857
1528.00,0.0852
1527.00,0.0848
1526.00,0.0843
1525.00,0.0837
1524.00,0.0831
1523.00,0.0826
1522.00,0.0821
1521.00,0.0816
1520.00,0.0810
1519.00,0.0805
1518.00,0.0798
1517.00,0.0793
1516.00,0.0789
1515.00,0.0787
1514.00,0.0786
1513.00,0.0783
1512.00,0.0781
1511.00,0.0777
1510.00,0.0771
1509.00,0.0766
1508.00,0.0763
1507.00,0.0755
1506.00,0.0745
1505.00,0.0745
1504.00,0.0747
1503.00,0.0745
1502.00,0.0741
1501.00,0.0736
1500.00,0.0732
1499.00,0.0729
1498.00,0.0726
1497.00,0.0725
1496.00,0.0725
1495.00,0.0724
1494.00,0.0723
1493.00,0.0722
1492.00,0.0722
1491.00,0.0721
1490.00,0.0718
1489.00,0.0714
1488.00,0.0710
1487.00,0.0707
1486.00,0.0707
1485.00,0.0707
1484.00,0.0707
1483.00,0.0706
1482.00,0.0706
1481.00,0.0705
1480.00,0.0704
1479.00,0.0703
1478.00,0.0702
1477.00,0.0703
1476.00,0.0704
1475.00,0.0706
1474.00,0.0709
1473.00,0.0711
1472.00,0.0709
1471.00,0.0708
1470.00,0.0707
1469.00,0.0708
1468.00,0.0708
1467.00,0.0709
1466.00,0.0710
1465.00,0.0712
1464.00,0.0715
1463.00,0.0717
1462.00,0.0718
1461.00,0.0719
1460.00,0.0720
1459.00,0.0723
1458.00,0.0729
1457.00,0.0736
1456.00,0.0740
1455.00,0.0741
1454.00,0.0741
1453.00,0.0742
1452.00,0.0745
1451.00,0.0748
1450.00,0.0751
1449.00,0.0754
1448.00,0.0759
1447.00,0.0762
1446.00,0.0765
1445.00,0.0768
1444.00,0.0771
1443.00,0.0774
1442.00,0.0776
1441.00,0.0779
1440.00,0.0782
1439.00,0.0785
1438.00,0.0789
1437.00,0.0795
1436.00,0.0801
1435.00,0.0804
1434.00,0.0805
1433.00,0.0805
1432.00,0.0807
1431.00,0.0809
1430.00,0.0811
1429.00,0.0814
1428.00,0.0817
1427.00,0.0820
1426.00,0.0822
1425.00,0.0824
1424.00,0.0827
1423.00,0.0830
1422.00,0.0831
1421.00,0.0833
1420.00,0.0838
1419.00,0.0844
1418.00,0.0847
1417.00,0.0849
1416.00,0.0851
1415.00,0.0853
1414.00,0.0854
1413.00,0.0857
1412.00,0.0860
1411.00,0.0862
1410.00,0.0864
1409.00,0.0866
1408.00,0.0868
1407.00,0.0871
1406.00,0.0873
1405.00,0.0877
1404.00,0.0882
1403.00,0.0885
1402.00,0.0887
1401.00,0.0889
1400.00,0.0893
1399.00,0.0898
1398.00,0.0901
1397.00,0.0904
1396.00,0.0907
1395.00,0.0910
1394.00,0.0913
1393.00,0.0915
1392.00,0.0916
1391.00,0.0917
1390.00,0.0918
1389.00,0.0920
1388.00,0.0924
1387.00,0.0928
1386.00,0.0929
1385.00,0.0930
1384.00,0.0931
1383.00,0.0932
1382.00,0.0933
1381.00,0.0934
1380.00,0.0935
1379.00,0.0936
1378.00,0.0937
1377.00,0.0936
1376.00,0.0937
1375.00,0.0938
1374.00,0.0939
1373.00,0.0940
1372.00,0.0941
1371.00,0.0941
1370.00,0.0941
1369.00,0.0941
1368.00,0.0941
1367.00,0.0941
1366.00,0.0940
1365.00,0.0939
1364.00,0.0939
1363.00,0.0940
1362.00,0.0941
1361.00,0.0941
1360.00,0.0940
1359.00,0.0939
1358.00,0.0937
1357.00,0.0936
1356.00,0.0935
1355.00,0.0934
1354.00,0.0933
1353.00,0.0932
1352.00,0.0930
1351.00,0.0929
1350.00,0.0927
1349.00,0.0926
1348.00,0.0924
1347.00,0.0923
1346.00,0.0921
1345.00,0.0919
1344.00,0.0917
1343.00,0.0916
1342.00,0.0915
1341.00,0.0915
1340.00,0.0914
1339.00,0.0914
1338.00,0.0912
1337.00,0.0910
1336.00,0.0908
1335.00,0.0906
1334.00,0.0904
1333.00,0.0902
1332.00,0.0901
1331.00,0.0899
1330.00,0.0898
1329.00,0.0896
1328.00,0.0895
1327.00,0.0894
1326.00,0.0892
1325.00,0.0891
1324.00,0.0891
1323.00,0.0890
1322.00,0.0890
1321.00,0.0889
1320.00,0.0889
1319.00,0.0889
1318.00,0.0888
1317.00,0.0888
1316.00,0.0887
1315.00,0.0887
1314.00,0.0887
1313.00,0.0887
1312.00,0.0887
1311.00,0.0886
1310.00,0.0886
1309.00,0.0885
1308.00,0.0885
1307.00,0.0885
1306.00,0.0885
1305.00,0.0885
1304.00,0.0885
1303.00,0.0885
1302.00,0.0886
1301.00,0.0886
1300.00,0.0886
1299.00,0.0887
1298.00,0.0888
1297.00,0.0889
1296.00,0.0890
1295.00,0.0891
1294.00,0.0891
1293.00,0.0892
1292.00,0.0894
1291.00,0.0895
1290.00,0.0896
1289.00,0.0897
1288.00,0.0897
1287.00,0.0898
1286.00,0.0899
1285.00,0.0900
1284.00,0.0901
1283.00,0.0902
1282.00,0.0904
1281.00,0.0905
1280.00,0.0906
1279.00,0.0907
1278.00,0.0908
1277.00,0.0909
1276.00,0.0910
1275.00,0.0911
1274.00,0.0912
1273.00,0.0913
1272.00,0.0914
1271.00,0.0915
1270.00,0.0916
1269.00,0.0916
1268.00,0.0917
1267.00,0.0918
1266.00,0.0919
1265.00,0.0920
1264.00,0.0921
1263.00,0.0921
1262.00,0.0922
1261.00,0.0923
1260.00,0.0924
1259.00,0.0924
1258.00,0.0924
1257.00,0.0925
1256.00,0.0925
1255.00,0.0926
1254.00,0.0926
1253.00,0.0926
1252.00,0.0926
1251.00,0.0926
1250.00,0.0926
1249.00,0.0926
1248.00,0.0927
1247.00,0.0927
1246.00,0.0927
1245.00,0.0926
1244.00,0.0925
1243.00,0.0925
1242.00,0.0924
1241.00,0.0924
1240.00,0.0924
1239.00,0.0923
1238.00,0.0922
1237.00,0.0920
1236.00,0.0920
1235.00,0.0919
1234.00,0.0919
1233.00,0.0918
1232.00,0.0916
1231.00,0.0915
1230.00,0.0914
1229.00,0.0913
1228.00,0.0913
1227.00,0.0912
1226.00,0.0910
1225.00,0.0908
1224.00,0.0907
1223.00,0.0905
1222.00,0.0904
1221.00,0.0902
1220.00,0.0900
1219.00,0.0898
1218.00,0.0896
1217.00,0.0894
1216.00,0.0892
1215.00,0.0891
1214.00,0.0889
1213.00,0.0888
1212.00,0.0887
1211.00,0.0885
1210.00,0.0884
1209.00,0.0882
1208.00,0.0880
1207.00,0.0878
1206.00,0.0876
1205.00,0.0875
1204.00,0.0874
1203.00,0.0873
1202.00,0.0872
1201.00,0.0870
1200.00,0.0869
1199.00,0.0867
1198.00,0.0865
1197.00,0.0863
1196.00,0.0862
1195.00,0.0861
1194.00,0.0860
1193.00,0.0858
1192.00,0.0856
1191.00,0.0854
1190.00,0.0852
1189.00,0.0850
1188.00,0.0849
1187.00,0.0848
1186.00,0.0847
1185.00,0.0846
1184.00,0.0845
1183.00,0.0844
1182.00,0.0843
1181.00,0.0841
1180.00,0.0840
1179.00,0.0839
1178.00,0.0838
1177.00,0.0836
1176.00,0.0834
1175.00,0.0832
1174.00,0.0830
1173.00,0.0827
1172.00,0.0826
1171.00,0.0824
1170.00,0.0823
1169.00,0.0822
1168.00,0.0821
1167.00,0.0819
1166.00,0.0818
1165.00,0.0817
1164.00,0.0816
1163.00,0.0815
1162.00,0.0814
1161.00,0.0813
1160.00,0.0811
1159.00,0.0809
1158.00,0.0808
1157.00,0.0808
1156.00,0.0807
1155.00,0.0805
1154.00,0.0804
1153.00,0.0802
1152.00,0.0801
1151.00,0.0799
1150.00,0.0797
1149.00,0.0797
1148.00,0.0796
1147.00,0.0796
1146.00,0.0795
1145.00,0.0795
1144.00,0.0794
1143.00,0.0794
1142.00,0.0793
1141.00,0.0792
1140.00,0.0791
1139.00,0.0790
1138.00,0.0789
1137.00,0.0788
1136.00,0.0788
1135.00,0.0788
1134.00,0.0787
1133.00,0.0787
1132.00,0.0787
1131.00,0.0786
1130.00,0.0785
1129.00,0.0783
1128.00,0.0782
1127.00,0.0781
1126.00,0.0780
1125.00,0.0780
1124.00,0.0780
1123.00,0.0780
1122.00,0.0781
1121.00,0.0781
1120.00,0.0781
1119.00,0.0781
1118.00,0.0781
1117.00,0.0781
1116.00,0.0782
1115.00,0.0781
1114.00,0.0780
1113.00,0.0778
1112.00,0.0778
1111.00,0.0779
1110.00,0.0780
1109.00,0.0781
1108.00,0.0781
1107.00,0.0781
1106.00,0.0781
1105.00,0.0780
1104.00,0.0779
1103.00,0.0779
1102.00,0.0779
1101.00,0.0779
1100.00,0.0779
1099.00,0.0778
1098.00,0.0777
1097.00,0.0776
1096.00,0.0776
1095.00,0.0775
1094.00,0.0775
1093.00,0.0774
1092.00,0.0774
1091.00,0.0775
1090.00,0.0775
1089.00,0.0776
1088.00,0.0775
1087.00,0.0775
1086.00,0.0774
1085.00,0.0773
1084.00,0.0773
1083.00,0.0772
1082.00,0.0771
1081.00,0.0770
1080.00,0.0770
1079.00,0.0770
1078.00,0.0770
1077.00,0.0771
1076.00,0.0771
1075.00,0.0772
1074.00,0.0772
1073.00,0.0771
1072.00,0.0770
1071.00,0.0770
1070.00,0.0770
1069.00,0.0769
1068.00,0.0768
1067.00,0.0768
1066.00,0.0768
1065.00,0.0768
1064.00,0.0769
1063.00,0.0769
1062.00,0.0769
1061.00,0.0769
1060.00,0.0769
1059.00,0.0769
1058.00,0.0768
1057.00,0.0767
1056.00,0.0767
1055.00,0.0767
1054.00,0.0768
1053.00,0.0768
1052.00,0.0769
1051.00,0.0771
1050.00,0.0772
1049.00,0.0772
1048.00,0.0772
1047.00,0.0771
1046.00,0.0770
1045.00,0.0769
1044.00,0.0769
1043.00,0.0769
1042.00,0.0770
1041.00,0.0770
1040.00,0.0770
1039.00,0.0770
1038.00,0.0770
1037.00,0.0770
1036.00,0.0770
1035.00,0.0769
1034.00,0.0769
1033.00,0.0768
1032.00,0.0767
1031.00,0.0766
1030.00,0.0766
1029.00,0.0765
1028.00,0.0764
1027.00,0.0762
1026.00,0.0761
1025.00,0.0759
1024.00,0.0758
1023.00,0.0756
1022.00,0.0755
1021.00,0.0754
1020.00,0.0754
1019.00,0.0754
1018.00,0.0753
1017.00,0.0753
1016.00,0.0753
1015.00,0.0752
1014.00,0.0752
1013.00,0.0751
1012.00,0.0750
1011.00,0.0749
1010.00,0.0748
1009.00,0.0748
1008.00,0.0747
1007.00,0.0746
1006.00,0.0744
1005.00,0.0742
1004.00,0.0741
1003.00,0.0739
1002.00,0.0738
1001.00,0.0737
1000.00,0.0736
999.00,0.0734
998.00,0.0733
997.00,0.0731
996.00,0.0730
995.00,0.0728
994.00,0.0726
993.00,0.0726
992.00,0.0725
991.00,0.0725
990.00,0.0724
989.00,0.0723
988.00,0.0722
987.00,0.0722
986.00,0.0722
985.00,0.0721
984.00,0.0721
983.00,0.0720
982.00,0.0720
981.00,0.0719
980.00,0.0719
979.00,0.0718
978.00,0.0717
977.00,0.0716
976.00,0.0714
975.00,0.0713
974.00,0.0711
973.00,0.0710
972.00,0.0709
971.00,0.0709
970.00,0.0709
969.00,0.0708
968.00,0.0708
967.00,0.0707
966.00,0.0706
965.00,0.0705
964.00,0.0705
963.00,0.0704
962.00,0.0703
961.00,0.0702
960.00,0.0702
959.00,0.0701
958.00,0.0700
957.00,0.0699
956.00,0.0699
955.00,0.0699
954.00,0.0698
953.00,0.0698
952.00,0.0698
951.00,0.0697
950.00,0.0697
949.00,0.0697
948.00,0.0697
947.00,0.0697
946.00,0.0696
945.00,0.0696
944.00,0.0697
943.00,0.0698
942.00,0.0699
941.00,0.0700
940.00,0.0700
939.00,0.0700
938.00,0.0700
937.00,0.0701
936.00,0.0702
935.00,0.0703
934.00,0.0704
933.00,0.0705
932.00,0.0705
931.00,0.0705
930.00,0.0705
929.00,0.0705
928.00,0.0706
927.00,0.0708
926.00,0.0710
925.00,0.0711
924.00,0.0712
923.00,0.0713
922.00,0.0714
921.00,0.0715
920.00,0.0715
919.00,0.0716
918.00,0.0718
917.00,0.0720
916.00,0.0722
915.00,0.0724
914.00,0.0724
913.00,0.0724
912.00,0.0725
911.00,0.0726
910.00,0.0727
909.00,0.0728
908.00,0.0728
907.00,0.0729
906.00,0.0729
905.00,0.0729
904.00,0.0729
903.00,0.0728
902.00,0.0728
901.00,0.0727
900.00,0.0728
899.00,0.0729
898.00,0.0729
897.00,0.0729
896.00,0.0728
895.00,0.0727
894.00,0.0727
893.00,0.0727
892.00,0.0728
891.00,0.0728
890.00,0.0728
889.00,0.0728
888.00,0.0727
887.00,0.0727
886.00,0.0726
885.00,0.0726
884.00,0.0725
883.00,0.0724
882.00,0.0724
881.00,0.0723
880.00,0.0723
879.00,0.0723
878.00,0.0723
877.00,0.0723
876.00,0.0724
875.00,0.0725
874.00,0.0726
873.00,0.0727
872.00,0.0729
871.00,0.0731
870.00,0.0732
869.00,0.0732
868.00,0.0732
867.00,0.0731
866.00,0.0730
865.00,0.0730
864.00,0.0731
863.00,0.0733
862.00,0.0735
861.00,0.0736
860.00,0.0737
859.00,0.0738
858.00,0.0739
857.00,0.0740
856.00,0.0740
855.00,0.0741
854.00,0.0742
853.00,0.0744
852.00,0.0746
851.00,0.0750
850.00,0.0755
849.00,0.0759
848.00,0.0763
847.00,0.0765
846.00,0.0767
845.00,0.0769
844.00,0.0772
843.00,0.0774
842.00,0.0776
841.00,0.0777
840.00,0.0779
839.00,0.0781
838.00,0.0782
837.00,0.0783
836.00,0.0784
835.00,0.0786
834.00,0.0788
833.00,0.0791
832.00,0.0796
831.00,0.0801
830.00,0.0806
829.00,0.0809
828.00,0.0811
827.00,0.0812
826.00,0.0813
825.00,0.0814
824.00,0.0816
823.00,0.0819
822.00,0.0823
821.00,0.0826
820.00,0.0829
819.00,0.0830
818.00,0.0830
817.00,0.0831
816.00,0.0832
815.00,0.0833
814.00,0.0835
813.00,0.0836
812.00,0.0838
811.00,0.0840
810.00,0.0842
809.00,0.0844
808.00,0.0846
807.00,0.0848
806.00,0.0850
805.00,0.0852
804.00,0.0854
803.00,0.0857
802.00,0.0860
801.00,0.0861
800.00,0.0862
799.00,0.0863
798.00,0.0864
797.00,0.0866
796.00,0.0867
795.00,0.0868
794.00,0.0869
793.00,0.0871
792.00,0.0873
791.00,0.0877
790.00,0.0880
789.00,0.0883
788.00,0.0885
787.00,0.0886
786.00,0.0887
785.00,0.0887
784.00,0.0888
783.00,0.0890
782.00,0.0892
781.00,0.0895
780.00,0.0900
779.00,0.0905
778.00,0.0910
777.00,0.0913
776.00,0.0915
775.00,0.0916
774.00,0.0917
773.00,0.0917
772.00,0.0917
771.00,0.0918
770.00,0.0921
769.00,0.0926
768.00,0.0930
767.00,0.0933
766.00,0.0935
765.00,0.0935
764.00,0.0935
763.00,0.0935
762.00,0.0936
761.00,0.0939
760.00,0.0941
759.00,0.0944
758.00,0.0945
757.00,0.0945
756.00,0.0946
755.00,0.0947
754.00,0.0947
753.00,0.0946
752.00,0.0946
751.00,0.0948
750.00,0.0951
749.00,0.0956
748.00,0.0961
747.00,0.0965
746.00,0.0968
745.00,0.0968
744.00,0.0968
743.00,0.0967
742.00,0.0967
741.00,0.0968
740.00,0.0969
739.00,0.0971
738.00,0.0974
737.00,0.0977
736.00,0.0979
735.00,0.0980
734.00,0.0981
733.00,0.0981
732.00,0.0983
731.00,0.0984
730.00,0.0984
729.00,0.0984
728.00,0.0985
727.00,0.0987
726.00,0.0988
725.00,0.0990
724.00,0.0991
723.00,0.0993
722.00,0.0994
721.00,0.0997
720.00,0.0998
719.00,0.1000
718.00,0.1002
717.00,0.1006
716.00,0.1011
715.00,0.1016
714.00,0.1018
713.00,0.1019
712.00,0.1020
711.00,0.1020
710.00,0.1020
709.00,0.1022
708.00,0.1026
707.00,0.1029
706.00,0.1032
705.00,0.1033
704.00,0.1034
703.00,0.1036
702.00,0.1038
701.00,0.1040
700.00,0.1042
699.00,0.1042
698.00,0.1043
697.00,0.1044
696.00,0.1045
695.00,0.1046
694.00,0.1046
693.00,0.1045
692.00,0.1045
691.00,0.1045
690.00,0.1048
689.00,0.1053
688.00,0.1061
687.00,0.1067
686.00,0.1073
685.00,0.1078
684.00,0.1081
683.00,0.1081
682.00,0.1079
681.00,0.1077
680.00,0.1077
679.00,0.1077
678.00,0.1078
677.00,0.1081
676.00,0.1084
675.00,0.1088
674.00,0.1090
673.00,0.1091
672.00,0.1092
671.00,0.1090
670.00,0.1087
669.00,0.1087
668.00,0.1094
667.00,0.1101
666.00,0.1105
665.00,0.1104
664.00,0.1100
663.00,0.1099
662.00,0.1099
661.00,0.1101
660.00,0.1102
659.00,0.1104
658.00,0.1105
657.00,0.1107
656.00,0.1111
655.00,0.1116
654.00,0.1119
653.00,0.1122
652.00,0.1127
651.00,0.1129
650.00,0.1127
