Created as New Dataset,Monday, April 03 2023
cm-1,A
4000.00,0.0284
3999.00,0.0284
3998.00,0.0284
3997.00,0.0284
3996.00,0.0284
3995.00,0.0284
3994.00,0.0284
3993.00,0.0283
3992.00,0.0283
3991.00,0.0283
3990.00,0.0283
3989.00,0.0283
3988.00,0.0283
3987.00,0.0283
3986.00,0.0283
3985.00,0.0283
3984.00,0.0283
3983.00,0.0283
3982.00,0.0283
3981.00,0.0283
3980.00,0.0284
3979.00,0.0284
3978.00,0.0284
3977.00,0.0284
3976.00,0.0283
3975.00,0.0283
3974.00,0.0283
3973.00,0.0283
3972.00,0.0283
3971.00,0.0283
3970.00,0.0283
3969.00,0.0283
3968.00,0.0283
3967.00,0.0283
3966.00,0.0283
3965.00,0.0284
3964.00,0.0284
3963.00,0.0284
3962.00,0.0284
3961.00,0.0284
3960.00,0.0284
3959.00,0.0284
3958.00,0.0284
3957.00,0.0284
3956.00,0.0283
3955.00,0.0283
3954.00,0.0283
3953.00,0.0283
3952.00,0.0283
3951.00,0.0283
3950.00,0.0283
3949.00,0.0283
3948.00,0.0283
3947.00,0.0283
3946.00,0.0284
3945.00,0.0284
3944.00,0.0283
3943.00,0.0282
3942.00,0.0282
3941.00,0.0282
3940.00,0.0282
3939.00,0.0283
3938.00,0.0283
3937.00,0.0283
3936.00,0.0284
3935.00,0.0284
3934.00,0.0284
3933.00,0.0285
3932.00,0.0284
3931.00,0.0284
3930.00,0.0283
3929.00,0.0283
3928.00,0.0283
3927.00,0.0283
3926.00,0.0282
3925.00,0.0282
3924.00,0.0282
3923.00,0.0282
3922.00,0.0282
3921.00,0.0282
3920.00,0.0282
3919.00,0.0283
3918.00,0.0283
3917.00,0.0284
3916.00,0.0283
3915.00,0.0283
3914.00,0.0283
3913.00,0.0283
3912.00,0.0283
3911.00,0.0283
3910.00,0.0283
3909.00,0.0283
3908.00,0.0283
3907.00,0.0282
3906.00,0.0282
3905.00,0.0282
3904.00,0.0282
3903.00,0.0284
3902.00,0.0285
3901.00,0.0285
3900.00,0.0284
3899.00,0.0283
3898.00,0.0282
3897.00,0.0283
3896.00,0.0284
3895.00,0.0284
3894.00,0.0284
3893.00,0.0284
3892.00,0.0283
3891.00,0.0282
3890.00,0.0282
3889.00,0.0283
3888.00,0.0284
3887.00,0.0283
3886.00,0.0283
3885.00,0.0283
3884.00,0.0284
3883.00,0.0285
3882.00,0.0284
3881.00,0.0282
3880.00,0.0281
3879.00,0.0282
3878.00,0.0284
3877.00,0.0284
3876.00,0.0284
3875.00,0.0282
3874.00,0.0282
3873.00,0.0283
3872.00,0.0284
3871.00,0.0284
3870.00,0.0283
3869.00,0.0283
3868.00,0.0285
3867.00,0.0286
3866.00,0.0286
3865.00,0.0285
3864.00,0.0284
3863.00,0.0283
3862.00,0.0283
3861.00,0.0284
3860.00,0.0284
3859.00,0.0284
3858.00,0.0283
3857.00,0.0282
3856.00,0.0282
3855.00,0.0284
3854.00,0.0286
3853.00,0.0284
3852.00,0.0282
3851.00,0.0282
3850.00,0.0283
3849.00,0.0284
3848.00,0.0285
3847.00,0.0285
3846.00,0.0285
3845.00,0.0284
3844.00,0.0284
3843.00,0.0284
3842.00,0.0284
3841.00,0.0285
3840.00,0.0286
3839.00,0.0286
3838.00,0.0285
3837.00,0.0284
3836.00,0.0283
3835.00,0.0283
3834.00,0.0283
3833.00,0.0283
3832.00,0.0284
3831.00,0.0285
3830.00,0.0286
3829.00,0.0287
3828.00,0.0286
3827.00,0.0285
3826.00,0.0284
3825.00,0.0284
3824.00,0.0285
3823.00,0.0286
3822.00,0.0287
3821.00,0.0286
3820.00,0.0286
3819.00,0.0287
3818.00,0.0287
3817.00,0.0285
3816.00,0.0283
3815.00,0.0283
3814.00,0.0283
3813.00,0.0284
3812.00,0.0284
3811.00,0.0283
3810.00,0.0283
3809.00,0.0284
3808.00,0.0285
3807.00,0.0285
3806.00,0.0285
3805.00,0.0286
3804.00,0.0287
3803.00,0.0286
3802.00,0.0285
3801.00,0.0285
3800.00,0.0285
3799.00,0.0285
3798.00,0.0285
3797.00,0.0284
3796.00,0.0283
3795.00,0.0284
3794.00,0.0285
3793.00,0.0285
3792.00,0.0284
3791.00,0.0284
3790.00,0.0285
3789.00,0.0285
3788.00,0.0285
3787.00,0.0285
3786.00,0.0285
3785.00,0.0284
3784.00,0.0284
3783.00,0.0284
3782.00,0.0284
3781.00,0.0283
3780.00,0.0283
3779.00,0.0283
3778.00,0.0283
3777.00,0.0284
3776.00,0.0284
3775.00,0.0284
3774.00,0.0284
3773.00,0.0284
3772.00,0.0285
3771.00,0.0285
3770.00,0.0285
3769.00,0.0285
3768.00,0.0285
3767.00,0.0285
3766.00,0.0284
3765.00,0.0284
3764.00,0.0285
3763.00,0.0286
3762.00,0.0286
3761.00,0.0286
3760.00,0.0285
3759.00,0.0285
3758.00,0.0285
3757.00,0.0285
3756.00,0.0285
3755.00,0.0285
3754.00,0.0285
3753.00,0.0286
3752.00,0.0288
3751.00,0.0290
3750.00,0.0289
3749.00,0.0288
3748.00,0.0288
3747.00,0.0287
3746.00,0.0285
3745.00,0.0284
3744.00,0.0283
3743.00,0.0283
3742.00,0.0285
3741.00,0.0286
3740.00,0.0286
3739.00,0.0285
3738.00,0.0285
3737.00,0.0285
3736.00,0.0285
3735.00,0.0285
3734.00,0.0284
3733.00,0.0284
3732.00,0.0283
3731.00,0.0284
3730.00,0.0284
3729.00,0.0285
3728.00,0.0285
3727.00,0.0284
3726.00,0.0284
3725.00,0.0285
3724.00,0.0285
3723.00,0.0284
3722.00,0.0284
3721.00,0.0284
3720.00,0.0284
3719.00,0.0284
3718.00,0.0284
3717.00,0.0284
3716.00,0.0284
3715.00,0.0284
3714.00,0.0283
3713.00,0.0283
3712.00,0.0284
3711.00,0.0283
3710.00,0.0282
3709.00,0.0282
3708.00,0.0283
3707.00,0.0283
3706.00,0.0283
3705.00,0.0283
3704.00,0.0283
3703.00,0.0282
3702.00,0.0282
3701.00,0.0283
3700.00,0.0283
3699.00,0.0284
3698.00,0.0285
3697.00,0.0284
3696.00,0.0284
3695.00,0.0284
3694.00,0.0284
3693.00,0.0283
3692.00,0.0283
3691.00,0.0285
3690.00,0.0286
3689.00,0.0286
3688.00,0.0285
3687.00,0.0285
3686.00,0.0285
3685.00,0.0286
3684.00,0.0286
3683.00,0.0285
3682.00,0.0285
3681.00,0.0284
3680.00,0.0282
3679.00,0.0281
3678.00,0.0281
3677.00,0.0283
3676.00,0.0283
3675.00,0.0283
3674.00,0.0284
3673.00,0.0286
3672.00,0.0286
3671.00,0.0285
3670.00,0.0282
3669.00,0.0281
3668.00,0.0281
3667.00,0.0282
3666.00,0.0282
3665.00,0.0283
3664.00,0.0283
3663.00,0.0284
3662.00,0.0284
3661.00,0.0284
3660.00,0.0283
3659.00,0.0283
3658.00,0.0284
3657.00,0.0284
3656.00,0.0284
3655.00,0.0283
3654.00,0.0283
3653.00,0.0282
3652.00,0.0281
3651.00,0.0282
3650.00,0.0285
3649.00,0.0286
3648.00,0.0283
3647.00,0.0282
3646.00,0.0282
3645.00,0.0284
3644.00,0.0285
3643.00,0.0285
3642.00,0.0285
3641.00,0.0285
3640.00,0.0285
3639.00,0.0285
3638.00,0.0285
3637.00,0.0284
3636.00,0.0285
3635.00,0.0285
3634.00,0.0285
3633.00,0.0284
3632.00,0.0284
3631.00,0.0285
3630.00,0.0286
3629.00,0.0287
3628.00,0.0287
3627.00,0.0287
3626.00,0.0288
3625.00,0.0288
3624.00,0.0288
3623.00,0.0288
3622.00,0.0288
3621.00,0.0288
3620.00,0.0289
3619.00,0.0289
3618.00,0.0289
3617.00,0.0290
3616.00,0.0290
3615.00,0.0290
3614.00,0.0289
3613.00,0.0288
3612.00,0.0288
3611.00,0.0289
3610.00,0.0289
3609.00,0.0289
3608.00,0.0289
3607.00,0.0289
3606.00,0.0289
3605.00,0.0290
3604.00,0.0290
3603.00,0.0290
3602.00,0.0290
3601.00,0.0290
3600.00,0.0290
3599.00,0.0289
3598.00,0.0289
3597.00,0.0289
3596.00,0.0289
3595.00,0.0289
3594.00,0.0290
3593.00,0.0291
3592.00,0.0291
3591.00,0.0291
3590.00,0.0291
3589.00,0.0291
3588.00,0.0291
3587.00,0.0290
3586.00,0.0289
3585.00,0.0290
3584.00,0.0291
3583.00,0.0291
3582.00,0.0291
3581.00,0.0291
3580.00,0.0291
3579.00,0.0291
3578.00,0.0291
3577.00,0.0291
3576.00,0.0291
3575.00,0.0291
3574.00,0.0291
3573.00,0.0291
3572.00,0.0291
3571.00,0.0290
3570.00,0.0290
3569.00,0.0290
3568.00,0.0292
3567.00,0.0293
3566.00,0.0293
3565.00,0.0293
3564.00,0.0293
3563.00,0.0293
3562.00,0.0293
3561.00,0.0292
3560.00,0.0292
3559.00,0.0292
3558.00,0.0293
3557.00,0.0293
3556.00,0.0293
3555.00,0.0293
3554.00,0.0294
3553.00,0.0294
3552.00,0.0294
3551.00,0.0294
3550.00,0.0295
3549.00,0.0295
3548.00,0.0295
3547.00,0.0296
3546.00,0.0297
3545.00,0.0297
3544.00,0.0297
3543.00,0.0297
3542.00,0.0296
3541.00,0.0296
3540.00,0.0295
3539.00,0.0295
3538.00,0.0295
3537.00,0.0295
3536.00,0.0295
3535.00,0.0296
3534.00,0.0296
3533.00,0.0296
3532.00,0.0296
3531.00,0.0297
3530.00,0.0297
3529.00,0.0297
3528.00,0.0298
3527.00,0.0298
3526.00,0.0298
3525.00,0.0298
3524.00,0.0298
3523.00,0.0297
3522.00,0.0297
3521.00,0.0297
3520.00,0.0297
3519.00,0.0297
3518.00,0.0297
3517.00,0.0298
3516.00,0.0298
3515.00,0.0298
3514.00,0.0297
3513.00,0.0297
3512.00,0.0297
3511.00,0.0298
3510.00,0.0298
3509.00,0.0298
3508.00,0.0298
3507.00,0.0298
3506.00,0.0299
3505.00,0.0299
3504.00,0.0299
3503.00,0.0300
3502.00,0.0300
3501.00,0.0299
3500.00,0.0299
3499.00,0.0299
3498.00,0.0300
3497.00,0.0300
3496.00,0.0300
3495.00,0.0301
3494.00,0.0301
3493.00,0.0301
3492.00,0.0301
3491.00,0.0301
3490.00,0.0301
3489.00,0.0301
3488.00,0.0301
3487.00,0.0301
3486.00,0.0301
3485.00,0.0301
3484.00,0.0300
3483.00,0.0300
3482.00,0.0301
3481.00,0.0301
3480.00,0.0301
3479.00,0.0301
3478.00,0.0301
3477.00,0.0301
3476.00,0.0301
3475.00,0.0301
3474.00,0.0302
3473.00,0.0302
3472.00,0.0302
3471.00,0.0302
3470.00,0.0302
3469.00,0.0302
3468.00,0.0302
3467.00,0.0302
3466.00,0.0303
3465.00,0.0303
3464.00,0.0303
3463.00,0.0303
3462.00,0.0303
3461.00,0.0303
3460.00,0.0303
3459.00,0.0303
3458.00,0.0302
3457.00,0.0302
3456.00,0.0302
3455.00,0.0302
3454.00,0.0302
3453.00,0.0303
3452.00,0.0303
3451.00,0.0304
3450.00,0.0304
3449.00,0.0305
3448.00,0.0305
3447.00,0.0304
3446.00,0.0304
3445.00,0.0304
3444.00,0.0304
3443.00,0.0305
3442.00,0.0305
3441.00,0.0305
3440.00,0.0305
3439.00,0.0305
3438.00,0.0306
3437.00,0.0306
3436.00,0.0306
3435.00,0.0306
3434.00,0.0306
3433.00,0.0306
3432.00,0.0306
3431.00,0.0307
3430.00,0.0307
3429.00,0.0307
3428.00,0.0307
3427.00,0.0306
3426.00,0.0307
3425.00,0.0307
3424.00,0.0307
3423.00,0.0307
3422.00,0.0307
3421.00,0.0306
3420.00,0.0306
3419.00,0.0307
3418.00,0.0307
3417.00,0.0307
3416.00,0.0307
3415.00,0.0307
3414.00,0.0307
3413.00,0.0307
3412.00,0.0307
3411.00,0.0306
3410.00,0.0306
3409.00,0.0306
3408.00,0.0306
3407.00,0.0306
3406.00,0.0307
3405.00,0.0307
3404.00,0.0308
3403.00,0.0308
3402.00,0.0308
3401.00,0.0308
3400.00,0.0308
3399.00,0.0308
3398.00,0.0307
3397.00,0.0308
3396.00,0.0308
3395.00,0.0308
3394.00,0.0309
3393.00,0.0309
3392.00,0.0309
3391.00,0.0309
3390.00,0.0309
3389.00,0.0309
3388.00,0.0309
3387.00,0.0309
3386.00,0.0309
3385.00,0.0309
3384.00,0.0309
3383.00,0.0309
3382.00,0.0309
3381.00,0.0309
3380.00,0.0310
3379.00,0.0310
3378.00,0.0311
3377.00,0.0311
3376.00,0.0311
3375.00,0.0311
3374.00,0.0311
3373.00,0.0311
3372.00,0.0310
3371.00,0.0310
3370.00,0.0310
3369.00,0.0310
3368.00,0.0311
3367.00,0.0311
3366.00,0.0311
3365.00,0.0311
3364.00,0.0312
3363.00,0.0311
3362.00,0.0311
3361.00,0.0311
3360.00,0.0311
3359.00,0.0312
3358.00,0.0312
3357.00,0.0312
3356.00,0.0312
3355.00,0.0312
3354.00,0.0312
3353.00,0.0312
3352.00,0.0312
3351.00,0.0313
3350.00,0.0313
3349.00,0.0313
3348.00,0.0313
3347.00,0.0313
3346.00,0.0313
3345.00,0.0313
3344.00,0.0313
3343.00,0.0313
3342.00,0.0313
3341.00,0.0313
3340.00,0.0313
3339.00,0.0313
3338.00,0.0313
3337.00,0.0313
3336.00,0.0313
3335.00,0.0314
3334.00,0.0314
3333.00,0.0314
3332.00,0.0314
3331.00,0.0314
3330.00,0.0313
3329.00,0.0313
3328.00,0.0313
3327.00,0.0314
3326.00,0.0314
3325.00,0.0314
3324.00,0.0314
3323.00,0.0314
3322.00,0.0314
3321.00,0.0314
3320.00,0.0314
3319.00,0.0315
3318.00,0.0315
3317.00,0.0315
3316.00,0.0315
3315.00,0.0315
3314.00,0.0315
3313.00,0.0315
3312.00,0.0315
3311.00,0.0315
3310.00,0.0316
3309.00,0.0316
3308.00,0.0316
3307.00,0.0316
3306.00,0.0316
3305.00,0.0316
3304.00,0.0316
3303.00,0.0316
3302.00,0.0316
3301.00,0.0316
3300.00,0.0317
3299.00,0.0317
3298.00,0.0317
3297.00,0.0317
3296.00,0.0317
3295.00,0.0317
3294.00,0.0317
3293.00,0.0318
3292.00,0.0318
3291.00,0.0318
3290.00,0.0318
3289.00,0.0318
3288.00,0.0318
3287.00,0.0318
3286.00,0.0317
3285.00,0.0317
3284.00,0.0317
3283.00,0.0317
3282.00,0.0317
3281.00,0.0317
3280.00,0.0317
3279.00,0.0317
3278.00,0.0317
3277.00,0.0318
3276.00,0.0318
3275.00,0.0318
3274.00,0.0318
3273.00,0.0318
3272.00,0.0318
3271.00,0.0318
3270.00,0.0318
3269.00,0.0318
3268.00,0.0318
3267.00,0.0318
3266.00,0.0318
3265.00,0.0318
3264.00,0.0317
3263.00,0.0317
3262.00,0.0317
3261.00,0.0317
3260.00,0.0317
3259.00,0.0317
3258.00,0.0317
3257.00,0.0318
3256.00,0.0318
3255.00,0.0318
3254.00,0.0318
3253.00,0.0318
3252.00,0.0318
3251.00,0.0318
3250.00,0.0318
3249.00,0.0319
3248.00,0.0319
3247.00,0.0319
3246.00,0.0320
3245.00,0.0319
3244.00,0.0319
3243.00,0.0319
3242.00,0.0319
3241.00,0.0319
3240.00,0.0319
3239.00,0.0319
3238.00,0.0320
3237.00,0.0320
3236.00,0.0320
3235.00,0.0320
3234.00,0.0319
3233.00,0.0319
3232.00,0.0320
3231.00,0.0320
3230.00,0.0320
3229.00,0.0321
3228.00,0.0321
3227.00,0.0320
3226.00,0.0320
3225.00,0.0319
3224.00,0.0319
3223.00,0.0319
3222.00,0.0319
3221.00,0.0319
3220.00,0.0320
3219.00,0.0320
3218.00,0.0320
3217.00,0.0320
3216.00,0.0320
3215.00,0.0320
3214.00,0.0320
3213.00,0.0320
3212.00,0.0320
3211.00,0.0320
3210.00,0.0319
3209.00,0.0319
3208.00,0.0319
3207.00,0.0319
3206.00,0.0320
3205.00,0.0320
3204.00,0.0320
3203.00,0.0320
3202.00,0.0320
3201.00,0.0320
3200.00,0.0319
3199.00,0.0319
3198.00,0.0319
3197.00,0.0319
3196.00,0.0319
3195.00,0.0319
3194.00,0.0320
3193.00,0.0320
3192.00,0.0320
3191.00,0.0319
3190.00,0.0319
3189.00,0.0320
3188.00,0.0320
3187.00,0.0320
3186.00,0.0320
3185.00,0.0320
3184.00,0.0319
3183.00,0.0319
3182.00,0.0319
3181.00,0.0319
3180.00,0.0319
3179.00,0.0319
3178.00,0.0319
3177.00,0.0319
3176.00,0.0319
3175.00,0.0319
3174.00,0.0319
3173.00,0.0319
3172.00,0.0319
3171.00,0.0320
3170.00,0.0320
3169.00,0.0320
3168.00,0.0320
3167.00,0.0320
3166.00,0.0320
3165.00,0.0319
3164.00,0.0319
3163.00,0.0319
3162.00,0.0319
3161.00,0.0319
3160.00,0.0319
3159.00,0.0319
3158.00,0.0318
3157.00,0.0318
3156.00,0.0318
3155.00,0.0318
3154.00,0.0318
3153.00,0.0318
3152.00,0.0318
3151.00,0.0318
3150.00,0.0318
3149.00,0.0318
3148.00,0.0318
3147.00,0.0318
3146.00,0.0318
3145.00,0.0318
3144.00,0.0317
3143.00,0.0317
3142.00,0.0317
3141.00,0.0317
3140.00,0.0318
3139.00,0.0318
3138.00,0.0318
3137.00,0.0318
3136.00,0.0318
3135.00,0.0318
3134.00,0.0317
3133.00,0.0317
3132.00,0.0317
3131.00,0.0318
3130.00,0.0318
3129.00,0.0318
3128.00,0.0318
3127.00,0.0318
3126.00,0.0317
3125.00,0.0317
3124.00,0.0317
3123.00,0.0317
3122.00,0.0317
3121.00,0.0317
3120.00,0.0317
3119.00,0.0317
3118.00,0.0317
3117.00,0.0317
3116.00,0.0317
3115.00,0.0317
3114.00,0.0317
3113.00,0.0317
3112.00,0.0317
3111.00,0.0317
3110.00,0.0317
3109.00,0.0317
3108.00,0.0317
3107.00,0.0317
3106.00,0.0316
3105.00,0.0316
3104.00,0.0316
3103.00,0.0316
3102.00,0.0317
3101.00,0.0317
3100.00,0.0317
3099.00,0.0316
3098.00,0.0316
3097.00,0.0316
3096.00,0.0316
3095.00,0.0316
3094.00,0.0316
3093.00,0.0316
3092.00,0.0316
3091.00,0.0316
3090.00,0.0316
3089.00,0.0316
3088.00,0.0316
3087.00,0.0316
3086.00,0.0316
3085.00,0.0316
3084.00,0.0316
3083.00,0.0316
3082.00,0.0316
3081.00,0.0316
3080.00,0.0316
3079.00,0.0316
3078.00,0.0316
3077.00,0.0316
3076.00,0.0315
3075.00,0.0315
3074.00,0.0315
3073.00,0.0314
3072.00,0.0314
3071.00,0.0314
3070.00,0.0314
3069.00,0.0315
3068.00,0.0315
3067.00,0.0315
3066.00,0.0315
3065.00,0.0315
3064.00,0.0315
3063.00,0.0315
3062.00,0.0315
3061.00,0.0314
3060.00,0.0314
3059.00,0.0314
3058.00,0.0315
3057.00,0.0315
3056.00,0.0314
3055.00,0.0314
3054.00,0.0314
3053.00,0.0314
3052.00,0.0314
3051.00,0.0314
3050.00,0.0314
3049.00,0.0314
3048.00,0.0314
3047.00,0.0314
3046.00,0.0314
3045.00,0.0314
3044.00,0.0314
3043.00,0.0314
3042.00,0.0314
3041.00,0.0313
3040.00,0.0313
3039.00,0.0313
3038.00,0.0313
3037.00,0.0313
3036.00,0.0313
3035.00,0.0313
3034.00,0.0313
3033.00,0.0312
3032.00,0.0312
3031.00,0.0312
3030.00,0.0311
3029.00,0.0311
3028.00,0.0311
3027.00,0.0311
3026.00,0.0311
3025.00,0.0311
3024.00,0.0311
3023.00,0.0311
3022.00,0.0311
3021.00,0.0311
3020.00,0.0310
3019.00,0.0310
3018.00,0.0310
3017.00,0.0310
3016.00,0.0310
3015.00,0.0310
3014.00,0.0310
3013.00,0.0310
3012.00,0.0310
3011.00,0.0309
3010.00,0.0309
3009.00,0.0308
3008.00,0.0307
3007.00,0.0307
3006.00,0.0307
3005.00,0.0307
3004.00,0.0307
3003.00,0.0306
3002.00,0.0306
3001.00,0.0305
3000.00,0.0304
2999.00,0.0304
2998.00,0.0303
2997.00,0.0303
2996.00,0.0303
2995.00,0.0303
2994.00,0.0303
2993.00,0.0303
2992.00,0.0302
2991.00,0.0302
2990.00,0.0301
2989.00,0.0301
2988.00,0.0300
2987.00,0.0299
2986.00,0.0299
2985.00,0.0298
2984.00,0.0297
2983.00,0.0296
2982.00,0.0295
2981.00,0.0294
2980.00,0.0294
2979.00,0.0295
2978.00,0.0295
2977.00,0.0295
2976.00,0.0296
2975.00,0.0296
2974.00,0.0295
2973.00,0.0295
2972.00,0.0294
2971.00,0.0293
2970.00,0.0293
2969.00,0.0294
2968.00,0.0294
2967.00,0.0294
2966.00,0.0294
2965.00,0.0294
2964.00,0.0293
2963.00,0.0293
2962.00,0.0293
2961.00,0.0292
2960.00,0.0292
2959.00,0.0292
2958.00,0.0292
2957.00,0.0292
2956.00,0.0292
2955.00,0.0292
2954.00,0.0292
2953.00,0.0292
2952.00,0.0293
2951.00,0.0293
2950.00,0.0293
2949.00,0.0293
2948.00,0.0293
2947.00,0.0293
2946.00,0.0293
2945.00,0.0293
2944.00,0.0293
2943.00,0.0293
2942.00,0.0292
2941.00,0.0291
2940.00,0.0291
2939.00,0.0290
2938.00,0.0289
2937.00,0.0288
2936.00,0.0287
2935.00,0.0285
2934.00,0.0284
2933.00,0.0284
2932.00,0.0283
2931.00,0.0282
2930.00,0.0280
2929.00,0.0279
2928.00,0.0279
2927.00,0.0278
2926.00,0.0278
2925.00,0.0277
2924.00,0.0278
2923.00,0.0278
2922.00,0.0278
2921.00,0.0278
2920.00,0.0278
2919.00,0.0278
2918.00,0.0278
2917.00,0.0279
2916.00,0.0279
2915.00,0.0281
2914.00,0.0283
2913.00,0.0284
2912.00,0.0286
2911.00,0.0286
2910.00,0.0287
2909.00,0.0287
2908.00,0.0288
2907.00,0.0289
2906.00,0.0289
2905.00,0.0290
2904.00,0.0290
2903.00,0.0290
2902.00,0.0291
2901.00,0.0291
2900.00,0.0292
2899.00,0.0292
2898.00,0.0292
2897.00,0.0292
2896.00,0.0292
2895.00,0.0293
2894.00,0.0293
2893.00,0.0293
2892.00,0.0293
2891.00,0.0293
2890.00,0.0293
2889.00,0.0293
2888.00,0.0293
2887.00,0.0293
2886.00,0.0293
2885.00,0.0293
2884.00,0.0293
2883.00,0.0293
2882.00,0.0294
2881.00,0.0294
2880.00,0.0294
2879.00,0.0294
2878.00,0.0294
2877.00,0.0294
2876.00,0.0294
2875.00,0.0294
2874.00,0.0294
2873.00,0.0293
2872.00,0.0293
2871.00,0.0293
2870.00,0.0292
2869.00,0.0292
2868.00,0.0291
2867.00,0.0291
2866.00,0.0290
2865.00,0.0290
2864.00,0.0290
2863.00,0.0290
2862.00,0.0290
2861.00,0.0289
2860.00,0.0289
2859.00,0.0288
2858.00,0.0287
2857.00,0.0286
2856.00,0.0286
2855.00,0.0285
2854.00,0.0285
2853.00,0.0285
2852.00,0.0285
2851.00,0.0286
2850.00,0.0286
2849.00,0.0287
2848.00,0.0288
2847.00,0.0289
2846.00,0.0291
2845.00,0.0292
2844.00,0.0293
2843.00,0.0293
2842.00,0.0294
2841.00,0.0294
2840.00,0.0295
2839.00,0.0295
2838.00,0.0295
2837.00,0.0295
2836.00,0.0295
2835.00,0.0295
2834.00,0.0295
2833.00,0.0295
2832.00,0.0295
2831.00,0.0295
2830.00,0.0295
2829.00,0.0295
2828.00,0.0296
2827.00,0.0296
2826.00,0.0296
2825.00,0.0296
2824.00,0.0296
2823.00,0.0296
2822.00,0.0296
2821.00,0.0296
2820.00,0.0296
2819.00,0.0296
2818.00,0.0296
2817.00,0.0296
2816.00,0.0296
2815.00,0.0296
2814.00,0.0296
2813.00,0.0296
2812.00,0.0296
2811.00,0.0296
2810.00,0.0296
2809.00,0.0296
2808.00,0.0295
2807.00,0.0295
2806.00,0.0295
2805.00,0.0294
2804.00,0.0295
2803.00,0.0295
2802.00,0.0295
2801.00,0.0295
2800.00,0.0295
2799.00,0.0295
2798.00,0.0295
2797.00,0.0295
2796.00,0.0295
2795.00,0.0295
2794.00,0.0295
2793.00,0.0295
2792.00,0.0294
2791.00,0.0294
2790.00,0.0294
2789.00,0.0294
2788.00,0.0294
2787.00,0.0294
2786.00,0.0294
2785.00,0.0294
2784.00,0.0294
2783.00,0.0294
2782.00,0.0294
2781.00,0.0294
2780.00,0.0294
2779.00,0.0294
2778.00,0.0294
2777.00,0.0294
2776.00,0.0294
2775.00,0.0294
2774.00,0.0294
2773.00,0.0293
2772.00,0.0293
2771.00,0.0293
2770.00,0.0293
2769.00,0.0293
2768.00,0.0293
2767.00,0.0293
2766.00,0.0293
2765.00,0.0293
2764.00,0.0293
2763.00,0.0293
2762.00,0.0292
2761.00,0.0292
2760.00,0.0292
2759.00,0.0292
2758.00,0.0292
2757.00,0.0292
2756.00,0.0292
2755.00,0.0293
2754.00,0.0293
2753.00,0.0293
2752.00,0.0292
2751.00,0.0292
2750.00,0.0292
2749.00,0.0292
2748.00,0.0292
2747.00,0.0292
2746.00,0.0292
2745.00,0.0292
2744.00,0.0291
2743.00,0.0291
2742.00,0.0291
2741.00,0.0291
2740.00,0.0292
2739.00,0.0292
2738.00,0.0292
2737.00,0.0292
2736.00,0.0291
2735.00,0.0291
2734.00,0.0291
2733.00,0.0291
2732.00,0.0291
2731.00,0.0291
2730.00,0.0291
2729.00,0.0291
2728.00,0.0291
2727.00,0.0291
2726.00,0.0291
2725.00,0.0291
2724.00,0.0291
2723.00,0.0291
2722.00,0.0291
2721.00,0.0291
2720.00,0.0291
2719.00,0.0291
2718.00,0.0291
2717.00,0.0291
2716.00,0.0291
2715.00,0.0291
2714.00,0.0291
2713.00,0.0291
2712.00,0.0290
2711.00,0.0290
2710.00,0.0290
2709.00,0.0290
2708.00,0.0290
2707.00,0.0290
2706.00,0.0290
2705.00,0.0290
2704.00,0.0290
2703.00,0.0290
2702.00,0.0290
2701.00,0.0290
2700.00,0.0290
2699.00,0.0290
2698.00,0.0290
2697.00,0.0290
2696.00,0.0290
2695.00,0.0290
2694.00,0.0290
2693.00,0.0290
2692.00,0.0290
2691.00,0.0290
2690.00,0.0290
2689.00,0.0290
2688.00,0.0289
2687.00,0.0289
2686.00,0.0289
2685.00,0.0289
2684.00,0.0289
2683.00,0.0289
2682.00,0.0289
2681.00,0.0289
2680.00,0.0289
2679.00,0.0289
2678.00,0.0289
2677.00,0.0289
2676.00,0.0289
2675.00,0.0289
2674.00,0.0289
2673.00,0.0289
2672.00,0.0289
2671.00,0.0289
2670.00,0.0289
2669.00,0.0289
2668.00,0.0289
2667.00,0.0289
2666.00,0.0289
2665.00,0.0289
2664.00,0.0290
2663.00,0.0290
2662.00,0.0290
2661.00,0.0290
2660.00,0.0290
2659.00,0.0290
2658.00,0.0290
2657.00,0.0291
2656.00,0.0291
2655.00,0.0292
2654.00,0.0292
2653.00,0.0292
2652.00,0.0292
2651.00,0.0291
2650.00,0.0291
2649.00,0.0291
2648.00,0.0291
2647.00,0.0291
2646.00,0.0291
2645.00,0.0291
2644.00,0.0291
2643.00,0.0291
2642.00,0.0291
2641.00,0.0291
2640.00,0.0291
2639.00,0.0291
2638.00,0.0291
2637.00,0.0291
2636.00,0.0291
2635.00,0.0291
2634.00,0.0291
2633.00,0.0291
2632.00,0.0291
2631.00,0.0291
2630.00,0.0291
2629.00,0.0291
2628.00,0.0291
2627.00,0.0291
2626.00,0.0291
2625.00,0.0291
2624.00,0.0291
2623.00,0.0291
2622.00,0.0291
2621.00,0.0291
2620.00,0.0291
2619.00,0.0291
2618.00,0.0291
2617.00,0.0291
2616.00,0.0291
2615.00,0.0291
2614.00,0.0291
2613.00,0.0291
2612.00,0.0291
2611.00,0.0291
2610.00,0.0291
2609.00,0.0291
2608.00,0.0292
2607.00,0.0292
2606.00,0.0292
2605.00,0.0292
2604.00,0.0292
2603.00,0.0292
2602.00,0.0291
2601.00,0.0291
2600.00,0.0291
2599.00,0.0291
2598.00,0.0291
2597.00,0.0291
2596.00,0.0291
2595.00,0.0290
2594.00,0.0291
2593.00,0.0291
2592.00,0.0291
2591.00,0.0291
2590.00,0.0291
2589.00,0.0291
2588.00,0.0291
2587.00,0.0291
2586.00,0.0291
2585.00,0.0291
2584.00,0.0291
2583.00,0.0292
2582.00,0.0292
2581.00,0.0292
2580.00,0.0292
2579.00,0.0292
2578.00,0.0291
2577.00,0.0291
2576.00,0.0290
2575.00,0.0290
2574.00,0.0290
2573.00,0.0291
2572.00,0.0290
2571.00,0.0290
2570.00,0.0291
2569.00,0.0291
2568.00,0.0291
2567.00,0.0291
2566.00,0.0292
2565.00,0.0292
2564.00,0.0292
2563.00,0.0292
2562.00,0.0292
2561.00,0.0291
2560.00,0.0291
2559.00,0.0290
2558.00,0.0290
2557.00,0.0290
2556.00,0.0290
2555.00,0.0291
2554.00,0.0291
2553.00,0.0291
2552.00,0.0291
2551.00,0.0291
2550.00,0.0291
2549.00,0.0291
2548.00,0.0290
2547.00,0.0290
2546.00,0.0290
2545.00,0.0290
2544.00,0.0290
2543.00,0.0291
2542.00,0.0291
2541.00,0.0291
2540.00,0.0291
2539.00,0.0291
2538.00,0.0291
2537.00,0.0290
2536.00,0.0290
2535.00,0.0289
2534.00,0.0288
2533.00,0.0288
2532.00,0.0288
2531.00,0.0289
2530.00,0.0289
2529.00,0.0290
2528.00,0.0290
2527.00,0.0290
2526.00,0.0290
2525.00,0.0290
2524.00,0.0290
2523.00,0.0290
2522.00,0.0290
2521.00,0.0290
2520.00,0.0289
2519.00,0.0289
2518.00,0.0289
2517.00,0.0289
2516.00,0.0289
2515.00,0.0290
2514.00,0.0290
2513.00,0.0290
2512.00,0.0290
2511.00,0.0290
2510.00,0.0289
2509.00,0.0288
2508.00,0.0287
2507.00,0.0288
2506.00,0.0288
2505.00,0.0289
2504.00,0.0289
2503.00,0.0289
2502.00,0.0289
2501.00,0.0289
2500.00,0.0289
2499.00,0.0289
2498.00,0.0289
2497.00,0.0290
2496.00,0.0290
2495.00,0.0290
2494.00,0.0290
2493.00,0.0290
2492.00,0.0290
2491.00,0.0290
2490.00,0.0290
2489.00,0.0289
2488.00,0.0289
2487.00,0.0289
2486.00,0.0288
2485.00,0.0288
2484.00,0.0288
2483.00,0.0288
2482.00,0.0288
2481.00,0.0288
2480.00,0.0288
2479.00,0.0289
2478.00,0.0289
2477.00,0.0289
2476.00,0.0289
2475.00,0.0289
2474.00,0.0289
2473.00,0.0288
2472.00,0.0288
2471.00,0.0288
2470.00,0.0288
2469.00,0.0289
2468.00,0.0289
2467.00,0.0289
2466.00,0.0289
2465.00,0.0289
2464.00,0.0289
2463.00,0.0290
2462.00,0.0290
2461.00,0.0290
2460.00,0.0290
2459.00,0.0290
2458.00,0.0289
2457.00,0.0289
2456.00,0.0289
2455.00,0.0288
2454.00,0.0289
2453.00,0.0289
2452.00,0.0289
2451.00,0.0290
2450.00,0.0289
2449.00,0.0289
2448.00,0.0289
2447.00,0.0289
2446.00,0.0288
2445.00,0.0288
2444.00,0.0289
2443.00,0.0289
2442.00,0.0288
2441.00,0.0288
2440.00,0.0288
2439.00,0.0288
2438.00,0.0287
2437.00,0.0287
2436.00,0.0287
2435.00,0.0287
2434.00,0.0287
2433.00,0.0287
2432.00,0.0287
2431.00,0.0287
2430.00,0.0287
2429.00,0.0287
2428.00,0.0287
2427.00,0.0287
2426.00,0.0288
2425.00,0.0288
2424.00,0.0288
2423.00,0.0287
2422.00,0.0287
2421.00,0.0287
2420.00,0.0287
2419.00,0.0287
2418.00,0.0287
2417.00,0.0287
2416.00,0.0287
2415.00,0.0287
2414.00,0.0286
2413.00,0.0286
2412.00,0.0286
2411.00,0.0286
2410.00,0.0285
2409.00,0.0285
2408.00,0.0285
2407.00,0.0285
2406.00,0.0285
2405.00,0.0285
2404.00,0.0285
2403.00,0.0285
2402.00,0.0285
2401.00,0.0285
2400.00,0.0285
2399.00,0.0285
2398.00,0.0285
2397.00,0.0285
2396.00,0.0285
2395.00,0.0284
2394.00,0.0284
2393.00,0.0284
2392.00,0.0283
2391.00,0.0284
2390.00,0.0284
2389.00,0.0283
2388.00,0.0283
2387.00,0.0282
2386.00,0.0281
2385.00,0.0280
2384.00,0.0279
2383.00,0.0277
2382.00,0.0275
2381.00,0.0274
2380.00,0.0273
2379.00,0.0273
2378.00,0.0273
2377.00,0.0274
2376.00,0.0274
2375.00,0.0275
2374.00,0.0275
2373.00,0.0275
2372.00,0.0275
2371.00,0.0276
2370.00,0.0277
2369.00,0.0277
2368.00,0.0277
2367.00,0.0276
2366.00,0.0275
2365.00,0.0274
2364.00,0.0273
2363.00,0.0273
2362.00,0.0274
2361.00,0.0276
2360.00,0.0278
2359.00,0.0279
2358.00,0.0279
2357.00,0.0278
2356.00,0.0278
2355.00,0.0278
2354.00,0.0278
2353.00,0.0277
2352.00,0.0276
2351.00,0.0277
2350.00,0.0276
2349.00,0.0274
2348.00,0.0270
2347.00,0.0266
2346.00,0.0265
2345.00,0.0268
2344.00,0.0273
2343.00,0.0276
2342.00,0.0278
2341.00,0.0279
2340.00,0.0280
2339.00,0.0280
2338.00,0.0280
2337.00,0.0280
2336.00,0.0280
2335.00,0.0281
2334.00,0.0281
2333.00,0.0281
2332.00,0.0281
2331.00,0.0282
2330.00,0.0284
2329.00,0.0285
2328.00,0.0287
2327.00,0.0288
2326.00,0.0289
2325.00,0.0289
2324.00,0.0288
2323.00,0.0288
2322.00,0.0288
2321.00,0.0288
2320.00,0.0288
2319.00,0.0289
2318.00,0.0289
2317.00,0.0288
2316.00,0.0286
2315.00,0.0284
2314.00,0.0284
2313.00,0.0284
2312.00,0.0284
2311.00,0.0285
2310.00,0.0286
2309.00,0.0286
2308.00,0.0286
2307.00,0.0286
2306.00,0.0286
2305.00,0.0285
2304.00,0.0285
2303.00,0.0284
2302.00,0.0283
2301.00,0.0282
2300.00,0.0282
2299.00,0.0283
2298.00,0.0283
2297.00,0.0283
2296.00,0.0283
2295.00,0.0283
2294.00,0.0283
2293.00,0.0284
2292.00,0.0284
2291.00,0.0285
2290.00,0.0285
2289.00,0.0286
2288.00,0.0286
2287.00,0.0286
2286.00,0.0286
2285.00,0.0285
2284.00,0.0284
2283.00,0.0284
2282.00,0.0284
2281.00,0.0283
2280.00,0.0283
2279.00,0.0282
2278.00,0.0282
2277.00,0.0282
2276.00,0.0282
2275.00,0.0282
2274.00,0.0282
2273.00,0.0281
2272.00,0.0281
2271.00,0.0281
2270.00,0.0281
2269.00,0.0281
2268.00,0.0281
2267.00,0.0281
2266.00,0.0281
2265.00,0.0282
2264.00,0.0283
2263.00,0.0284
2262.00,0.0284
2261.00,0.0284
2260.00,0.0283
2259.00,0.0283
2258.00,0.0282
2257.00,0.0282
2256.00,0.0281
2255.00,0.0281
2254.00,0.0281
2253.00,0.0282
2252.00,0.0282
2251.00,0.0282
2250.00,0.0282
2249.00,0.0282
2248.00,0.0282
2247.00,0.0283
2246.00,0.0283
2245.00,0.0283
2244.00,0.0283
2243.00,0.0283
2242.00,0.0282
2241.00,0.0281
2240.00,0.0280
2239.00,0.0281
2238.00,0.0281
2237.00,0.0282
2236.00,0.0282
2235.00,0.0282
2234.00,0.0283
2233.00,0.0284
2232.00,0.0285
2231.00,0.0285
2230.00,0.0285
2229.00,0.0284
2228.00,0.0282
2227.00,0.0281
2226.00,0.0281
2225.00,0.0281
2224.00,0.0281
2223.00,0.0281
2222.00,0.0282
2221.00,0.0283
2220.00,0.0283
2219.00,0.0283
2218.00,0.0282
2217.00,0.0282
2216.00,0.0281
2215.00,0.0282
2214.00,0.0283
2213.00,0.0283
2212.00,0.0283
2211.00,0.0283
2210.00,0.0283
2209.00,0.0282
2208.00,0.0281
2207.00,0.0280
2206.00,0.0279
2205.00,0.0279
2204.00,0.0279
2203.00,0.0279
2202.00,0.0280
2201.00,0.0282
2200.00,0.0284
2199.00,0.0285
2198.00,0.0285
2197.00,0.0284
2196.00,0.0282
2195.00,0.0280
2194.00,0.0280
2193.00,0.0279
2192.00,0.0279
2191.00,0.0279
2190.00,0.0280
2189.00,0.0281
2188.00,0.0283
2187.00,0.0285
2186.00,0.0286
2185.00,0.0285
2184.00,0.0283
2183.00,0.0280
2182.00,0.0278
2181.00,0.0279
2180.00,0.0280
2179.00,0.0281
2178.00,0.0280
2177.00,0.0278
2176.00,0.0277
2175.00,0.0278
2174.00,0.0280
2173.00,0.0282
2172.00,0.0284
2171.00,0.0285
2170.00,0.0287
2169.00,0.0288
2168.00,0.0287
2167.00,0.0286
2166.00,0.0285
2165.00,0.0284
2164.00,0.0284
2163.00,0.0284
2162.00,0.0283
2161.00,0.0280
2160.00,0.0275
2159.00,0.0271
2158.00,0.0270
2157.00,0.0271
2156.00,0.0272
2155.00,0.0272
2154.00,0.0273
2153.00,0.0274
2152.00,0.0275
2151.00,0.0275
2150.00,0.0274
2149.00,0.0272
2148.00,0.0270
2147.00,0.0270
2146.00,0.0270
2145.00,0.0271
2144.00,0.0272
2143.00,0.0273
2142.00,0.0272
2141.00,0.0272
2140.00,0.0272
2139.00,0.0272
2138.00,0.0273
2137.00,0.0271
2136.00,0.0269
2135.00,0.0267
2134.00,0.0267
2133.00,0.0269
2132.00,0.0270
2131.00,0.0270
2130.00,0.0270
2129.00,0.0270
2128.00,0.0269
2127.00,0.0270
2126.00,0.0270
2125.00,0.0270
2124.00,0.0270
2123.00,0.0270
2122.00,0.0270
2121.00,0.0271
2120.00,0.0273
2119.00,0.0274
2118.00,0.0275
2117.00,0.0275
2116.00,0.0275
2115.00,0.0274
2114.00,0.0274
2113.00,0.0274
2112.00,0.0274
2111.00,0.0275
2110.00,0.0275
2109.00,0.0275
2108.00,0.0274
2107.00,0.0273
2106.00,0.0272
2105.00,0.0271
2104.00,0.0271
2103.00,0.0271
2102.00,0.0271
2101.00,0.0272
2100.00,0.0272
2099.00,0.0271
2098.00,0.0271
2097.00,0.0270
2096.00,0.0269
2095.00,0.0268
2094.00,0.0269
2093.00,0.0269
2092.00,0.0271
2091.00,0.0272
2090.00,0.0272
2089.00,0.0271
2088.00,0.0270
2087.00,0.0269
2086.00,0.0269
2085.00,0.0269
2084.00,0.0270
2083.00,0.0270
2082.00,0.0271
2081.00,0.0271
2080.00,0.0271
2079.00,0.0271
2078.00,0.0271
2077.00,0.0272
2076.00,0.0271
2075.00,0.0271
2074.00,0.0270
2073.00,0.0270
2072.00,0.0270
2071.00,0.0271
2070.00,0.0271
2069.00,0.0271
2068.00,0.0270
2067.00,0.0270
2066.00,0.0270
2065.00,0.0270
2064.00,0.0269
2063.00,0.0268
2062.00,0.0267
2061.00,0.0267
2060.00,0.0267
2059.00,0.0267
2058.00,0.0268
2057.00,0.0269
2056.00,0.0270
2055.00,0.0271
2054.00,0.0271
2053.00,0.0272
2052.00,0.0271
2051.00,0.0271
2050.00,0.0270
2049.00,0.0270
2048.00,0.0270
2047.00,0.0270
2046.00,0.0271
2045.00,0.0271
2044.00,0.0272
2043.00,0.0272
2042.00,0.0272
2041.00,0.0273
2040.00,0.0274
2039.00,0.0274
2038.00,0.0275
2037.00,0.0275
2036.00,0.0275
2035.00,0.0273
2034.00,0.0272
2033.00,0.0271
2032.00,0.0270
2031.00,0.0270
2030.00,0.0270
2029.00,0.0271
2028.00,0.0271
2027.00,0.0271
2026.00,0.0271
2025.00,0.0270
2024.00,0.0270
2023.00,0.0269
2022.00,0.0270
2021.00,0.0270
2020.00,0.0271
2019.00,0.0271
2018.00,0.0272
2017.00,0.0272
2016.00,0.0271
2015.00,0.0270
2014.00,0.0269
2013.00,0.0268
2012.00,0.0267
2011.00,0.0267
2010.00,0.0266
2009.00,0.0266
2008.00,0.0265
2007.00,0.0264
2006.00,0.0263
2005.00,0.0263
2004.00,0.0264
2003.00,0.0266
2002.00,0.0267
2001.00,0.0267
2000.00,0.0267
1999.00,0.0267
1998.00,0.0268
1997.00,0.0268
1996.00,0.0269
1995.00,0.0268
1994.00,0.0268
1993.00,0.0267
1992.00,0.0268
1991.00,0.0269
1990.00,0.0270
1989.00,0.0270
1988.00,0.0268
1987.00,0.0266
1986.00,0.0266
1985.00,0.0267
1984.00,0.0269
1983.00,0.0270
1982.00,0.0272
1981.00,0.0273
1980.00,0.0273
1979.00,0.0271
1978.00,0.0268
1977.00,0.0265
1976.00,0.0264
1975.00,0.0264
1974.00,0.0265
1973.00,0.0265
1972.00,0.0265
1971.00,0.0264
1970.00,0.0264
1969.00,0.0263
1968.00,0.0262
1967.00,0.0262
1966.00,0.0262
1965.00,0.0263
1964.00,0.0264
1963.00,0.0264
1962.00,0.0263
1961.00,0.0262
1960.00,0.0261
1959.00,0.0260
1958.00,0.0259
1957.00,0.0258
1956.00,0.0258
1955.00,0.0258
1954.00,0.0257
1953.00,0.0257
1952.00,0.0256
1951.00,0.0256
1950.00,0.0257
1949.00,0.0257
1948.00,0.0258
1947.00,0.0258
1946.00,0.0258
1945.00,0.0257
1944.00,0.0256
1943.00,0.0256
1942.00,0.0256
1941.00,0.0256
1940.00,0.0255
1939.00,0.0254
1938.00,0.0253
1937.00,0.0253
1936.00,0.0253
1935.00,0.0254
1934.00,0.0255
1933.00,0.0255
1932.00,0.0255
1931.00,0.0254
1930.00,0.0253
1929.00,0.0253
1928.00,0.0253
1927.00,0.0252
1926.00,0.0253
1925.00,0.0253
1924.00,0.0254
1923.00,0.0253
1922.00,0.0253
1921.00,0.0253
1920.00,0.0253
1919.00,0.0253
1918.00,0.0252
1917.00,0.0252
1916.00,0.0251
1915.00,0.0251
1914.00,0.0251
1913.00,0.0250
1912.00,0.0250
1911.00,0.0250
1910.00,0.0251
1909.00,0.0251
1908.00,0.0250
1907.00,0.0249
1906.00,0.0249
1905.00,0.0249
1904.00,0.0248
1903.00,0.0247
1902.00,0.0247
1901.00,0.0247
1900.00,0.0247
1899.00,0.0247
1898.00,0.0247
1897.00,0.0247
1896.00,0.0247
1895.00,0.0247
1894.00,0.0247
1893.00,0.0247
1892.00,0.0247
1891.00,0.0246
1890.00,0.0245
1889.00,0.0244
1888.00,0.0244
1887.00,0.0244
1886.00,0.0244
1885.00,0.0244
1884.00,0.0244
1883.00,0.0243
1882.00,0.0243
1881.00,0.0243
1880.00,0.0243
1879.00,0.0243
1878.00,0.0243
1877.00,0.0243
1876.00,0.0243
1875.00,0.0242
1874.00,0.0242
1873.00,0.0242
1872.00,0.0242
1871.00,0.0242
1870.00,0.0242
1869.00,0.0241
1868.00,0.0240
1867.00,0.0239
1866.00,0.0240
1865.00,0.0240
1864.00,0.0241
1863.00,0.0240
1862.00,0.0240
1861.00,0.0239
1860.00,0.0239
1859.00,0.0238
1858.00,0.0238
1857.00,0.0238
1856.00,0.0238
1855.00,0.0237
1854.00,0.0237
1853.00,0.0236
1852.00,0.0236
1851.00,0.0235
1850.00,0.0236
1849.00,0.0236
1848.00,0.0236
1847.00,0.0237
1846.00,0.0237
1845.00,0.0236
1844.00,0.0234
1843.00,0.0232
1842.00,0.0232
1841.00,0.0233
1840.00,0.0234
1839.00,0.0234
1838.00,0.0234
1837.00,0.0233
1836.00,0.0232
1835.00,0.0231
1834.00,0.0232
1833.00,0.0233
1832.00,0.0234
1831.00,0.0233
1830.00,0.0231
1829.00,0.0229
1828.00,0.0229
1827.00,0.0228
1826.00,0.0228
1825.00,0.0228
1824.00,0.0228
1823.00,0.0228
1822.00,0.0228
1821.00,0.0229
1820.00,0.0229
1819.00,0.0228
1818.00,0.0227
1817.00,0.0227
1816.00,0.0226
1815.00,0.0226
1814.00,0.0226
1813.00,0.0226
1812.00,0.0226
1811.00,0.0224
1810.00,0.0224
1809.00,0.0224
1808.00,0.0224
1807.00,0.0224
1806.00,0.0223
1805.00,0.0224
1804.00,0.0224
1803.00,0.0223
1802.00,0.0223
1801.00,0.0223
1800.00,0.0222
1799.00,0.0222
1798.00,0.0223
1797.00,0.0224
1796.00,0.0225
1795.00,0.0225
1794.00,0.0225
1793.00,0.0224
1792.00,0.0223
1791.00,0.0221
1790.00,0.0220
1789.00,0.0221
1788.00,0.0223
1787.00,0.0223
1786.00,0.0223
1785.00,0.0223
1784.00,0.0223
1783.00,0.0222
1782.00,0.0222
1781.00,0.0221
1780.00,0.0221
1779.00,0.0222
1778.00,0.0223
1777.00,0.0224
1776.00,0.0226
1775.00,0.0226
1774.00,0.0227
1773.00,0.0226
1772.00,0.0225
1771.00,0.0224
1770.00,0.0225
1769.00,0.0225
1768.00,0.0226
1767.00,0.0226
1766.00,0.0227
1765.00,0.0228
1764.00,0.0229
1763.00,0.0228
1762.00,0.0227
1761.00,0.0227
1760.00,0.0227
1759.00,0.0228
1758.00,0.0227
1757.00,0.0227
1756.00,0.0227
1755.00,0.0227
1754.00,0.0228
1753.00,0.0229
1752.00,0.0230
1751.00,0.0231
1750.00,0.0231
1749.00,0.0230
1748.00,0.0229
1747.00,0.0229
1746.00,0.0229
1745.00,0.0229
1744.00,0.0230
1743.00,0.0230
1742.00,0.0231
1741.00,0.0233
1740.00,0.0235
1739.00,0.0236
1738.00,0.0237
1737.00,0.0238
1736.00,0.0240
1735.00,0.0242
1734.00,0.0244
1733.00,0.0243
1732.00,0.0242
1731.00,0.0241
1730.00,0.0240
1729.00,0.0241
1728.00,0.0242
1727.00,0.0244
1726.00,0.0246
1725.00,0.0247
1724.00,0.0247
1723.00,0.0248
1722.00,0.0248
1721.00,0.0248
1720.00,0.0248
1719.00,0.0248
1718.00,0.0250
1717.00,0.0251
1716.00,0.0251
1715.00,0.0251
1714.00,0.0251
1713.00,0.0252
1712.00,0.0253
1711.00,0.0253
1710.00,0.0253
1709.00,0.0254
1708.00,0.0254
1707.00,0.0255
1706.00,0.0255
1705.00,0.0255
1704.00,0.0256
1703.00,0.0256
1702.00,0.0256
1701.00,0.0258
1700.00,0.0261
1699.00,0.0262
1698.00,0.0262
1697.00,0.0260
1696.00,0.0257
1695.00,0.0256
1694.00,0.0257
1693.00,0.0258
1692.00,0.0259
1691.00,0.0259
1690.00,0.0259
1689.00,0.0259
1688.00,0.0259
1687.00,0.0258
1686.00,0.0257
1685.00,0.0256
1684.00,0.0255
1683.00,0.0254
1682.00,0.0256
1681.00,0.0258
1680.00,0.0258
1679.00,0.0259
1678.00,0.0260
1677.00,0.0260
1676.00,0.0261
1675.00,0.0263
1674.00,0.0263
1673.00,0.0263
1672.00,0.0263
1671.00,0.0264
1670.00,0.0264
1669.00,0.0262
1668.00,0.0262
1667.00,0.0263
1666.00,0.0264
1665.00,0.0264
1664.00,0.0265
1663.00,0.0265
1662.00,0.0266
1661.00,0.0266
1660.00,0.0267
1659.00,0.0268
1658.00,0.0269
1657.00,0.0268
1656.00,0.0266
1655.00,0.0265
1654.00,0.0267
1653.00,0.0268
1652.00,0.0268
1651.00,0.0270
1650.00,0.0272
1649.00,0.0272
1648.00,0.0273
1647.00,0.0274
1646.00,0.0274
1645.00,0.0275
1644.00,0.0276
1643.00,0.0276
1642.00,0.0276
1641.00,0.0276
1640.00,0.0277
1639.00,0.0277
1638.00,0.0278
1637.00,0.0278
1636.00,0.0278
1635.00,0.0278
1634.00,0.0280
1633.00,0.0281
1632.00,0.0282
1631.00,0.0283
1630.00,0.0283
1629.00,0.0283
1628.00,0.0284
1627.00,0.0285
1626.00,0.0286
1625.00,0.0287
1624.00,0.0288
1623.00,0.0290
1622.00,0.0290
1621.00,0.0291
1620.00,0.0291
1619.00,0.0291
1618.00,0.0293
1617.00,0.0295
1616.00,0.0296
1615.00,0.0296
1614.00,0.0296
1613.00,0.0296
1612.00,0.0296
1611.00,0.0298
1610.00,0.0299
1609.00,0.0300
1608.00,0.0301
1607.00,0.0302
1606.00,0.0303
1605.00,0.0303
1604.00,0.0303
1603.00,0.0304
1602.00,0.0304
1601.00,0.0305
1600.00,0.0305
1599.00,0.0306
1598.00,0.0307
1597.00,0.0307
1596.00,0.0307
1595.00,0.0308
1594.00,0.0309
1593.00,0.0309
1592.00,0.0310
1591.00,0.0311
1590.00,0.0311
1589.00,0.0312
1588.00,0.0312
1587.00,0.0313
1586.00,0.0314
1585.00,0.0314
1584.00,0.0314
1583.00,0.0314
1582.00,0.0315
1581.00,0.0315
1580.00,0.0315
1579.00,0.0315
1578.00,0.0315
1577.00,0.0315
1576.00,0.0317
1575.00,0.0318
1574.00,0.0319
1573.00,0.0319
1572.00,0.0318
1571.00,0.0319
1570.00,0.0320
1569.00,0.0321
1568.00,0.0321
1567.00,0.0321
1566.00,0.0322
1565.00,0.0322
1564.00,0.0322
1563.00,0.0321
1562.00,0.0318
1561.00,0.0313
1560.00,0.0315
1559.00,0.0323
1558.00,0.0325
1557.00,0.0326
1556.00,0.0327
1555.00,0.0326
1554.00,0.0325
1553.00,0.0324
1552.00,0.0323
1551.00,0.0322
1550.00,0.0321
1549.00,0.0320
1548.00,0.0321
1547.00,0.0321
1546.00,0.0321
1545.00,0.0321
1544.00,0.0321
1543.00,0.0320
1542.00,0.0320
1541.00,0.0321
1540.00,0.0318
1539.00,0.0315
1538.00,0.0316
1537.00,0.0317
1536.00,0.0317
1535.00,0.0316
1534.00,0.0316
1533.00,0.0316
1532.00,0.0316
1531.00,0.0316
1530.00,0.0317
1529.00,0.0317
1528.00,0.0318
1527.00,0.0318
1526.00,0.0319
1525.00,0.0320
1524.00,0.0320
1523.00,0.0319
1522.00,0.0319
1521.00,0.0318
1520.00,0.0316
1519.00,0.0315
1518.00,0.0314
1517.00,0.0313
1516.00,0.0313
1515.00,0.0313
1514.00,0.0314
1513.00,0.0314
1512.00,0.0315
1511.00,0.0314
1510.00,0.0312
1509.00,0.0311
1508.00,0.0312
1507.00,0.0310
1506.00,0.0307
1505.00,0.0308
1504.00,0.0310
1503.00,0.0310
1502.00,0.0309
1501.00,0.0307
1500.00,0.0306
1499.00,0.0305
1498.00,0.0305
1497.00,0.0305
1496.00,0.0306
1495.00,0.0307
1494.00,0.0308
1493.00,0.0309
1492.00,0.0309
1491.00,0.0310
1490.00,0.0309
1489.00,0.0308
1488.00,0.0306
1487.00,0.0304
1486.00,0.0304
1485.00,0.0304
1484.00,0.0303
1483.00,0.0303
1482.00,0.0303
1481.00,0.0303
1480.00,0.0303
1479.00,0.0302
1478.00,0.0301
1477.00,0.0301
1476.00,0.0301
1475.00,0.0302
1474.00,0.0304
1473.00,0.0305
1472.00,0.0304
1471.00,0.0302
1470.00,0.0301
1469.00,0.0300
1468.00,0.0299
1467.00,0.0298
1466.00,0.0299
1465.00,0.0299
1464.00,0.0300
1463.00,0.0299
1462.00,0.0299
1461.00,0.0299
1460.00,0.0298
1459.00,0.0298
1458.00,0.0300
1457.00,0.0302
1456.00,0.0302
1455.00,0.0302
1454.00,0.0302
1453.00,0.0302
1452.00,0.0302
1451.00,0.0303
1450.00,0.0304
1449.00,0.0305
1448.00,0.0305
1447.00,0.0305
1446.00,0.0305
1445.00,0.0305
1444.00,0.0305
1443.00,0.0305
1442.00,0.0305
1441.00,0.0306
1440.00,0.0306
1439.00,0.0306
1438.00,0.0306
1437.00,0.0308
1436.00,0.0309
1435.00,0.0309
1434.00,0.0309
1433.00,0.0308
1432.00,0.0308
1431.00,0.0308
1430.00,0.0308
1429.00,0.0308
1428.00,0.0308
1427.00,0.0309
1426.00,0.0309
1425.00,0.0308
1424.00,0.0308
1423.00,0.0309
1422.00,0.0308
1421.00,0.0308
1420.00,0.0308
1419.00,0.0309
1418.00,0.0309
1417.00,0.0308
1416.00,0.0309
1415.00,0.0309
1414.00,0.0309
1413.00,0.0310
1412.00,0.0310
1411.00,0.0310
1410.00,0.0309
1409.00,0.0309
1408.00,0.0309
1407.00,0.0308
1406.00,0.0308
1405.00,0.0308
1404.00,0.0309
1403.00,0.0310
1402.00,0.0311
1401.00,0.0310
1400.00,0.0311
1399.00,0.0311
1398.00,0.0311
1397.00,0.0311
1396.00,0.0311
1395.00,0.0311
1394.00,0.0311
1393.00,0.0311
1392.00,0.0312
1391.00,0.0312
1390.00,0.0312
1389.00,0.0312
1388.00,0.0312
1387.00,0.0313
1386.00,0.0313
1385.00,0.0313
1384.00,0.0313
1383.00,0.0313
1382.00,0.0314
1381.00,0.0314
1380.00,0.0314
1379.00,0.0314
1378.00,0.0314
1377.00,0.0315
1376.00,0.0315
1375.00,0.0315
1374.00,0.0316
1373.00,0.0316
1372.00,0.0316
1371.00,0.0317
1370.00,0.0317
1369.00,0.0317
1368.00,0.0317
1367.00,0.0317
1366.00,0.0318
1365.00,0.0318
1364.00,0.0317
1363.00,0.0317
1362.00,0.0317
1361.00,0.0317
1360.00,0.0318
1359.00,0.0318
1358.00,0.0318
1357.00,0.0318
1356.00,0.0318
1355.00,0.0318
1354.00,0.0318
1353.00,0.0318
1352.00,0.0318
1351.00,0.0318
1350.00,0.0319
1349.00,0.0319
1348.00,0.0319
1347.00,0.0319
1346.00,0.0319
1345.00,0.0319
1344.00,0.0319
1343.00,0.0319
1342.00,0.0319
1341.00,0.0319
1340.00,0.0319
1339.00,0.0319
1338.00,0.0318
1337.00,0.0318
1336.00,0.0318
1335.00,0.0318
1334.00,0.0318
1333.00,0.0319
1332.00,0.0319
1331.00,0.0319
1330.00,0.0320
1329.00,0.0320
1328.00,0.0319
1327.00,0.0319
1326.00,0.0319
1325.00,0.0319
1324.00,0.0319
1323.00,0.0320
1322.00,0.0320
1321.00,0.0320
1320.00,0.0320
1319.00,0.0320
1318.00,0.0320
1317.00,0.0320
1316.00,0.0320
1315.00,0.0321
1314.00,0.0321
1313.00,0.0321
1312.00,0.0321
1311.00,0.0322
1310.00,0.0322
1309.00,0.0322
1308.00,0.0321
1307.00,0.0321
1306.00,0.0321
1305.00,0.0321
1304.00,0.0322
1303.00,0.0322
1302.00,0.0323
1301.00,0.0323
1300.00,0.0323
1299.00,0.0324
1298.00,0.0323
1297.00,0.0323
1296.00,0.0323
1295.00,0.0323
1294.00,0.0323
1293.00,0.0323
1292.00,0.0324
1291.00,0.0324
1290.00,0.0324
1289.00,0.0324
1288.00,0.0325
1287.00,0.0325
1286.00,0.0324
1285.00,0.0324
1284.00,0.0324
1283.00,0.0325
1282.00,0.0325
1281.00,0.0325
1280.00,0.0326
1279.00,0.0325
1278.00,0.0325
1277.00,0.0325
1276.00,0.0326
1275.00,0.0326
1274.00,0.0326
1273.00,0.0326
1272.00,0.0327
1271.00,0.0327
1270.00,0.0327
1269.00,0.0327
1268.00,0.0326
1267.00,0.0326
1266.00,0.0326
1265.00,0.0326
1264.00,0.0326
1263.00,0.0326
1262.00,0.0327
1261.00,0.0327
1260.00,0.0327
1259.00,0.0327
1258.00,0.0327
1257.00,0.0327
1256.00,0.0327
1255.00,0.0327
1254.00,0.0326
1253.00,0.0326
1252.00,0.0326
1251.00,0.0326
1250.00,0.0326
1249.00,0.0327
1248.00,0.0327
1247.00,0.0328
1246.00,0.0329
1245.00,0.0329
1244.00,0.0329
1243.00,0.0328
1242.00,0.0328
1241.00,0.0329
1240.00,0.0329
1239.00,0.0330
1238.00,0.0329
1237.00,0.0329
1236.00,0.0329
1235.00,0.0330
1234.00,0.0330
1233.00,0.0330
1232.00,0.0330
1231.00,0.0330
1230.00,0.0331
1229.00,0.0331
1228.00,0.0332
1227.00,0.0332
1226.00,0.0333
1225.00,0.0332
1224.00,0.0332
1223.00,0.0331
1222.00,0.0331
1221.00,0.0331
1220.00,0.0331
1219.00,0.0331
1218.00,0.0330
1217.00,0.0330
1216.00,0.0330
1215.00,0.0330
1214.00,0.0330
1213.00,0.0330
1212.00,0.0330
1211.00,0.0330
1210.00,0.0330
1209.00,0.0330
1208.00,0.0330
1207.00,0.0329
1206.00,0.0329
1205.00,0.0329
1204.00,0.0329
1203.00,0.0329
1202.00,0.0329
1201.00,0.0329
1200.00,0.0329
1199.00,0.0329
1198.00,0.0328
1197.00,0.0328
1196.00,0.0328
1195.00,0.0328
1194.00,0.0327
1193.00,0.0327
1192.00,0.0326
1191.00,0.0326
1190.00,0.0326
1189.00,0.0326
1188.00,0.0326
1187.00,0.0325
1186.00,0.0325
1185.00,0.0325
1184.00,0.0325
1183.00,0.0325
1182.00,0.0325
1181.00,0.0325
1180.00,0.0325
1179.00,0.0325
1178.00,0.0325
1177.00,0.0324
1176.00,0.0324
1175.00,0.0324
1174.00,0.0324
1173.00,0.0323
1172.00,0.0322
1171.00,0.0321
1170.00,0.0321
1169.00,0.0321
1168.00,0.0321
1167.00,0.0321
1166.00,0.0320
1165.00,0.0320
1164.00,0.0319
1163.00,0.0319
1162.00,0.0319
1161.00,0.0319
1160.00,0.0318
1159.00,0.0319
1158.00,0.0319
1157.00,0.0319
1156.00,0.0319
1155.00,0.0318
1154.00,0.0317
1153.00,0.0317
1152.00,0.0317
1151.00,0.0316
1150.00,0.0316
1149.00,0.0316
1148.00,0.0317
1147.00,0.0317
1146.00,0.0317
1145.00,0.0317
1144.00,0.0317
1143.00,0.0317
1142.00,0.0317
1141.00,0.0316
1140.00,0.0316
1139.00,0.0316
1138.00,0.0316
1137.00,0.0316
1136.00,0.0316
1135.00,0.0317
1134.00,0.0317
1133.00,0.0318
1132.00,0.0318
1131.00,0.0318
1130.00,0.0318
1129.00,0.0318
1128.00,0.0318
1127.00,0.0318
1126.00,0.0317
1125.00,0.0316
1124.00,0.0316
1123.00,0.0316
1122.00,0.0317
1121.00,0.0317
1120.00,0.0318
1119.00,0.0318
1118.00,0.0318
1117.00,0.0318
1116.00,0.0319
1115.00,0.0319
1114.00,0.0319
1113.00,0.0319
1112.00,0.0319
1111.00,0.0319
1110.00,0.0319
1109.00,0.0319
1108.00,0.0319
1107.00,0.0319
1106.00,0.0319
1105.00,0.0319
1104.00,0.0320
1103.00,0.0320
1102.00,0.0320
1101.00,0.0320
1100.00,0.0319
1099.00,0.0319
1098.00,0.0319
1097.00,0.0319
1096.00,0.0319
1095.00,0.0320
1094.00,0.0319
1093.00,0.0319
1092.00,0.0320
1091.00,0.0320
1090.00,0.0321
1089.00,0.0322
1088.00,0.0322
1087.00,0.0322
1086.00,0.0321
1085.00,0.0320
1084.00,0.0319
1083.00,0.0320
1082.00,0.0320
1081.00,0.0321
1080.00,0.0321
1079.00,0.0321
1078.00,0.0321
1077.00,0.0322
1076.00,0.0323
1075.00,0.0324
1074.00,0.0325
1073.00,0.0325
1072.00,0.0325
1071.00,0.0325
1070.00,0.0326
1069.00,0.0326
1068.00,0.0327
1067.00,0.0328
1066.00,0.0329
1065.00,0.0329
1064.00,0.0330
1063.00,0.0330
1062.00,0.0330
1061.00,0.0330
1060.00,0.0330
1059.00,0.0330
1058.00,0.0331
1057.00,0.0331
1056.00,0.0331
1055.00,0.0331
1054.00,0.0331
1053.00,0.0332
1052.00,0.0332
1051.00,0.0334
1050.00,0.0335
1049.00,0.0335
1048.00,0.0335
1047.00,0.0335
1046.00,0.0335
1045.00,0.0335
1044.00,0.0335
1043.00,0.0335
1042.00,0.0336
1041.00,0.0335
1040.00,0.0336
1039.00,0.0336
1038.00,0.0336
1037.00,0.0336
1036.00,0.0337
1035.00,0.0337
1034.00,0.0337
1033.00,0.0337
1032.00,0.0337
1031.00,0.0338
1030.00,0.0338
1029.00,0.0339
1028.00,0.0339
1027.00,0.0338
1026.00,0.0337
1025.00,0.0336
1024.00,0.0335
1023.00,0.0335
1022.00,0.0335
1021.00,0.0336
1020.00,0.0336
1019.00,0.0336
1018.00,0.0336
1017.00,0.0335
1016.00,0.0336
1015.00,0.0336
1014.00,0.0336
1013.00,0.0336
1012.00,0.0336
1011.00,0.0337
1010.00,0.0337
1009.00,0.0337
1008.00,0.0337
1007.00,0.0336
1006.00,0.0336
1005.00,0.0335
1004.00,0.0335
1003.00,0.0335
1002.00,0.0335
1001.00,0.0335
1000.00,0.0335
999.00,0.0335
998.00,0.0335
997.00,0.0335
996.00,0.0335
995.00,0.0334
994.00,0.0334
993.00,0.0334
992.00,0.0334
991.00,0.0334
990.00,0.0334
989.00,0.0333
988.00,0.0332
987.00,0.0332
986.00,0.0331
985.00,0.0332
984.00,0.0332
983.00,0.0332
982.00,0.0332
981.00,0.0331
980.00,0.0331
979.00,0.0331
978.00,0.0331
977.00,0.0330
976.00,0.0330
975.00,0.0330
974.00,0.0330
973.00,0.0329
972.00,0.0328
971.00,0.0327
970.00,0.0327
969.00,0.0326
968.00,0.0326
967.00,0.0326
966.00,0.0325
965.00,0.0325
964.00,0.0324
963.00,0.0324
962.00,0.0324
961.00,0.0326
960.00,0.0327
959.00,0.0327
958.00,0.0326
957.00,0.0325
956.00,0.0324
955.00,0.0324
954.00,0.0324
953.00,0.0324
952.00,0.0324
951.00,0.0323
950.00,0.0323
949.00,0.0324
948.00,0.0324
947.00,0.0325
946.00,0.0325
945.00,0.0324
944.00,0.0324
943.00,0.0325
942.00,0.0325
941.00,0.0326
940.00,0.0326
939.00,0.0326
938.00,0.0326
937.00,0.0327
936.00,0.0328
935.00,0.0328
934.00,0.0328
933.00,0.0328
932.00,0.0328
931.00,0.0328
930.00,0.0328
929.00,0.0328
928.00,0.0327
927.00,0.0327
926.00,0.0328
925.00,0.0329
924.00,0.0330
923.00,0.0330
922.00,0.0329
921.00,0.0328
920.00,0.0329
919.00,0.0330
918.00,0.0331
917.00,0.0332
916.00,0.0333
915.00,0.0333
914.00,0.0333
913.00,0.0332
912.00,0.0333
911.00,0.0333
910.00,0.0335
909.00,0.0336
908.00,0.0337
907.00,0.0336
906.00,0.0335
905.00,0.0334
904.00,0.0332
903.00,0.0332
902.00,0.0331
901.00,0.0331
900.00,0.0332
899.00,0.0333
898.00,0.0334
897.00,0.0334
896.00,0.0334
895.00,0.0333
894.00,0.0332
893.00,0.0332
892.00,0.0332
891.00,0.0332
890.00,0.0332
889.00,0.0333
888.00,0.0333
887.00,0.0333
886.00,0.0333
885.00,0.0332
884.00,0.0332
883.00,0.0331
882.00,0.0331
881.00,0.0330
880.00,0.0331
879.00,0.0331
878.00,0.0332
877.00,0.0332
876.00,0.0332
875.00,0.0332
874.00,0.0332
873.00,0.0332
872.00,0.0333
871.00,0.0333
870.00,0.0333
869.00,0.0332
868.00,0.0331
867.00,0.0331
866.00,0.0330
865.00,0.0330
864.00,0.0330
863.00,0.0331
862.00,0.0333
861.00,0.0333
860.00,0.0333
859.00,0.0333
858.00,0.0332
857.00,0.0330
856.00,0.0330
855.00,0.0330
854.00,0.0330
853.00,0.0330
852.00,0.0330
851.00,0.0329
850.00,0.0328
849.00,0.0328
848.00,0.0328
847.00,0.0327
846.00,0.0327
845.00,0.0328
844.00,0.0329
843.00,0.0330
842.00,0.0330
841.00,0.0329
840.00,0.0329
839.00,0.0330
838.00,0.0331
837.00,0.0332
836.00,0.0332
835.00,0.0331
834.00,0.0331
833.00,0.0330
832.00,0.0330
831.00,0.0332
830.00,0.0333
829.00,0.0334
828.00,0.0334
827.00,0.0334
826.00,0.0334
825.00,0.0334
824.00,0.0334
823.00,0.0336
822.00,0.0337
821.00,0.0338
820.00,0.0337
819.00,0.0337
818.00,0.0336
817.00,0.0335
816.00,0.0335
815.00,0.0334
814.00,0.0334
813.00,0.0334
812.00,0.0334
811.00,0.0335
810.00,0.0334
809.00,0.0333
808.00,0.0333
807.00,0.0333
806.00,0.0334
805.00,0.0336
804.00,0.0337
803.00,0.0337
802.00,0.0337
801.00,0.0337
800.00,0.0336
799.00,0.0337
798.00,0.0337
797.00,0.0338
796.00,0.0338
795.00,0.0338
794.00,0.0338
793.00,0.0338
792.00,0.0337
791.00,0.0338
790.00,0.0340
789.00,0.0341
788.00,0.0342
787.00,0.0342
786.00,0.0339
785.00,0.0337
784.00,0.0335
783.00,0.0335
782.00,0.0337
781.00,0.0340
780.00,0.0342
779.00,0.0343
778.00,0.0343
777.00,0.0341
776.00,0.0340
775.00,0.0341
774.00,0.0343
773.00,0.0344
772.00,0.0345
771.00,0.0344
770.00,0.0344
769.00,0.0344
768.00,0.0344
767.00,0.0345
766.00,0.0346
765.00,0.0346
764.00,0.0346
763.00,0.0346
762.00,0.0345
761.00,0.0346
760.00,0.0347
759.00,0.0350
758.00,0.0351
757.00,0.0352
756.00,0.0352
755.00,0.0351
754.00,0.0349
753.00,0.0346
752.00,0.0345
751.00,0.0345
750.00,0.0346
749.00,0.0349
748.00,0.0351
747.00,0.0352
746.00,0.0352
745.00,0.0353
744.00,0.0353
743.00,0.0353
742.00,0.0352
741.00,0.0351
740.00,0.0350
739.00,0.0350
738.00,0.0350
737.00,0.0351
736.00,0.0352
735.00,0.0352
734.00,0.0352
733.00,0.0352
732.00,0.0353
731.00,0.0354
730.00,0.0355
729.00,0.0356
728.00,0.0357
727.00,0.0358
726.00,0.0358
725.00,0.0356
724.00,0.0355
723.00,0.0355
722.00,0.0355
721.00,0.0355
720.00,0.0354
719.00,0.0354
718.00,0.0354
717.00,0.0354
716.00,0.0354
715.00,0.0354
714.00,0.0354
713.00,0.0354
712.00,0.0354
711.00,0.0355
710.00,0.0355
709.00,0.0357
708.00,0.0358
707.00,0.0358
706.00,0.0357
705.00,0.0357
704.00,0.0357
703.00,0.0358
702.00,0.0359
701.00,0.0360
700.00,0.0360
699.00,0.0360
698.00,0.0360
697.00,0.0359
696.00,0.0359
695.00,0.0358
694.00,0.0359
693.00,0.0361
692.00,0.0362
691.00,0.0362
690.00,0.0361
689.00,0.0361
688.00,0.0362
687.00,0.0363
686.00,0.0365
685.00,0.0367
684.00,0.0368
683.00,0.0368
682.00,0.0367
681.00,0.0366
680.00,0.0367
679.00,0.0366
678.00,0.0364
677.00,0.0363
676.00,0.0363
675.00,0.0366
674.00,0.0370
673.00,0.0373
672.00,0.0374
671.00,0.0374
670.00,0.0375
669.00,0.0378
668.00,0.0386
667.00,0.0389
666.00,0.0383
665.00,0.0376
664.00,0.0372
663.00,0.0371
662.00,0.0370
661.00,0.0370
660.00,0.0370
659.00,0.0370
658.00,0.0370
657.00,0.0370
656.00,0.0369
655.00,0.0368
654.00,0.0369
653.00,0.0373
652.00,0.0377
651.00,0.0380
650.00,0.0379
