Created as New Dataset,Monday, April 03 2023
cm-1,A
4000.00,0.0293
3999.00,0.0293
3998.00,0.0293
3997.00,0.0293
3996.00,0.0292
3995.00,0.0292
3994.00,0.0292
3993.00,0.0293
3992.00,0.0293
3991.00,0.0293
3990.00,0.0293
3989.00,0.0292
3988.00,0.0292
3987.00,0.0293
3986.00,0.0293
3985.00,0.0293
3984.00,0.0293
3983.00,0.0293
3982.00,0.0292
3981.00,0.0293
3980.00,0.0293
3979.00,0.0293
3978.00,0.0294
3977.00,0.0293
3976.00,0.0293
3975.00,0.0293
3974.00,0.0293
3973.00,0.0293
3972.00,0.0293
3971.00,0.0293
3970.00,0.0293
3969.00,0.0292
3968.00,0.0292
3967.00,0.0292
3966.00,0.0293
3965.00,0.0293
3964.00,0.0293
3963.00,0.0293
3962.00,0.0293
3961.00,0.0293
3960.00,0.0293
3959.00,0.0293
3958.00,0.0293
3957.00,0.0293
3956.00,0.0293
3955.00,0.0293
3954.00,0.0293
3953.00,0.0293
3952.00,0.0293
3951.00,0.0293
3950.00,0.0293
3949.00,0.0294
3948.00,0.0294
3947.00,0.0295
3946.00,0.0295
3945.00,0.0294
3944.00,0.0293
3943.00,0.0292
3942.00,0.0292
3941.00,0.0292
3940.00,0.0293
3939.00,0.0293
3938.00,0.0294
3937.00,0.0294
3936.00,0.0295
3935.00,0.0295
3934.00,0.0295
3933.00,0.0295
3932.00,0.0295
3931.00,0.0294
3930.00,0.0294
3929.00,0.0294
3928.00,0.0294
3927.00,0.0293
3926.00,0.0293
3925.00,0.0293
3924.00,0.0292
3923.00,0.0293
3922.00,0.0294
3921.00,0.0294
3920.00,0.0295
3919.00,0.0295
3918.00,0.0295
3917.00,0.0295
3916.00,0.0294
3915.00,0.0294
3914.00,0.0293
3913.00,0.0293
3912.00,0.0293
3911.00,0.0293
3910.00,0.0294
3909.00,0.0295
3908.00,0.0295
3907.00,0.0296
3906.00,0.0296
3905.00,0.0297
3904.00,0.0298
3903.00,0.0298
3902.00,0.0298
3901.00,0.0297
3900.00,0.0296
3899.00,0.0295
3898.00,0.0294
3897.00,0.0295
3896.00,0.0296
3895.00,0.0296
3894.00,0.0296
3893.00,0.0295
3892.00,0.0294
3891.00,0.0294
3890.00,0.0295
3889.00,0.0296
3888.00,0.0297
3887.00,0.0298
3886.00,0.0298
3885.00,0.0297
3884.00,0.0297
3883.00,0.0296
3882.00,0.0294
3881.00,0.0292
3880.00,0.0292
3879.00,0.0293
3878.00,0.0295
3877.00,0.0296
3876.00,0.0295
3875.00,0.0295
3874.00,0.0295
3873.00,0.0296
3872.00,0.0296
3871.00,0.0297
3870.00,0.0297
3869.00,0.0297
3868.00,0.0299
3867.00,0.0300
3866.00,0.0300
3865.00,0.0299
3864.00,0.0296
3863.00,0.0295
3862.00,0.0295
3861.00,0.0296
3860.00,0.0297
3859.00,0.0297
3858.00,0.0296
3857.00,0.0296
3856.00,0.0297
3855.00,0.0300
3854.00,0.0301
3853.00,0.0300
3852.00,0.0297
3851.00,0.0296
3850.00,0.0296
3849.00,0.0296
3848.00,0.0296
3847.00,0.0296
3846.00,0.0296
3845.00,0.0296
3844.00,0.0296
3843.00,0.0297
3842.00,0.0298
3841.00,0.0298
3840.00,0.0298
3839.00,0.0298
3838.00,0.0297
3837.00,0.0297
3836.00,0.0297
3835.00,0.0296
3834.00,0.0296
3833.00,0.0296
3832.00,0.0297
3831.00,0.0297
3830.00,0.0298
3829.00,0.0298
3828.00,0.0297
3827.00,0.0296
3826.00,0.0296
3825.00,0.0297
3824.00,0.0298
3823.00,0.0300
3822.00,0.0300
3821.00,0.0300
3820.00,0.0300
3819.00,0.0300
3818.00,0.0299
3817.00,0.0297
3816.00,0.0296
3815.00,0.0294
3814.00,0.0294
3813.00,0.0295
3812.00,0.0295
3811.00,0.0295
3810.00,0.0294
3809.00,0.0294
3808.00,0.0296
3807.00,0.0297
3806.00,0.0299
3805.00,0.0300
3804.00,0.0300
3803.00,0.0300
3802.00,0.0298
3801.00,0.0297
3800.00,0.0296
3799.00,0.0296
3798.00,0.0295
3797.00,0.0294
3796.00,0.0294
3795.00,0.0294
3794.00,0.0294
3793.00,0.0294
3792.00,0.0293
3791.00,0.0293
3790.00,0.0293
3789.00,0.0293
3788.00,0.0294
3787.00,0.0294
3786.00,0.0294
3785.00,0.0294
3784.00,0.0294
3783.00,0.0294
3782.00,0.0294
3781.00,0.0293
3780.00,0.0292
3779.00,0.0291
3778.00,0.0292
3777.00,0.0293
3776.00,0.0294
3775.00,0.0294
3774.00,0.0294
3773.00,0.0295
3772.00,0.0295
3771.00,0.0296
3770.00,0.0297
3769.00,0.0297
3768.00,0.0297
3767.00,0.0297
3766.00,0.0296
3765.00,0.0296
3764.00,0.0297
3763.00,0.0298
3762.00,0.0298
3761.00,0.0298
3760.00,0.0297
3759.00,0.0296
3758.00,0.0296
3757.00,0.0297
3756.00,0.0297
3755.00,0.0298
3754.00,0.0300
3753.00,0.0302
3752.00,0.0303
3751.00,0.0304
3750.00,0.0305
3749.00,0.0304
3748.00,0.0303
3747.00,0.0301
3746.00,0.0299
3745.00,0.0298
3744.00,0.0298
3743.00,0.0298
3742.00,0.0299
3741.00,0.0299
3740.00,0.0300
3739.00,0.0300
3738.00,0.0301
3737.00,0.0302
3736.00,0.0302
3735.00,0.0300
3734.00,0.0298
3733.00,0.0298
3732.00,0.0298
3731.00,0.0297
3730.00,0.0297
3729.00,0.0296
3728.00,0.0296
3727.00,0.0296
3726.00,0.0295
3725.00,0.0295
3724.00,0.0295
3723.00,0.0295
3722.00,0.0294
3721.00,0.0294
3720.00,0.0294
3719.00,0.0294
3718.00,0.0295
3717.00,0.0296
3716.00,0.0297
3715.00,0.0298
3714.00,0.0298
3713.00,0.0297
3712.00,0.0296
3711.00,0.0294
3710.00,0.0294
3709.00,0.0294
3708.00,0.0294
3707.00,0.0294
3706.00,0.0294
3705.00,0.0294
3704.00,0.0294
3703.00,0.0293
3702.00,0.0293
3701.00,0.0293
3700.00,0.0293
3699.00,0.0294
3698.00,0.0294
3697.00,0.0295
3696.00,0.0295
3695.00,0.0296
3694.00,0.0296
3693.00,0.0297
3692.00,0.0297
3691.00,0.0297
3690.00,0.0296
3689.00,0.0296
3688.00,0.0296
3687.00,0.0296
3686.00,0.0296
3685.00,0.0296
3684.00,0.0297
3683.00,0.0297
3682.00,0.0298
3681.00,0.0298
3680.00,0.0298
3679.00,0.0298
3678.00,0.0298
3677.00,0.0299
3676.00,0.0299
3675.00,0.0300
3674.00,0.0301
3673.00,0.0303
3672.00,0.0304
3671.00,0.0302
3670.00,0.0300
3669.00,0.0298
3668.00,0.0298
3667.00,0.0299
3666.00,0.0299
3665.00,0.0300
3664.00,0.0300
3663.00,0.0300
3662.00,0.0301
3661.00,0.0301
3660.00,0.0302
3659.00,0.0303
3658.00,0.0304
3657.00,0.0306
3656.00,0.0308
3655.00,0.0309
3654.00,0.0309
3653.00,0.0310
3652.00,0.0311
3651.00,0.0313
3650.00,0.0316
3649.00,0.0316
3648.00,0.0314
3647.00,0.0313
3646.00,0.0313
3645.00,0.0313
3644.00,0.0313
3643.00,0.0313
3642.00,0.0312
3641.00,0.0312
3640.00,0.0312
3639.00,0.0312
3638.00,0.0312
3637.00,0.0313
3636.00,0.0314
3635.00,0.0315
3634.00,0.0315
3633.00,0.0316
3632.00,0.0317
3631.00,0.0318
3630.00,0.0320
3629.00,0.0321
3628.00,0.0321
3627.00,0.0322
3626.00,0.0323
3625.00,0.0323
3624.00,0.0323
3623.00,0.0323
3622.00,0.0323
3621.00,0.0324
3620.00,0.0325
3619.00,0.0326
3618.00,0.0327
3617.00,0.0328
3616.00,0.0328
3615.00,0.0328
3614.00,0.0327
3613.00,0.0327
3612.00,0.0327
3611.00,0.0328
3610.00,0.0328
3609.00,0.0327
3608.00,0.0325
3607.00,0.0325
3606.00,0.0325
3605.00,0.0326
3604.00,0.0326
3603.00,0.0326
3602.00,0.0326
3601.00,0.0326
3600.00,0.0326
3599.00,0.0326
3598.00,0.0325
3597.00,0.0325
3596.00,0.0325
3595.00,0.0326
3594.00,0.0327
3593.00,0.0329
3592.00,0.0330
3591.00,0.0330
3590.00,0.0330
3589.00,0.0330
3588.00,0.0328
3587.00,0.0327
3586.00,0.0328
3585.00,0.0329
3584.00,0.0329
3583.00,0.0329
3582.00,0.0329
3581.00,0.0329
3580.00,0.0329
3579.00,0.0329
3578.00,0.0329
3577.00,0.0329
3576.00,0.0329
3575.00,0.0330
3574.00,0.0330
3573.00,0.0331
3572.00,0.0331
3571.00,0.0331
3570.00,0.0331
3569.00,0.0332
3568.00,0.0333
3567.00,0.0334
3566.00,0.0334
3565.00,0.0334
3564.00,0.0335
3563.00,0.0334
3562.00,0.0334
3561.00,0.0333
3560.00,0.0333
3559.00,0.0333
3558.00,0.0333
3557.00,0.0334
3556.00,0.0334
3555.00,0.0335
3554.00,0.0335
3553.00,0.0335
3552.00,0.0336
3551.00,0.0336
3550.00,0.0336
3549.00,0.0336
3548.00,0.0337
3547.00,0.0337
3546.00,0.0338
3545.00,0.0338
3544.00,0.0338
3543.00,0.0338
3542.00,0.0338
3541.00,0.0337
3540.00,0.0337
3539.00,0.0337
3538.00,0.0338
3537.00,0.0338
3536.00,0.0339
3535.00,0.0340
3534.00,0.0340
3533.00,0.0341
3532.00,0.0341
3531.00,0.0341
3530.00,0.0342
3529.00,0.0342
3528.00,0.0343
3527.00,0.0344
3526.00,0.0344
3525.00,0.0344
3524.00,0.0343
3523.00,0.0342
3522.00,0.0341
3521.00,0.0340
3520.00,0.0340
3519.00,0.0340
3518.00,0.0341
3517.00,0.0342
3516.00,0.0343
3515.00,0.0343
3514.00,0.0344
3513.00,0.0344
3512.00,0.0344
3511.00,0.0344
3510.00,0.0344
3509.00,0.0345
3508.00,0.0346
3507.00,0.0347
3506.00,0.0347
3505.00,0.0347
3504.00,0.0347
3503.00,0.0347
3502.00,0.0347
3501.00,0.0347
3500.00,0.0347
3499.00,0.0347
3498.00,0.0347
3497.00,0.0347
3496.00,0.0347
3495.00,0.0348
3494.00,0.0348
3493.00,0.0348
3492.00,0.0348
3491.00,0.0348
3490.00,0.0348
3489.00,0.0349
3488.00,0.0349
3487.00,0.0350
3486.00,0.0350
3485.00,0.0350
3484.00,0.0350
3483.00,0.0350
3482.00,0.0350
3481.00,0.0350
3480.00,0.0350
3479.00,0.0351
3478.00,0.0352
3477.00,0.0352
3476.00,0.0353
3475.00,0.0352
3474.00,0.0352
3473.00,0.0352
3472.00,0.0352
3471.00,0.0352
3470.00,0.0353
3469.00,0.0353
3468.00,0.0354
3467.00,0.0354
3466.00,0.0355
3465.00,0.0355
3464.00,0.0354
3463.00,0.0354
3462.00,0.0354
3461.00,0.0354
3460.00,0.0354
3459.00,0.0354
3458.00,0.0355
3457.00,0.0355
3456.00,0.0355
3455.00,0.0354
3454.00,0.0354
3453.00,0.0354
3452.00,0.0355
3451.00,0.0356
3450.00,0.0357
3449.00,0.0358
3448.00,0.0358
3447.00,0.0358
3446.00,0.0358
3445.00,0.0358
3444.00,0.0358
3443.00,0.0358
3442.00,0.0358
3441.00,0.0358
3440.00,0.0358
3439.00,0.0358
3438.00,0.0359
3437.00,0.0359
3436.00,0.0359
3435.00,0.0359
3434.00,0.0359
3433.00,0.0359
3432.00,0.0359
3431.00,0.0359
3430.00,0.0359
3429.00,0.0359
3428.00,0.0359
3427.00,0.0359
3426.00,0.0360
3425.00,0.0361
3424.00,0.0361
3423.00,0.0362
3422.00,0.0363
3421.00,0.0363
3420.00,0.0363
3419.00,0.0363
3418.00,0.0363
3417.00,0.0363
3416.00,0.0363
3415.00,0.0362
3414.00,0.0362
3413.00,0.0363
3412.00,0.0363
3411.00,0.0363
3410.00,0.0363
3409.00,0.0363
3408.00,0.0363
3407.00,0.0363
3406.00,0.0363
3405.00,0.0363
3404.00,0.0364
3403.00,0.0364
3402.00,0.0365
3401.00,0.0365
3400.00,0.0365
3399.00,0.0364
3398.00,0.0364
3397.00,0.0364
3396.00,0.0365
3395.00,0.0366
3394.00,0.0366
3393.00,0.0366
3392.00,0.0366
3391.00,0.0366
3390.00,0.0367
3389.00,0.0367
3388.00,0.0367
3387.00,0.0368
3386.00,0.0368
3385.00,0.0368
3384.00,0.0367
3383.00,0.0367
3382.00,0.0367
3381.00,0.0367
3380.00,0.0368
3379.00,0.0368
3378.00,0.0368
3377.00,0.0368
3376.00,0.0368
3375.00,0.0368
3374.00,0.0368
3373.00,0.0368
3372.00,0.0367
3371.00,0.0367
3370.00,0.0367
3369.00,0.0367
3368.00,0.0368
3367.00,0.0368
3366.00,0.0369
3365.00,0.0369
3364.00,0.0370
3363.00,0.0370
3362.00,0.0370
3361.00,0.0370
3360.00,0.0370
3359.00,0.0370
3358.00,0.0371
3357.00,0.0371
3356.00,0.0371
3355.00,0.0371
3354.00,0.0370
3353.00,0.0370
3352.00,0.0370
3351.00,0.0371
3350.00,0.0371
3349.00,0.0371
3348.00,0.0371
3347.00,0.0371
3346.00,0.0371
3345.00,0.0370
3344.00,0.0370
3343.00,0.0370
3342.00,0.0370
3341.00,0.0370
3340.00,0.0371
3339.00,0.0372
3338.00,0.0372
3337.00,0.0372
3336.00,0.0372
3335.00,0.0372
3334.00,0.0371
3333.00,0.0371
3332.00,0.0372
3331.00,0.0372
3330.00,0.0373
3329.00,0.0373
3328.00,0.0374
3327.00,0.0374
3326.00,0.0374
3325.00,0.0374
3324.00,0.0373
3323.00,0.0373
3322.00,0.0372
3321.00,0.0372
3320.00,0.0372
3319.00,0.0372
3318.00,0.0372
3317.00,0.0373
3316.00,0.0373
3315.00,0.0373
3314.00,0.0373
3313.00,0.0373
3312.00,0.0373
3311.00,0.0373
3310.00,0.0374
3309.00,0.0374
3308.00,0.0374
3307.00,0.0374
3306.00,0.0374
3305.00,0.0373
3304.00,0.0373
3303.00,0.0373
3302.00,0.0373
3301.00,0.0373
3300.00,0.0374
3299.00,0.0374
3298.00,0.0374
3297.00,0.0374
3296.00,0.0374
3295.00,0.0374
3294.00,0.0374
3293.00,0.0375
3292.00,0.0375
3291.00,0.0375
3290.00,0.0375
3289.00,0.0374
3288.00,0.0374
3287.00,0.0374
3286.00,0.0374
3285.00,0.0374
3284.00,0.0374
3283.00,0.0374
3282.00,0.0373
3281.00,0.0373
3280.00,0.0373
3279.00,0.0374
3278.00,0.0375
3277.00,0.0375
3276.00,0.0376
3275.00,0.0376
3274.00,0.0376
3273.00,0.0376
3272.00,0.0376
3271.00,0.0376
3270.00,0.0376
3269.00,0.0376
3268.00,0.0376
3267.00,0.0376
3266.00,0.0376
3265.00,0.0376
3264.00,0.0376
3263.00,0.0376
3262.00,0.0376
3261.00,0.0375
3260.00,0.0375
3259.00,0.0375
3258.00,0.0375
3257.00,0.0375
3256.00,0.0375
3255.00,0.0375
3254.00,0.0376
3253.00,0.0375
3252.00,0.0375
3251.00,0.0375
3250.00,0.0375
3249.00,0.0376
3248.00,0.0376
3247.00,0.0377
3246.00,0.0377
3245.00,0.0377
3244.00,0.0376
3243.00,0.0376
3242.00,0.0376
3241.00,0.0377
3240.00,0.0377
3239.00,0.0377
3238.00,0.0378
3237.00,0.0378
3236.00,0.0378
3235.00,0.0378
3234.00,0.0378
3233.00,0.0377
3232.00,0.0377
3231.00,0.0377
3230.00,0.0377
3229.00,0.0377
3228.00,0.0377
3227.00,0.0377
3226.00,0.0377
3225.00,0.0377
3224.00,0.0376
3223.00,0.0376
3222.00,0.0376
3221.00,0.0376
3220.00,0.0376
3219.00,0.0377
3218.00,0.0378
3217.00,0.0378
3216.00,0.0378
3215.00,0.0377
3214.00,0.0377
3213.00,0.0377
3212.00,0.0377
3211.00,0.0378
3210.00,0.0378
3209.00,0.0378
3208.00,0.0378
3207.00,0.0378
3206.00,0.0378
3205.00,0.0378
3204.00,0.0377
3203.00,0.0377
3202.00,0.0377
3201.00,0.0377
3200.00,0.0377
3199.00,0.0377
3198.00,0.0377
3197.00,0.0377
3196.00,0.0376
3195.00,0.0376
3194.00,0.0376
3193.00,0.0376
3192.00,0.0376
3191.00,0.0376
3190.00,0.0377
3189.00,0.0377
3188.00,0.0377
3187.00,0.0377
3186.00,0.0377
3185.00,0.0377
3184.00,0.0377
3183.00,0.0376
3182.00,0.0376
3181.00,0.0376
3180.00,0.0376
3179.00,0.0376
3178.00,0.0376
3177.00,0.0376
3176.00,0.0375
3175.00,0.0375
3174.00,0.0375
3173.00,0.0375
3172.00,0.0375
3171.00,0.0375
3170.00,0.0375
3169.00,0.0375
3168.00,0.0375
3167.00,0.0375
3166.00,0.0375
3165.00,0.0374
3164.00,0.0374
3163.00,0.0374
3162.00,0.0374
3161.00,0.0374
3160.00,0.0374
3159.00,0.0374
3158.00,0.0374
3157.00,0.0374
3156.00,0.0374
3155.00,0.0374
3154.00,0.0374
3153.00,0.0374
3152.00,0.0374
3151.00,0.0374
3150.00,0.0374
3149.00,0.0374
3148.00,0.0374
3147.00,0.0375
3146.00,0.0374
3145.00,0.0374
3144.00,0.0374
3143.00,0.0373
3142.00,0.0373
3141.00,0.0372
3140.00,0.0372
3139.00,0.0373
3138.00,0.0373
3137.00,0.0373
3136.00,0.0373
3135.00,0.0372
3134.00,0.0372
3133.00,0.0372
3132.00,0.0372
3131.00,0.0372
3130.00,0.0372
3129.00,0.0372
3128.00,0.0372
3127.00,0.0372
3126.00,0.0372
3125.00,0.0372
3124.00,0.0372
3123.00,0.0372
3122.00,0.0372
3121.00,0.0372
3120.00,0.0373
3119.00,0.0373
3118.00,0.0374
3117.00,0.0374
3116.00,0.0373
3115.00,0.0373
3114.00,0.0372
3113.00,0.0372
3112.00,0.0371
3111.00,0.0371
3110.00,0.0370
3109.00,0.0370
3108.00,0.0371
3107.00,0.0371
3106.00,0.0371
3105.00,0.0371
3104.00,0.0371
3103.00,0.0370
3102.00,0.0370
3101.00,0.0370
3100.00,0.0370
3099.00,0.0371
3098.00,0.0371
3097.00,0.0370
3096.00,0.0370
3095.00,0.0370
3094.00,0.0370
3093.00,0.0370
3092.00,0.0371
3091.00,0.0371
3090.00,0.0371
3089.00,0.0372
3088.00,0.0372
3087.00,0.0372
3086.00,0.0372
3085.00,0.0371
3084.00,0.0371
3083.00,0.0370
3082.00,0.0370
3081.00,0.0369
3080.00,0.0369
3079.00,0.0369
3078.00,0.0369
3077.00,0.0369
3076.00,0.0369
3075.00,0.0369
3074.00,0.0369
3073.00,0.0368
3072.00,0.0368
3071.00,0.0368
3070.00,0.0368
3069.00,0.0369
3068.00,0.0369
3067.00,0.0370
3066.00,0.0370
3065.00,0.0370
3064.00,0.0370
3063.00,0.0370
3062.00,0.0370
3061.00,0.0369
3060.00,0.0369
3059.00,0.0368
3058.00,0.0368
3057.00,0.0368
3056.00,0.0368
3055.00,0.0368
3054.00,0.0367
3053.00,0.0367
3052.00,0.0367
3051.00,0.0366
3050.00,0.0366
3049.00,0.0366
3048.00,0.0366
3047.00,0.0366
3046.00,0.0366
3045.00,0.0366
3044.00,0.0366
3043.00,0.0366
3042.00,0.0366
3041.00,0.0366
3040.00,0.0365
3039.00,0.0365
3038.00,0.0365
3037.00,0.0366
3036.00,0.0366
3035.00,0.0366
3034.00,0.0366
3033.00,0.0366
3032.00,0.0365
3031.00,0.0364
3030.00,0.0363
3029.00,0.0363
3028.00,0.0362
3027.00,0.0362
3026.00,0.0362
3025.00,0.0362
3024.00,0.0362
3023.00,0.0362
3022.00,0.0361
3021.00,0.0361
3020.00,0.0360
3019.00,0.0360
3018.00,0.0360
3017.00,0.0360
3016.00,0.0360
3015.00,0.0360
3014.00,0.0360
3013.00,0.0360
3012.00,0.0360
3011.00,0.0359
3010.00,0.0359
3009.00,0.0358
3008.00,0.0357
3007.00,0.0357
3006.00,0.0357
3005.00,0.0356
3004.00,0.0356
3003.00,0.0356
3002.00,0.0355
3001.00,0.0355
3000.00,0.0354
2999.00,0.0354
2998.00,0.0353
2997.00,0.0353
2996.00,0.0352
2995.00,0.0352
2994.00,0.0351
2993.00,0.0350
2992.00,0.0350
2991.00,0.0349
2990.00,0.0349
2989.00,0.0349
2988.00,0.0349
2987.00,0.0348
2986.00,0.0348
2985.00,0.0347
2984.00,0.0346
2983.00,0.0344
2982.00,0.0343
2981.00,0.0343
2980.00,0.0343
2979.00,0.0344
2978.00,0.0344
2977.00,0.0345
2976.00,0.0345
2975.00,0.0345
2974.00,0.0345
2973.00,0.0344
2972.00,0.0343
2971.00,0.0342
2970.00,0.0342
2969.00,0.0342
2968.00,0.0342
2967.00,0.0342
2966.00,0.0341
2965.00,0.0341
2964.00,0.0340
2963.00,0.0340
2962.00,0.0339
2961.00,0.0339
2960.00,0.0338
2959.00,0.0338
2958.00,0.0338
2957.00,0.0339
2956.00,0.0340
2955.00,0.0340
2954.00,0.0340
2953.00,0.0340
2952.00,0.0340
2951.00,0.0340
2950.00,0.0341
2949.00,0.0341
2948.00,0.0341
2947.00,0.0341
2946.00,0.0341
2945.00,0.0340
2944.00,0.0340
2943.00,0.0339
2942.00,0.0338
2941.00,0.0338
2940.00,0.0337
2939.00,0.0336
2938.00,0.0335
2937.00,0.0334
2936.00,0.0333
2935.00,0.0332
2934.00,0.0330
2933.00,0.0329
2932.00,0.0328
2931.00,0.0327
2930.00,0.0326
2929.00,0.0325
2928.00,0.0324
2927.00,0.0323
2926.00,0.0323
2925.00,0.0322
2924.00,0.0322
2923.00,0.0322
2922.00,0.0323
2921.00,0.0323
2920.00,0.0324
2919.00,0.0325
2918.00,0.0325
2917.00,0.0325
2916.00,0.0326
2915.00,0.0326
2914.00,0.0328
2913.00,0.0329
2912.00,0.0330
2911.00,0.0331
2910.00,0.0332
2909.00,0.0332
2908.00,0.0333
2907.00,0.0333
2906.00,0.0334
2905.00,0.0334
2904.00,0.0335
2903.00,0.0335
2902.00,0.0335
2901.00,0.0335
2900.00,0.0335
2899.00,0.0335
2898.00,0.0335
2897.00,0.0336
2896.00,0.0336
2895.00,0.0336
2894.00,0.0336
2893.00,0.0337
2892.00,0.0337
2891.00,0.0337
2890.00,0.0337
2889.00,0.0337
2888.00,0.0338
2887.00,0.0338
2886.00,0.0338
2885.00,0.0337
2884.00,0.0337
2883.00,0.0337
2882.00,0.0337
2881.00,0.0337
2880.00,0.0337
2879.00,0.0337
2878.00,0.0337
2877.00,0.0337
2876.00,0.0337
2875.00,0.0336
2874.00,0.0336
2873.00,0.0335
2872.00,0.0335
2871.00,0.0334
2870.00,0.0334
2869.00,0.0333
2868.00,0.0333
2867.00,0.0333
2866.00,0.0333
2865.00,0.0333
2864.00,0.0333
2863.00,0.0333
2862.00,0.0332
2861.00,0.0332
2860.00,0.0331
2859.00,0.0330
2858.00,0.0329
2857.00,0.0329
2856.00,0.0328
2855.00,0.0327
2854.00,0.0327
2853.00,0.0327
2852.00,0.0327
2851.00,0.0327
2850.00,0.0328
2849.00,0.0329
2848.00,0.0330
2847.00,0.0331
2846.00,0.0332
2845.00,0.0333
2844.00,0.0334
2843.00,0.0335
2842.00,0.0336
2841.00,0.0336
2840.00,0.0336
2839.00,0.0337
2838.00,0.0337
2837.00,0.0337
2836.00,0.0337
2835.00,0.0337
2834.00,0.0337
2833.00,0.0337
2832.00,0.0337
2831.00,0.0338
2830.00,0.0338
2829.00,0.0338
2828.00,0.0338
2827.00,0.0338
2826.00,0.0338
2825.00,0.0337
2824.00,0.0337
2823.00,0.0337
2822.00,0.0338
2821.00,0.0338
2820.00,0.0338
2819.00,0.0338
2818.00,0.0338
2817.00,0.0337
2816.00,0.0337
2815.00,0.0337
2814.00,0.0337
2813.00,0.0337
2812.00,0.0337
2811.00,0.0337
2810.00,0.0337
2809.00,0.0337
2808.00,0.0336
2807.00,0.0336
2806.00,0.0336
2805.00,0.0336
2804.00,0.0336
2803.00,0.0336
2802.00,0.0337
2801.00,0.0337
2800.00,0.0336
2799.00,0.0336
2798.00,0.0336
2797.00,0.0336
2796.00,0.0336
2795.00,0.0335
2794.00,0.0335
2793.00,0.0335
2792.00,0.0335
2791.00,0.0335
2790.00,0.0335
2789.00,0.0335
2788.00,0.0335
2787.00,0.0335
2786.00,0.0334
2785.00,0.0334
2784.00,0.0334
2783.00,0.0334
2782.00,0.0335
2781.00,0.0335
2780.00,0.0335
2779.00,0.0334
2778.00,0.0334
2777.00,0.0334
2776.00,0.0334
2775.00,0.0334
2774.00,0.0335
2773.00,0.0335
2772.00,0.0335
2771.00,0.0335
2770.00,0.0335
2769.00,0.0335
2768.00,0.0334
2767.00,0.0334
2766.00,0.0334
2765.00,0.0334
2764.00,0.0334
2763.00,0.0334
2762.00,0.0334
2761.00,0.0333
2760.00,0.0333
2759.00,0.0332
2758.00,0.0332
2757.00,0.0332
2756.00,0.0332
2755.00,0.0332
2754.00,0.0332
2753.00,0.0332
2752.00,0.0332
2751.00,0.0332
2750.00,0.0332
2749.00,0.0332
2748.00,0.0332
2747.00,0.0332
2746.00,0.0332
2745.00,0.0332
2744.00,0.0332
2743.00,0.0332
2742.00,0.0332
2741.00,0.0332
2740.00,0.0332
2739.00,0.0332
2738.00,0.0331
2737.00,0.0331
2736.00,0.0331
2735.00,0.0331
2734.00,0.0331
2733.00,0.0331
2732.00,0.0331
2731.00,0.0331
2730.00,0.0332
2729.00,0.0332
2728.00,0.0332
2727.00,0.0331
2726.00,0.0331
2725.00,0.0331
2724.00,0.0331
2723.00,0.0331
2722.00,0.0331
2721.00,0.0331
2720.00,0.0331
2719.00,0.0331
2718.00,0.0331
2717.00,0.0331
2716.00,0.0330
2715.00,0.0330
2714.00,0.0330
2713.00,0.0330
2712.00,0.0331
2711.00,0.0331
2710.00,0.0331
2709.00,0.0331
2708.00,0.0331
2707.00,0.0330
2706.00,0.0330
2705.00,0.0330
2704.00,0.0329
2703.00,0.0329
2702.00,0.0329
2701.00,0.0329
2700.00,0.0330
2699.00,0.0330
2698.00,0.0330
2697.00,0.0330
2696.00,0.0329
2695.00,0.0329
2694.00,0.0329
2693.00,0.0329
2692.00,0.0329
2691.00,0.0329
2690.00,0.0330
2689.00,0.0330
2688.00,0.0329
2687.00,0.0329
2686.00,0.0329
2685.00,0.0328
2684.00,0.0328
2683.00,0.0328
2682.00,0.0329
2681.00,0.0329
2680.00,0.0330
2679.00,0.0330
2678.00,0.0329
2677.00,0.0329
2676.00,0.0329
2675.00,0.0328
2674.00,0.0328
2673.00,0.0328
2672.00,0.0328
2671.00,0.0329
2670.00,0.0329
2669.00,0.0329
2668.00,0.0329
2667.00,0.0329
2666.00,0.0329
2665.00,0.0329
2664.00,0.0329
2663.00,0.0329
2662.00,0.0330
2661.00,0.0330
2660.00,0.0331
2659.00,0.0331
2658.00,0.0331
2657.00,0.0331
2656.00,0.0330
2655.00,0.0331
2654.00,0.0331
2653.00,0.0332
2652.00,0.0333
2651.00,0.0333
2650.00,0.0333
2649.00,0.0333
2648.00,0.0333
2647.00,0.0332
2646.00,0.0332
2645.00,0.0332
2644.00,0.0332
2643.00,0.0332
2642.00,0.0332
2641.00,0.0332
2640.00,0.0332
2639.00,0.0332
2638.00,0.0332
2637.00,0.0331
2636.00,0.0331
2635.00,0.0331
2634.00,0.0331
2633.00,0.0332
2632.00,0.0332
2631.00,0.0333
2630.00,0.0333
2629.00,0.0333
2628.00,0.0333
2627.00,0.0333
2626.00,0.0332
2625.00,0.0332
2624.00,0.0332
2623.00,0.0332
2622.00,0.0332
2621.00,0.0333
2620.00,0.0333
2619.00,0.0333
2618.00,0.0333
2617.00,0.0333
2616.00,0.0332
2615.00,0.0332
2614.00,0.0332
2613.00,0.0333
2612.00,0.0333
2611.00,0.0333
2610.00,0.0333
2609.00,0.0334
2608.00,0.0334
2607.00,0.0334
2606.00,0.0333
2605.00,0.0333
2604.00,0.0332
2603.00,0.0332
2602.00,0.0332
2601.00,0.0332
2600.00,0.0333
2599.00,0.0334
2598.00,0.0334
2597.00,0.0334
2596.00,0.0333
2595.00,0.0332
2594.00,0.0332
2593.00,0.0331
2592.00,0.0332
2591.00,0.0333
2590.00,0.0334
2589.00,0.0335
2588.00,0.0335
2587.00,0.0334
2586.00,0.0334
2585.00,0.0332
2584.00,0.0332
2583.00,0.0331
2582.00,0.0332
2581.00,0.0333
2580.00,0.0334
2579.00,0.0334
2578.00,0.0335
2577.00,0.0334
2576.00,0.0333
2575.00,0.0332
2574.00,0.0331
2573.00,0.0331
2572.00,0.0331
2571.00,0.0332
2570.00,0.0333
2569.00,0.0334
2568.00,0.0334
2567.00,0.0334
2566.00,0.0333
2565.00,0.0333
2564.00,0.0332
2563.00,0.0332
2562.00,0.0332
2561.00,0.0333
2560.00,0.0333
2559.00,0.0334
2558.00,0.0334
2557.00,0.0333
2556.00,0.0333
2555.00,0.0331
2554.00,0.0331
2553.00,0.0331
2552.00,0.0332
2551.00,0.0332
2550.00,0.0333
2549.00,0.0333
2548.00,0.0333
2547.00,0.0332
2546.00,0.0331
2545.00,0.0330
2544.00,0.0329
2543.00,0.0329
2542.00,0.0329
2541.00,0.0330
2540.00,0.0332
2539.00,0.0333
2538.00,0.0334
2537.00,0.0334
2536.00,0.0333
2535.00,0.0331
2534.00,0.0330
2533.00,0.0329
2532.00,0.0330
2531.00,0.0331
2530.00,0.0332
2529.00,0.0332
2528.00,0.0333
2527.00,0.0332
2526.00,0.0332
2525.00,0.0331
2524.00,0.0331
2523.00,0.0330
2522.00,0.0330
2521.00,0.0330
2520.00,0.0331
2519.00,0.0331
2518.00,0.0331
2517.00,0.0331
2516.00,0.0330
2515.00,0.0330
2514.00,0.0330
2513.00,0.0330
2512.00,0.0330
2511.00,0.0330
2510.00,0.0330
2509.00,0.0331
2508.00,0.0331
2507.00,0.0330
2506.00,0.0330
2505.00,0.0330
2504.00,0.0329
2503.00,0.0329
2502.00,0.0329
2501.00,0.0329
2500.00,0.0330
2499.00,0.0331
2498.00,0.0331
2497.00,0.0331
2496.00,0.0331
2495.00,0.0330
2494.00,0.0330
2493.00,0.0329
2492.00,0.0329
2491.00,0.0329
2490.00,0.0329
2489.00,0.0329
2488.00,0.0329
2487.00,0.0329
2486.00,0.0329
2485.00,0.0328
2484.00,0.0328
2483.00,0.0327
2482.00,0.0327
2481.00,0.0327
2480.00,0.0328
2479.00,0.0329
2478.00,0.0330
2477.00,0.0331
2476.00,0.0330
2475.00,0.0330
2474.00,0.0329
2473.00,0.0328
2472.00,0.0327
2471.00,0.0327
2470.00,0.0328
2469.00,0.0328
2468.00,0.0329
2467.00,0.0329
2466.00,0.0328
2465.00,0.0327
2464.00,0.0326
2463.00,0.0325
2462.00,0.0325
2461.00,0.0326
2460.00,0.0327
2459.00,0.0328
2458.00,0.0329
2457.00,0.0329
2456.00,0.0328
2455.00,0.0328
2454.00,0.0327
2453.00,0.0327
2452.00,0.0327
2451.00,0.0327
2450.00,0.0328
2449.00,0.0328
2448.00,0.0329
2447.00,0.0329
2446.00,0.0328
2445.00,0.0327
2444.00,0.0326
2443.00,0.0325
2442.00,0.0325
2441.00,0.0325
2440.00,0.0326
2439.00,0.0326
2438.00,0.0327
2437.00,0.0326
2436.00,0.0326
2435.00,0.0326
2434.00,0.0325
2433.00,0.0324
2432.00,0.0323
2431.00,0.0323
2430.00,0.0324
2429.00,0.0324
2428.00,0.0325
2427.00,0.0325
2426.00,0.0325
2425.00,0.0325
2424.00,0.0324
2423.00,0.0323
2422.00,0.0322
2421.00,0.0322
2420.00,0.0323
2419.00,0.0324
2418.00,0.0324
2417.00,0.0324
2416.00,0.0323
2415.00,0.0323
2414.00,0.0322
2413.00,0.0322
2412.00,0.0321
2411.00,0.0321
2410.00,0.0321
2409.00,0.0321
2408.00,0.0322
2407.00,0.0322
2406.00,0.0322
2405.00,0.0321
2404.00,0.0320
2403.00,0.0320
2402.00,0.0320
2401.00,0.0320
2400.00,0.0320
2399.00,0.0319
2398.00,0.0319
2397.00,0.0319
2396.00,0.0319
2395.00,0.0319
2394.00,0.0319
2393.00,0.0319
2392.00,0.0318
2391.00,0.0318
2390.00,0.0318
2389.00,0.0318
2388.00,0.0318
2387.00,0.0318
2386.00,0.0317
2385.00,0.0317
2384.00,0.0316
2383.00,0.0315
2382.00,0.0314
2381.00,0.0314
2380.00,0.0313
2379.00,0.0313
2378.00,0.0313
2377.00,0.0314
2376.00,0.0316
2375.00,0.0317
2374.00,0.0317
2373.00,0.0317
2372.00,0.0317
2371.00,0.0317
2370.00,0.0316
2369.00,0.0315
2368.00,0.0315
2367.00,0.0315
2366.00,0.0316
2365.00,0.0317
2364.00,0.0316
2363.00,0.0316
2362.00,0.0315
2361.00,0.0317
2360.00,0.0319
2359.00,0.0321
2358.00,0.0324
2357.00,0.0326
2356.00,0.0328
2355.00,0.0329
2354.00,0.0329
2353.00,0.0328
2352.00,0.0328
2351.00,0.0329
2350.00,0.0327
2349.00,0.0322
2348.00,0.0314
2347.00,0.0306
2346.00,0.0304
2345.00,0.0307
2344.00,0.0312
2343.00,0.0316
2342.00,0.0318
2341.00,0.0319
2340.00,0.0319
2339.00,0.0320
2338.00,0.0321
2337.00,0.0322
2336.00,0.0323
2335.00,0.0324
2334.00,0.0324
2333.00,0.0323
2332.00,0.0321
2331.00,0.0321
2330.00,0.0322
2329.00,0.0325
2328.00,0.0327
2327.00,0.0330
2326.00,0.0331
2325.00,0.0331
2324.00,0.0330
2323.00,0.0329
2322.00,0.0328
2321.00,0.0329
2320.00,0.0330
2319.00,0.0330
2318.00,0.0330
2317.00,0.0329
2316.00,0.0327
2315.00,0.0325
2314.00,0.0323
2313.00,0.0321
2312.00,0.0321
2311.00,0.0321
2310.00,0.0321
2309.00,0.0321
2308.00,0.0320
2307.00,0.0319
2306.00,0.0318
2305.00,0.0317
2304.00,0.0317
2303.00,0.0316
2302.00,0.0316
2301.00,0.0316
2300.00,0.0316
2299.00,0.0316
2298.00,0.0316
2297.00,0.0316
2296.00,0.0316
2295.00,0.0315
2294.00,0.0315
2293.00,0.0316
2292.00,0.0318
2291.00,0.0319
2290.00,0.0320
2289.00,0.0321
2288.00,0.0321
2287.00,0.0320
2286.00,0.0320
2285.00,0.0319
2284.00,0.0319
2283.00,0.0319
2282.00,0.0319
2281.00,0.0319
2280.00,0.0319
2279.00,0.0317
2278.00,0.0316
2277.00,0.0314
2276.00,0.0313
2275.00,0.0313
2274.00,0.0314
2273.00,0.0315
2272.00,0.0315
2271.00,0.0315
2270.00,0.0314
2269.00,0.0314
2268.00,0.0313
2267.00,0.0312
2266.00,0.0313
2265.00,0.0314
2264.00,0.0316
2263.00,0.0317
2262.00,0.0319
2261.00,0.0320
2260.00,0.0320
2259.00,0.0319
2258.00,0.0317
2257.00,0.0315
2256.00,0.0312
2255.00,0.0311
2254.00,0.0312
2253.00,0.0314
2252.00,0.0316
2251.00,0.0317
2250.00,0.0317
2249.00,0.0315
2248.00,0.0314
2247.00,0.0312
2246.00,0.0312
2245.00,0.0312
2244.00,0.0314
2243.00,0.0317
2242.00,0.0319
2241.00,0.0320
2240.00,0.0319
2239.00,0.0317
2238.00,0.0316
2237.00,0.0314
2236.00,0.0314
2235.00,0.0315
2234.00,0.0317
2233.00,0.0319
2232.00,0.0321
2231.00,0.0322
2230.00,0.0321
2229.00,0.0319
2228.00,0.0317
2227.00,0.0314
2226.00,0.0312
2225.00,0.0312
2224.00,0.0313
2223.00,0.0315
2222.00,0.0317
2221.00,0.0318
2220.00,0.0319
2219.00,0.0318
2218.00,0.0317
2217.00,0.0315
2216.00,0.0313
2215.00,0.0312
2214.00,0.0312
2213.00,0.0314
2212.00,0.0316
2211.00,0.0317
2210.00,0.0319
2209.00,0.0319
2208.00,0.0317
2207.00,0.0315
2206.00,0.0312
2205.00,0.0311
2204.00,0.0312
2203.00,0.0314
2202.00,0.0316
2201.00,0.0319
2200.00,0.0321
2199.00,0.0322
2198.00,0.0321
2197.00,0.0319
2196.00,0.0315
2195.00,0.0312
2194.00,0.0311
2193.00,0.0312
2192.00,0.0314
2191.00,0.0315
2190.00,0.0317
2189.00,0.0318
2188.00,0.0318
2187.00,0.0317
2186.00,0.0314
2185.00,0.0311
2184.00,0.0309
2183.00,0.0308
2182.00,0.0310
2181.00,0.0314
2180.00,0.0318
2179.00,0.0320
2178.00,0.0318
2177.00,0.0312
2176.00,0.0306
2175.00,0.0304
2174.00,0.0305
2173.00,0.0311
2172.00,0.0317
2171.00,0.0323
2170.00,0.0328
2169.00,0.0329
2168.00,0.0327
2167.00,0.0321
2166.00,0.0315
2165.00,0.0311
2164.00,0.0310
2163.00,0.0312
2162.00,0.0315
2161.00,0.0316
2160.00,0.0313
2159.00,0.0307
2158.00,0.0301
2157.00,0.0295
2156.00,0.0291
2155.00,0.0290
2154.00,0.0292
2153.00,0.0297
2152.00,0.0304
2151.00,0.0309
2150.00,0.0313
2149.00,0.0313
2148.00,0.0310
2147.00,0.0306
2146.00,0.0301
2145.00,0.0299
2144.00,0.0299
2143.00,0.0302
2142.00,0.0306
2141.00,0.0309
2140.00,0.0310
2139.00,0.0308
2138.00,0.0305
2137.00,0.0299
2136.00,0.0294
2135.00,0.0290
2134.00,0.0291
2133.00,0.0294
2132.00,0.0298
2131.00,0.0302
2130.00,0.0303
2129.00,0.0303
2128.00,0.0302
2127.00,0.0300
2126.00,0.0297
2125.00,0.0295
2124.00,0.0295
2123.00,0.0296
2122.00,0.0298
2121.00,0.0302
2120.00,0.0305
2119.00,0.0307
2118.00,0.0307
2117.00,0.0305
2116.00,0.0303
2115.00,0.0301
2114.00,0.0300
2113.00,0.0301
2112.00,0.0303
2111.00,0.0305
2110.00,0.0307
2109.00,0.0308
2108.00,0.0307
2107.00,0.0305
2106.00,0.0302
2105.00,0.0300
2104.00,0.0298
2103.00,0.0299
2102.00,0.0301
2101.00,0.0303
2100.00,0.0305
2099.00,0.0306
2098.00,0.0304
2097.00,0.0302
2096.00,0.0299
2095.00,0.0296
2094.00,0.0295
2093.00,0.0296
2092.00,0.0298
2091.00,0.0300
2090.00,0.0303
2089.00,0.0303
2088.00,0.0303
2087.00,0.0302
2086.00,0.0300
2085.00,0.0299
2084.00,0.0298
2083.00,0.0298
2082.00,0.0300
2081.00,0.0302
2080.00,0.0304
2079.00,0.0306
2078.00,0.0306
2077.00,0.0305
2076.00,0.0302
2075.00,0.0298
2074.00,0.0296
2073.00,0.0295
2072.00,0.0295
2071.00,0.0298
2070.00,0.0300
2069.00,0.0302
2068.00,0.0303
2067.00,0.0301
2066.00,0.0298
2065.00,0.0295
2064.00,0.0293
2063.00,0.0293
2062.00,0.0295
2061.00,0.0299
2060.00,0.0303
2059.00,0.0306
2058.00,0.0308
2057.00,0.0307
2056.00,0.0304
2055.00,0.0300
2054.00,0.0297
2053.00,0.0297
2052.00,0.0299
2051.00,0.0302
2050.00,0.0305
2049.00,0.0306
2048.00,0.0305
2047.00,0.0302
2046.00,0.0299
2045.00,0.0295
2044.00,0.0293
2043.00,0.0293
2042.00,0.0296
2041.00,0.0303
2040.00,0.0310
2039.00,0.0315
2038.00,0.0317
2037.00,0.0315
2036.00,0.0309
2035.00,0.0303
2034.00,0.0297
2033.00,0.0294
2032.00,0.0294
2031.00,0.0297
2030.00,0.0302
2029.00,0.0307
2028.00,0.0309
2027.00,0.0307
2026.00,0.0302
2025.00,0.0297
2024.00,0.0293
2023.00,0.0291
2022.00,0.0293
2021.00,0.0298
2020.00,0.0303
2019.00,0.0307
2018.00,0.0307
2017.00,0.0304
2016.00,0.0298
2015.00,0.0294
2014.00,0.0291
2013.00,0.0292
2012.00,0.0294
2011.00,0.0298
2010.00,0.0302
2009.00,0.0303
2008.00,0.0301
2007.00,0.0297
2006.00,0.0293
2005.00,0.0291
2004.00,0.0290
2003.00,0.0290
2002.00,0.0292
2001.00,0.0296
2000.00,0.0300
1999.00,0.0304
1998.00,0.0307
1997.00,0.0307
1996.00,0.0306
1995.00,0.0302
1994.00,0.0298
1993.00,0.0294
1992.00,0.0292
1991.00,0.0292
1990.00,0.0294
1989.00,0.0295
1988.00,0.0296
1987.00,0.0295
1986.00,0.0295
1985.00,0.0295
1984.00,0.0295
1983.00,0.0295
1982.00,0.0297
1981.00,0.0298
1980.00,0.0300
1979.00,0.0302
1978.00,0.0302
1977.00,0.0301
1976.00,0.0299
1975.00,0.0296
1974.00,0.0293
1973.00,0.0291
1972.00,0.0289
1971.00,0.0289
1970.00,0.0289
1969.00,0.0291
1968.00,0.0293
1967.00,0.0295
1966.00,0.0296
1965.00,0.0296
1964.00,0.0294
1963.00,0.0291
1962.00,0.0287
1961.00,0.0285
1960.00,0.0284
1959.00,0.0285
1958.00,0.0287
1957.00,0.0287
1956.00,0.0287
1955.00,0.0286
1954.00,0.0284
1953.00,0.0282
1952.00,0.0280
1951.00,0.0279
1950.00,0.0280
1949.00,0.0282
1948.00,0.0285
1947.00,0.0286
1946.00,0.0286
1945.00,0.0286
1944.00,0.0285
1943.00,0.0283
1942.00,0.0281
1941.00,0.0280
1940.00,0.0279
1939.00,0.0280
1938.00,0.0281
1937.00,0.0283
1936.00,0.0285
1935.00,0.0286
1934.00,0.0284
1933.00,0.0282
1932.00,0.0279
1931.00,0.0277
1930.00,0.0277
1929.00,0.0277
1928.00,0.0279
1927.00,0.0280
1926.00,0.0281
1925.00,0.0282
1924.00,0.0281
1923.00,0.0279
1922.00,0.0277
1921.00,0.0276
1920.00,0.0275
1919.00,0.0275
1918.00,0.0276
1917.00,0.0276
1916.00,0.0277
1915.00,0.0278
1914.00,0.0278
1913.00,0.0277
1912.00,0.0276
1911.00,0.0274
1910.00,0.0274
1909.00,0.0274
1908.00,0.0275
1907.00,0.0276
1906.00,0.0277
1905.00,0.0277
1904.00,0.0276
1903.00,0.0274
1902.00,0.0272
1901.00,0.0271
1900.00,0.0270
1899.00,0.0269
1898.00,0.0269
1897.00,0.0269
1896.00,0.0270
1895.00,0.0269
1894.00,0.0269
1893.00,0.0269
1892.00,0.0269
1891.00,0.0268
1890.00,0.0266
1889.00,0.0265
1888.00,0.0265
1887.00,0.0267
1886.00,0.0269
1885.00,0.0270
1884.00,0.0270
1883.00,0.0269
1882.00,0.0267
1881.00,0.0265
1880.00,0.0263
1879.00,0.0261
1878.00,0.0260
1877.00,0.0261
1876.00,0.0262
1875.00,0.0264
1874.00,0.0266
1873.00,0.0266
1872.00,0.0266
1871.00,0.0264
1870.00,0.0261
1869.00,0.0258
1868.00,0.0256
1867.00,0.0257
1866.00,0.0260
1865.00,0.0264
1864.00,0.0266
1863.00,0.0266
1862.00,0.0263
1861.00,0.0260
1860.00,0.0256
1859.00,0.0254
1858.00,0.0254
1857.00,0.0255
1856.00,0.0256
1855.00,0.0258
1854.00,0.0259
1853.00,0.0259
1852.00,0.0257
1851.00,0.0256
1850.00,0.0254
1849.00,0.0254
1848.00,0.0254
1847.00,0.0255
1846.00,0.0258
1845.00,0.0260
1844.00,0.0260
1843.00,0.0258
1842.00,0.0256
1841.00,0.0254
1840.00,0.0251
1839.00,0.0249
1838.00,0.0248
1837.00,0.0248
1836.00,0.0250
1835.00,0.0252
1834.00,0.0254
1833.00,0.0254
1832.00,0.0253
1831.00,0.0249
1830.00,0.0245
1829.00,0.0241
1828.00,0.0241
1827.00,0.0243
1826.00,0.0246
1825.00,0.0248
1824.00,0.0250
1823.00,0.0250
1822.00,0.0250
1821.00,0.0248
1820.00,0.0246
1819.00,0.0244
1818.00,0.0242
1817.00,0.0242
1816.00,0.0243
1815.00,0.0245
1814.00,0.0246
1813.00,0.0247
1812.00,0.0245
1811.00,0.0242
1810.00,0.0240
1809.00,0.0239
1808.00,0.0239
1807.00,0.0241
1806.00,0.0243
1805.00,0.0245
1804.00,0.0247
1803.00,0.0247
1802.00,0.0245
1801.00,0.0243
1800.00,0.0240
1799.00,0.0239
1798.00,0.0240
1797.00,0.0242
1796.00,0.0245
1795.00,0.0247
1794.00,0.0249
1793.00,0.0250
1792.00,0.0247
1791.00,0.0243
1790.00,0.0241
1789.00,0.0242
1788.00,0.0243
1787.00,0.0244
1786.00,0.0246
1785.00,0.0249
1784.00,0.0251
1783.00,0.0252
1782.00,0.0252
1781.00,0.0251
1780.00,0.0250
1779.00,0.0250
1778.00,0.0250
1777.00,0.0252
1776.00,0.0255
1775.00,0.0258
1774.00,0.0262
1773.00,0.0264
1772.00,0.0263
1771.00,0.0259
1770.00,0.0257
1769.00,0.0257
1768.00,0.0257
1767.00,0.0258
1766.00,0.0260
1765.00,0.0263
1764.00,0.0266
1763.00,0.0267
1762.00,0.0267
1761.00,0.0265
1760.00,0.0265
1759.00,0.0264
1758.00,0.0263
1757.00,0.0263
1756.00,0.0265
1755.00,0.0268
1754.00,0.0273
1753.00,0.0278
1752.00,0.0282
1751.00,0.0283
1750.00,0.0280
1749.00,0.0275
1748.00,0.0272
1747.00,0.0271
1746.00,0.0274
1745.00,0.0277
1744.00,0.0281
1743.00,0.0283
1742.00,0.0284
1741.00,0.0285
1740.00,0.0285
1739.00,0.0285
1738.00,0.0285
1737.00,0.0288
1736.00,0.0292
1735.00,0.0301
1734.00,0.0309
1733.00,0.0313
1732.00,0.0312
1731.00,0.0309
1730.00,0.0306
1729.00,0.0305
1728.00,0.0305
1727.00,0.0307
1726.00,0.0311
1725.00,0.0315
1724.00,0.0320
1723.00,0.0324
1722.00,0.0326
1721.00,0.0326
1720.00,0.0324
1719.00,0.0324
1718.00,0.0326
1717.00,0.0330
1716.00,0.0333
1715.00,0.0336
1714.00,0.0339
1713.00,0.0342
1712.00,0.0345
1711.00,0.0345
1710.00,0.0345
1709.00,0.0343
1708.00,0.0342
1707.00,0.0341
1706.00,0.0342
1705.00,0.0345
1704.00,0.0348
1703.00,0.0349
1702.00,0.0351
1701.00,0.0353
1700.00,0.0355
1699.00,0.0355
1698.00,0.0355
1697.00,0.0353
1696.00,0.0352
1695.00,0.0354
1694.00,0.0357
1693.00,0.0358
1692.00,0.0359
1691.00,0.0360
1690.00,0.0359
1689.00,0.0357
1688.00,0.0354
1687.00,0.0352
1686.00,0.0351
1685.00,0.0352
1684.00,0.0352
1683.00,0.0353
1682.00,0.0355
1681.00,0.0356
1680.00,0.0355
1679.00,0.0353
1678.00,0.0350
1677.00,0.0348
1676.00,0.0348
1675.00,0.0351
1674.00,0.0354
1673.00,0.0357
1672.00,0.0359
1671.00,0.0360
1670.00,0.0358
1669.00,0.0355
1668.00,0.0354
1667.00,0.0354
1666.00,0.0355
1665.00,0.0356
1664.00,0.0359
1663.00,0.0362
1662.00,0.0365
1661.00,0.0367
1660.00,0.0368
1659.00,0.0368
1658.00,0.0366
1657.00,0.0362
1656.00,0.0358
1655.00,0.0356
1654.00,0.0362
1653.00,0.0371
1652.00,0.0379
1651.00,0.0383
1650.00,0.0380
1649.00,0.0376
1648.00,0.0374
1647.00,0.0373
1646.00,0.0374
1645.00,0.0378
1644.00,0.0383
1643.00,0.0388
1642.00,0.0392
1641.00,0.0394
1640.00,0.0394
1639.00,0.0393
1638.00,0.0390
1637.00,0.0387
1636.00,0.0386
1635.00,0.0389
1634.00,0.0395
1633.00,0.0402
1632.00,0.0407
1631.00,0.0410
1630.00,0.0412
1629.00,0.0412
1628.00,0.0410
1627.00,0.0409
1626.00,0.0409
1625.00,0.0411
1624.00,0.0417
1623.00,0.0424
1622.00,0.0430
1621.00,0.0433
1620.00,0.0433
1619.00,0.0433
1618.00,0.0433
1617.00,0.0433
1616.00,0.0433
1615.00,0.0434
1614.00,0.0437
1613.00,0.0440
1612.00,0.0445
1611.00,0.0449
1610.00,0.0452
1609.00,0.0451
1608.00,0.0450
1607.00,0.0449
1606.00,0.0449
1605.00,0.0450
1604.00,0.0453
1603.00,0.0458
1602.00,0.0461
1601.00,0.0463
1600.00,0.0463
1599.00,0.0462
1598.00,0.0460
1597.00,0.0459
1596.00,0.0458
1595.00,0.0459
1594.00,0.0462
1593.00,0.0465
1592.00,0.0468
1591.00,0.0470
1590.00,0.0471
1589.00,0.0470
1588.00,0.0469
1587.00,0.0468
1586.00,0.0468
1585.00,0.0469
1584.00,0.0471
1583.00,0.0474
1582.00,0.0477
1581.00,0.0478
1580.00,0.0478
1579.00,0.0477
1578.00,0.0477
1577.00,0.0477
1576.00,0.0477
1575.00,0.0477
1574.00,0.0477
1573.00,0.0476
1572.00,0.0476
1571.00,0.0477
1570.00,0.0478
1569.00,0.0476
1568.00,0.0474
1567.00,0.0473
1566.00,0.0471
1565.00,0.0471
1564.00,0.0471
1563.00,0.0472
1562.00,0.0472
1561.00,0.0471
1560.00,0.0477
1559.00,0.0481
1558.00,0.0475
1557.00,0.0471
1556.00,0.0470
1555.00,0.0469
1554.00,0.0469
1553.00,0.0469
1552.00,0.0469
1551.00,0.0469
1550.00,0.0469
1549.00,0.0467
1548.00,0.0464
1547.00,0.0461
1546.00,0.0458
1545.00,0.0456
1544.00,0.0456
1543.00,0.0457
1542.00,0.0461
1541.00,0.0466
1540.00,0.0464
1539.00,0.0457
1538.00,0.0453
1537.00,0.0449
1536.00,0.0444
1535.00,0.0439
1534.00,0.0437
1533.00,0.0437
1532.00,0.0439
1531.00,0.0442
1530.00,0.0443
1529.00,0.0443
1528.00,0.0441
1527.00,0.0437
1526.00,0.0434
1525.00,0.0431
1524.00,0.0430
1523.00,0.0432
1522.00,0.0436
1521.00,0.0437
1520.00,0.0435
1519.00,0.0431
1518.00,0.0426
1517.00,0.0420
1516.00,0.0417
1515.00,0.0416
1514.00,0.0418
1513.00,0.0421
1512.00,0.0424
1511.00,0.0427
1510.00,0.0428
1509.00,0.0428
1508.00,0.0426
1507.00,0.0416
1506.00,0.0406
1505.00,0.0407
1504.00,0.0411
1503.00,0.0413
1502.00,0.0413
1501.00,0.0414
1500.00,0.0414
1499.00,0.0412
1498.00,0.0410
1497.00,0.0408
1496.00,0.0406
1495.00,0.0406
1494.00,0.0407
1493.00,0.0409
1492.00,0.0412
1491.00,0.0416
1490.00,0.0417
1489.00,0.0413
1488.00,0.0408
1487.00,0.0404
1486.00,0.0402
1485.00,0.0402
1484.00,0.0403
1483.00,0.0404
1482.00,0.0406
1481.00,0.0407
1480.00,0.0407
1479.00,0.0406
1478.00,0.0404
1477.00,0.0402
1476.00,0.0401
1475.00,0.0403
1474.00,0.0406
1473.00,0.0409
1472.00,0.0409
1471.00,0.0409
1470.00,0.0409
1469.00,0.0409
1468.00,0.0407
1467.00,0.0405
1466.00,0.0404
1465.00,0.0403
1464.00,0.0404
1463.00,0.0406
1462.00,0.0407
1461.00,0.0407
1460.00,0.0407
1459.00,0.0408
1458.00,0.0411
1457.00,0.0412
1456.00,0.0412
1455.00,0.0413
1454.00,0.0413
1453.00,0.0413
1452.00,0.0415
1451.00,0.0417
1450.00,0.0418
1449.00,0.0419
1448.00,0.0419
1447.00,0.0419
1446.00,0.0418
1445.00,0.0418
1444.00,0.0419
1443.00,0.0420
1442.00,0.0421
1441.00,0.0422
1440.00,0.0422
1439.00,0.0422
1438.00,0.0423
1437.00,0.0424
1436.00,0.0426
1435.00,0.0427
1434.00,0.0427
1433.00,0.0427
1432.00,0.0428
1431.00,0.0430
1430.00,0.0430
1429.00,0.0431
1428.00,0.0432
1427.00,0.0432
1426.00,0.0431
1425.00,0.0431
1424.00,0.0430
1423.00,0.0430
1422.00,0.0430
1421.00,0.0430
1420.00,0.0432
1419.00,0.0434
1418.00,0.0434
1417.00,0.0434
1416.00,0.0434
1415.00,0.0434
1414.00,0.0434
1413.00,0.0435
1412.00,0.0436
1411.00,0.0437
1410.00,0.0438
1409.00,0.0439
1408.00,0.0439
1407.00,0.0438
1406.00,0.0437
1405.00,0.0436
1404.00,0.0437
1403.00,0.0438
1402.00,0.0439
1401.00,0.0440
1400.00,0.0442
1399.00,0.0443
1398.00,0.0444
1397.00,0.0443
1396.00,0.0442
1395.00,0.0441
1394.00,0.0441
1393.00,0.0441
1392.00,0.0443
1391.00,0.0444
1390.00,0.0444
1389.00,0.0446
1388.00,0.0447
1387.00,0.0448
1386.00,0.0448
1385.00,0.0448
1384.00,0.0448
1383.00,0.0449
1382.00,0.0450
1381.00,0.0451
1380.00,0.0452
1379.00,0.0452
1378.00,0.0452
1377.00,0.0452
1376.00,0.0452
1375.00,0.0453
1374.00,0.0454
1373.00,0.0454
1372.00,0.0455
1371.00,0.0455
1370.00,0.0456
1369.00,0.0456
1368.00,0.0455
1367.00,0.0455
1366.00,0.0455
1365.00,0.0455
1364.00,0.0456
1363.00,0.0456
1362.00,0.0457
1361.00,0.0457
1360.00,0.0457
1359.00,0.0456
1358.00,0.0456
1357.00,0.0457
1356.00,0.0457
1355.00,0.0458
1354.00,0.0458
1353.00,0.0459
1352.00,0.0458
1351.00,0.0458
1350.00,0.0457
1349.00,0.0457
1348.00,0.0456
1347.00,0.0457
1346.00,0.0457
1345.00,0.0458
1344.00,0.0459
1343.00,0.0459
1342.00,0.0459
1341.00,0.0459
1340.00,0.0458
1339.00,0.0457
1338.00,0.0457
1337.00,0.0457
1336.00,0.0458
1335.00,0.0459
1334.00,0.0459
1333.00,0.0459
1332.00,0.0459
1331.00,0.0458
1330.00,0.0457
1329.00,0.0456
1328.00,0.0456
1327.00,0.0457
1326.00,0.0458
1325.00,0.0459
1324.00,0.0460
1323.00,0.0460
1322.00,0.0460
1321.00,0.0460
1320.00,0.0459
1319.00,0.0459
1318.00,0.0460
1317.00,0.0461
1316.00,0.0463
1315.00,0.0465
1314.00,0.0465
1313.00,0.0465
1312.00,0.0464
1311.00,0.0462
1310.00,0.0461
1309.00,0.0461
1308.00,0.0461
1307.00,0.0462
1306.00,0.0463
1305.00,0.0464
1304.00,0.0465
1303.00,0.0465
1302.00,0.0465
1301.00,0.0465
1300.00,0.0465
1299.00,0.0466
1298.00,0.0467
1297.00,0.0469
1296.00,0.0471
1295.00,0.0472
1294.00,0.0473
1293.00,0.0473
1292.00,0.0473
1291.00,0.0472
1290.00,0.0472
1289.00,0.0472
1288.00,0.0473
1287.00,0.0474
1286.00,0.0474
1285.00,0.0475
1284.00,0.0475
1283.00,0.0476
1282.00,0.0477
1281.00,0.0478
1280.00,0.0479
1279.00,0.0479
1278.00,0.0480
1277.00,0.0480
1276.00,0.0481
1275.00,0.0483
1274.00,0.0484
1273.00,0.0484
1272.00,0.0484
1271.00,0.0485
1270.00,0.0485
1269.00,0.0485
1268.00,0.0485
1267.00,0.0486
1266.00,0.0486
1265.00,0.0487
1264.00,0.0488
1263.00,0.0489
1262.00,0.0490
1261.00,0.0491
1260.00,0.0492
1259.00,0.0492
1258.00,0.0493
1257.00,0.0493
1256.00,0.0494
1255.00,0.0495
1254.00,0.0496
1253.00,0.0496
1252.00,0.0497
1251.00,0.0497
1250.00,0.0496
1249.00,0.0496
1248.00,0.0495
1247.00,0.0495
1246.00,0.0495
1245.00,0.0496
1244.00,0.0498
1243.00,0.0499
1242.00,0.0501
1241.00,0.0502
1240.00,0.0502
1239.00,0.0502
1238.00,0.0502
1237.00,0.0502
1236.00,0.0502
1235.00,0.0504
1234.00,0.0506
1233.00,0.0508
1232.00,0.0510
1231.00,0.0510
1230.00,0.0510
1229.00,0.0508
1228.00,0.0507
1227.00,0.0507
1226.00,0.0507
1225.00,0.0508
1224.00,0.0509
1223.00,0.0510
1222.00,0.0511
1221.00,0.0510
1220.00,0.0509
1219.00,0.0507
1218.00,0.0506
1217.00,0.0505
1216.00,0.0505
1215.00,0.0507
1214.00,0.0508
1213.00,0.0510
1212.00,0.0511
1211.00,0.0511
1210.00,0.0510
1209.00,0.0510
1208.00,0.0509
1207.00,0.0509
1206.00,0.0510
1205.00,0.0511
1204.00,0.0513
1203.00,0.0514
1202.00,0.0514
1201.00,0.0513
1200.00,0.0512
1199.00,0.0510
1198.00,0.0509
1197.00,0.0509
1196.00,0.0510
1195.00,0.0511
1194.00,0.0511
1193.00,0.0511
1192.00,0.0512
1191.00,0.0512
1190.00,0.0511
1189.00,0.0511
1188.00,0.0511
1187.00,0.0511
1186.00,0.0511
1185.00,0.0512
1184.00,0.0513
1183.00,0.0512
1182.00,0.0511
1181.00,0.0510
1180.00,0.0509
1179.00,0.0509
1178.00,0.0509
1177.00,0.0510
1176.00,0.0510
1175.00,0.0509
1174.00,0.0509
1173.00,0.0508
1172.00,0.0508
1171.00,0.0509
1170.00,0.0511
1169.00,0.0513
1168.00,0.0514
1167.00,0.0515
1166.00,0.0514
1165.00,0.0513
1164.00,0.0511
1163.00,0.0511
1162.00,0.0511
1161.00,0.0512
1160.00,0.0512
1159.00,0.0510
1158.00,0.0509
1157.00,0.0506
1156.00,0.0504
1155.00,0.0502
1154.00,0.0501
1153.00,0.0501
1152.00,0.0502
1151.00,0.0505
1150.00,0.0509
1149.00,0.0512
1148.00,0.0512
1147.00,0.0511
1146.00,0.0509
1145.00,0.0508
1144.00,0.0507
1143.00,0.0507
1142.00,0.0508
1141.00,0.0509
1140.00,0.0510
1139.00,0.0509
1138.00,0.0508
1137.00,0.0505
1136.00,0.0502
1135.00,0.0500
1134.00,0.0500
1133.00,0.0501
1132.00,0.0503
1131.00,0.0506
1130.00,0.0509
1129.00,0.0512
1128.00,0.0512
1127.00,0.0511
1126.00,0.0510
1125.00,0.0509
1124.00,0.0509
1123.00,0.0511
1122.00,0.0514
1121.00,0.0517
1120.00,0.0520
1119.00,0.0521
1118.00,0.0521
1117.00,0.0521
1116.00,0.0520
1115.00,0.0519
1114.00,0.0520
1113.00,0.0521
1112.00,0.0524
1111.00,0.0527
1110.00,0.0529
1109.00,0.0529
1108.00,0.0529
1107.00,0.0528
1106.00,0.0526
1105.00,0.0524
1104.00,0.0523
1103.00,0.0523
1102.00,0.0525
1101.00,0.0527
1100.00,0.0528
1099.00,0.0528
1098.00,0.0528
1097.00,0.0526
1096.00,0.0525
1095.00,0.0525
1094.00,0.0526
1093.00,0.0528
1092.00,0.0530
1091.00,0.0531
1090.00,0.0532
1089.00,0.0532
1088.00,0.0532
1087.00,0.0532
1086.00,0.0530
1085.00,0.0529
1084.00,0.0529
1083.00,0.0528
1082.00,0.0528
1081.00,0.0528
1080.00,0.0529
1079.00,0.0530
1078.00,0.0531
1077.00,0.0533
1076.00,0.0535
1075.00,0.0536
1074.00,0.0535
1073.00,0.0532
1072.00,0.0529
1071.00,0.0527
1070.00,0.0527
1069.00,0.0529
1068.00,0.0532
1067.00,0.0535
1066.00,0.0536
1065.00,0.0536
1064.00,0.0536
1063.00,0.0534
1062.00,0.0533
1061.00,0.0533
1060.00,0.0536
1059.00,0.0540
1058.00,0.0546
1057.00,0.0551
1056.00,0.0554
1055.00,0.0554
1054.00,0.0551
1053.00,0.0547
1052.00,0.0543
1051.00,0.0541
1050.00,0.0541
1049.00,0.0544
1048.00,0.0548
1047.00,0.0551
1046.00,0.0551
1045.00,0.0550
1044.00,0.0545
1043.00,0.0540
1042.00,0.0536
1041.00,0.0535
1040.00,0.0539
1039.00,0.0545
1038.00,0.0553
1037.00,0.0558
1036.00,0.0560
1035.00,0.0558
1034.00,0.0552
1033.00,0.0546
1032.00,0.0541
1031.00,0.0539
1030.00,0.0540
1029.00,0.0543
1028.00,0.0546
1027.00,0.0547
1026.00,0.0546
1025.00,0.0543
1024.00,0.0539
1023.00,0.0534
1022.00,0.0530
1021.00,0.0529
1020.00,0.0531
1019.00,0.0535
1018.00,0.0539
1017.00,0.0541
1016.00,0.0541
1015.00,0.0538
1014.00,0.0534
1013.00,0.0528
1012.00,0.0523
1011.00,0.0519
1010.00,0.0517
1009.00,0.0519
1008.00,0.0523
1007.00,0.0527
1006.00,0.0530
1005.00,0.0529
1004.00,0.0527
1003.00,0.0523
1002.00,0.0518
1001.00,0.0513
1000.00,0.0511
999.00,0.0512
998.00,0.0515
997.00,0.0519
996.00,0.0521
995.00,0.0521
994.00,0.0517
993.00,0.0510
992.00,0.0503
991.00,0.0496
990.00,0.0492
989.00,0.0491
988.00,0.0494
987.00,0.0499
986.00,0.0503
985.00,0.0505
984.00,0.0504
983.00,0.0499
982.00,0.0491
981.00,0.0483
980.00,0.0478
979.00,0.0478
978.00,0.0482
977.00,0.0488
976.00,0.0495
975.00,0.0498
974.00,0.0496
973.00,0.0488
972.00,0.0478
971.00,0.0469
970.00,0.0464
969.00,0.0465
968.00,0.0472
967.00,0.0481
966.00,0.0489
965.00,0.0493
964.00,0.0492
963.00,0.0484
962.00,0.0473
961.00,0.0461
960.00,0.0454
959.00,0.0453
958.00,0.0459
957.00,0.0470
956.00,0.0481
955.00,0.0487
954.00,0.0485
953.00,0.0477
952.00,0.0465
951.00,0.0453
950.00,0.0447
949.00,0.0448
948.00,0.0457
947.00,0.0470
946.00,0.0482
945.00,0.0489
944.00,0.0488
943.00,0.0479
942.00,0.0465
941.00,0.0451
940.00,0.0442
939.00,0.0442
938.00,0.0452
937.00,0.0467
936.00,0.0483
935.00,0.0493
934.00,0.0493
933.00,0.0484
932.00,0.0468
931.00,0.0453
930.00,0.0444
929.00,0.0444
928.00,0.0455
927.00,0.0471
926.00,0.0488
925.00,0.0497
924.00,0.0496
923.00,0.0484
922.00,0.0466
921.00,0.0449
920.00,0.0440
919.00,0.0441
918.00,0.0455
917.00,0.0475
916.00,0.0496
915.00,0.0509
914.00,0.0511
913.00,0.0500
912.00,0.0483
911.00,0.0464
910.00,0.0453
909.00,0.0454
908.00,0.0466
907.00,0.0486
906.00,0.0506
905.00,0.0517
904.00,0.0516
903.00,0.0503
902.00,0.0483
901.00,0.0462
900.00,0.0450
899.00,0.0449
898.00,0.0461
897.00,0.0480
896.00,0.0501
895.00,0.0515
894.00,0.0515
893.00,0.0502
892.00,0.0480
891.00,0.0458
890.00,0.0444
889.00,0.0444
888.00,0.0457
887.00,0.0478
886.00,0.0500
885.00,0.0515
884.00,0.0519
883.00,0.0509
882.00,0.0489
881.00,0.0468
880.00,0.0453
879.00,0.0449
878.00,0.0459
877.00,0.0479
876.00,0.0503
875.00,0.0521
874.00,0.0526
873.00,0.0516
872.00,0.0493
871.00,0.0468
870.00,0.0449
869.00,0.0442
868.00,0.0452
867.00,0.0473
866.00,0.0498
865.00,0.0517
864.00,0.0522
863.00,0.0512
862.00,0.0491
861.00,0.0466
860.00,0.0446
859.00,0.0439
858.00,0.0447
857.00,0.0467
856.00,0.0493
855.00,0.0514
854.00,0.0524
853.00,0.0518
852.00,0.0497
851.00,0.0470
850.00,0.0447
849.00,0.0438
848.00,0.0446
847.00,0.0470
846.00,0.0502
845.00,0.0528
844.00,0.0540
843.00,0.0532
842.00,0.0507
841.00,0.0477
840.00,0.0453
839.00,0.0445
838.00,0.0456
837.00,0.0481
836.00,0.0511
835.00,0.0534
834.00,0.0543
833.00,0.0532
832.00,0.0507
831.00,0.0475
830.00,0.0449
829.00,0.0439
828.00,0.0450
827.00,0.0480
826.00,0.0521
825.00,0.0556
824.00,0.0570
823.00,0.0558
822.00,0.0527
821.00,0.0490
820.00,0.0462
819.00,0.0453
818.00,0.0465
817.00,0.0493
816.00,0.0526
815.00,0.0553
814.00,0.0564
813.00,0.0554
812.00,0.0528
811.00,0.0497
810.00,0.0471
809.00,0.0460
808.00,0.0470
807.00,0.0497
806.00,0.0530
805.00,0.0558
804.00,0.0570
803.00,0.0563
802.00,0.0541
801.00,0.0512
800.00,0.0488
799.00,0.0478
798.00,0.0486
797.00,0.0509
796.00,0.0539
795.00,0.0565
794.00,0.0575
793.00,0.0567
792.00,0.0544
791.00,0.0515
790.00,0.0492
789.00,0.0482
788.00,0.0486
787.00,0.0505
786.00,0.0530
785.00,0.0555
784.00,0.0568
783.00,0.0565
782.00,0.0548
781.00,0.0523
780.00,0.0502
779.00,0.0493
778.00,0.0499
777.00,0.0518
776.00,0.0543
775.00,0.0566
774.00,0.0578
773.00,0.0574
772.00,0.0556
771.00,0.0530
770.00,0.0508
769.00,0.0496
768.00,0.0498
767.00,0.0515
766.00,0.0540
765.00,0.0565
764.00,0.0579
763.00,0.0580
762.00,0.0566
761.00,0.0545
760.00,0.0524
759.00,0.0512
758.00,0.0513
757.00,0.0527
756.00,0.0549
755.00,0.0570
754.00,0.0583
753.00,0.0585
752.00,0.0574
751.00,0.0554
750.00,0.0531
749.00,0.0515
748.00,0.0511
747.00,0.0521
746.00,0.0540
745.00,0.0561
744.00,0.0578
743.00,0.0584
742.00,0.0577
741.00,0.0559
740.00,0.0537
739.00,0.0518
738.00,0.0511
737.00,0.0517
736.00,0.0535
735.00,0.0559
734.00,0.0580
733.00,0.0590
732.00,0.0585
731.00,0.0567
730.00,0.0543
729.00,0.0522
728.00,0.0511
727.00,0.0514
726.00,0.0529
725.00,0.0550
724.00,0.0572
723.00,0.0585
722.00,0.0586
721.00,0.0572
720.00,0.0548
719.00,0.0522
718.00,0.0507
717.00,0.0508
716.00,0.0527
715.00,0.0555
714.00,0.0582
713.00,0.0598
712.00,0.0597
711.00,0.0580
710.00,0.0555
709.00,0.0532
708.00,0.0519
707.00,0.0522
706.00,0.0538
705.00,0.0562
704.00,0.0585
703.00,0.0602
702.00,0.0605
701.00,0.0593
700.00,0.0568
699.00,0.0540
698.00,0.0522
697.00,0.0521
696.00,0.0538
695.00,0.0565
694.00,0.0593
693.00,0.0612
692.00,0.0615
691.00,0.0600
690.00,0.0574
689.00,0.0545
688.00,0.0526
687.00,0.0521
686.00,0.0532
685.00,0.0557
684.00,0.0587
683.00,0.0612
682.00,0.0622
681.00,0.0614
680.00,0.0593
679.00,0.0565
678.00,0.0541
677.00,0.0528
676.00,0.0531
675.00,0.0549
674.00,0.0574
673.00,0.0600
672.00,0.0618
671.00,0.0625
670.00,0.0617
669.00,0.0591
668.00,0.0561
667.00,0.0552
666.00,0.0559
665.00,0.0576
664.00,0.0601
663.00,0.0629
662.00,0.0648
661.00,0.0649
660.00,0.0631
659.00,0.0594
658.00,0.0547
657.00,0.0505
656.00,0.0484
655.00,0.0492
654.00,0.0529
653.00,0.0581
652.00,0.0628
651.00,0.0650
650.00,0.0643
