Created as New Dataset,Monday, April 03 2023
cm-1,A
4000.00,0.0141
3999.00,0.0141
3998.00,0.0141
3997.00,0.0141
3996.00,0.0141
3995.00,0.0141
3994.00,0.0141
3993.00,0.0141
3992.00,0.0141
3991.00,0.0141
3990.00,0.0141
3989.00,0.0141
3988.00,0.0140
3987.00,0.0140
3986.00,0.0140
3985.00,0.0140
3984.00,0.0140
3983.00,0.0139
3982.00,0.0139
3981.00,0.0139
3980.00,0.0139
3979.00,0.0139
3978.00,0.0139
3977.00,0.0140
3976.00,0.0139
3975.00,0.0139
3974.00,0.0139
3973.00,0.0139
3972.00,0.0139
3971.00,0.0139
3970.00,0.0139
3969.00,0.0138
3968.00,0.0138
3967.00,0.0139
3966.00,0.0139
3965.00,0.0139
3964.00,0.0139
3963.00,0.0139
3962.00,0.0138
3961.00,0.0138
3960.00,0.0138
3959.00,0.0138
3958.00,0.0138
3957.00,0.0138
3956.00,0.0138
3955.00,0.0137
3954.00,0.0137
3953.00,0.0137
3952.00,0.0138
3951.00,0.0138
3950.00,0.0138
3949.00,0.0138
3948.00,0.0139
3947.00,0.0139
3946.00,0.0139
3945.00,0.0139
3944.00,0.0138
3943.00,0.0137
3942.00,0.0136
3941.00,0.0136
3940.00,0.0136
3939.00,0.0136
3938.00,0.0136
3937.00,0.0137
3936.00,0.0137
3935.00,0.0138
3934.00,0.0139
3933.00,0.0139
3932.00,0.0138
3931.00,0.0138
3930.00,0.0137
3929.00,0.0136
3928.00,0.0136
3927.00,0.0135
3926.00,0.0134
3925.00,0.0134
3924.00,0.0134
3923.00,0.0135
3922.00,0.0135
3921.00,0.0136
3920.00,0.0136
3919.00,0.0137
3918.00,0.0137
3917.00,0.0136
3916.00,0.0136
3915.00,0.0135
3914.00,0.0134
3913.00,0.0134
3912.00,0.0134
3911.00,0.0134
3910.00,0.0135
3909.00,0.0135
3908.00,0.0135
3907.00,0.0136
3906.00,0.0136
3905.00,0.0137
3904.00,0.0139
3903.00,0.0139
3902.00,0.0140
3901.00,0.0139
3900.00,0.0137
3899.00,0.0136
3898.00,0.0135
3897.00,0.0135
3896.00,0.0136
3895.00,0.0135
3894.00,0.0135
3893.00,0.0134
3892.00,0.0133
3891.00,0.0134
3890.00,0.0134
3889.00,0.0135
3888.00,0.0136
3887.00,0.0136
3886.00,0.0136
3885.00,0.0135
3884.00,0.0135
3883.00,0.0134
3882.00,0.0132
3881.00,0.0130
3880.00,0.0130
3879.00,0.0131
3878.00,0.0132
3877.00,0.0133
3876.00,0.0132
3875.00,0.0131
3874.00,0.0131
3873.00,0.0132
3872.00,0.0133
3871.00,0.0133
3870.00,0.0133
3869.00,0.0133
3868.00,0.0134
3867.00,0.0135
3866.00,0.0135
3865.00,0.0134
3864.00,0.0132
3863.00,0.0131
3862.00,0.0132
3861.00,0.0132
3860.00,0.0133
3859.00,0.0132
3858.00,0.0132
3857.00,0.0132
3856.00,0.0133
3855.00,0.0135
3854.00,0.0135
3853.00,0.0134
3852.00,0.0132
3851.00,0.0131
3850.00,0.0131
3849.00,0.0131
3848.00,0.0131
3847.00,0.0130
3846.00,0.0130
3845.00,0.0130
3844.00,0.0130
3843.00,0.0130
3842.00,0.0131
3841.00,0.0131
3840.00,0.0131
3839.00,0.0131
3838.00,0.0131
3837.00,0.0130
3836.00,0.0129
3835.00,0.0129
3834.00,0.0129
3833.00,0.0129
3832.00,0.0129
3831.00,0.0130
3830.00,0.0130
3829.00,0.0129
3828.00,0.0128
3827.00,0.0127
3826.00,0.0127
3825.00,0.0128
3824.00,0.0130
3823.00,0.0130
3822.00,0.0130
3821.00,0.0129
3820.00,0.0129
3819.00,0.0129
3818.00,0.0129
3817.00,0.0128
3816.00,0.0126
3815.00,0.0125
3814.00,0.0125
3813.00,0.0126
3812.00,0.0126
3811.00,0.0125
3810.00,0.0125
3809.00,0.0125
3808.00,0.0126
3807.00,0.0126
3806.00,0.0127
3805.00,0.0127
3804.00,0.0127
3803.00,0.0127
3802.00,0.0126
3801.00,0.0125
3800.00,0.0125
3799.00,0.0125
3798.00,0.0124
3797.00,0.0123
3796.00,0.0123
3795.00,0.0123
3794.00,0.0123
3793.00,0.0123
3792.00,0.0122
3791.00,0.0122
3790.00,0.0122
3789.00,0.0122
3788.00,0.0122
3787.00,0.0122
3786.00,0.0121
3785.00,0.0121
3784.00,0.0121
3783.00,0.0121
3782.00,0.0121
3781.00,0.0121
3780.00,0.0120
3779.00,0.0119
3778.00,0.0119
3777.00,0.0120
3776.00,0.0121
3775.00,0.0121
3774.00,0.0121
3773.00,0.0121
3772.00,0.0122
3771.00,0.0122
3770.00,0.0122
3769.00,0.0122
3768.00,0.0122
3767.00,0.0122
3766.00,0.0122
3765.00,0.0122
3764.00,0.0122
3763.00,0.0123
3762.00,0.0123
3761.00,0.0123
3760.00,0.0123
3759.00,0.0122
3758.00,0.0122
3757.00,0.0123
3756.00,0.0123
3755.00,0.0124
3754.00,0.0125
3753.00,0.0127
3752.00,0.0129
3751.00,0.0130
3750.00,0.0131
3749.00,0.0131
3748.00,0.0129
3747.00,0.0128
3746.00,0.0127
3745.00,0.0126
3744.00,0.0126
3743.00,0.0126
3742.00,0.0126
3741.00,0.0126
3740.00,0.0126
3739.00,0.0126
3738.00,0.0127
3737.00,0.0127
3736.00,0.0126
3735.00,0.0124
3734.00,0.0123
3733.00,0.0123
3732.00,0.0123
3731.00,0.0123
3730.00,0.0122
3729.00,0.0122
3728.00,0.0123
3727.00,0.0123
3726.00,0.0123
3725.00,0.0122
3724.00,0.0121
3723.00,0.0120
3722.00,0.0119
3721.00,0.0118
3720.00,0.0117
3719.00,0.0117
3718.00,0.0117
3717.00,0.0118
3716.00,0.0119
3715.00,0.0120
3714.00,0.0121
3713.00,0.0122
3712.00,0.0121
3711.00,0.0120
3710.00,0.0120
3709.00,0.0120
3708.00,0.0121
3707.00,0.0121
3706.00,0.0120
3705.00,0.0119
3704.00,0.0118
3703.00,0.0118
3702.00,0.0118
3701.00,0.0119
3700.00,0.0120
3699.00,0.0121
3698.00,0.0122
3697.00,0.0122
3696.00,0.0122
3695.00,0.0122
3694.00,0.0122
3693.00,0.0122
3692.00,0.0122
3691.00,0.0122
3690.00,0.0122
3689.00,0.0123
3688.00,0.0123
3687.00,0.0123
3686.00,0.0123
3685.00,0.0123
3684.00,0.0123
3683.00,0.0123
3682.00,0.0123
3681.00,0.0123
3680.00,0.0123
3679.00,0.0124
3678.00,0.0125
3677.00,0.0126
3676.00,0.0126
3675.00,0.0127
3674.00,0.0129
3673.00,0.0131
3672.00,0.0132
3671.00,0.0132
3670.00,0.0130
3669.00,0.0130
3668.00,0.0130
3667.00,0.0131
3666.00,0.0131
3665.00,0.0131
3664.00,0.0132
3663.00,0.0133
3662.00,0.0134
3661.00,0.0136
3660.00,0.0137
3659.00,0.0139
3658.00,0.0141
3657.00,0.0143
3656.00,0.0145
3655.00,0.0146
3654.00,0.0147
3653.00,0.0148
3652.00,0.0149
3651.00,0.0152
3650.00,0.0156
3649.00,0.0159
3648.00,0.0159
3647.00,0.0160
3646.00,0.0161
3645.00,0.0161
3644.00,0.0162
3643.00,0.0162
3642.00,0.0163
3641.00,0.0163
3640.00,0.0164
3639.00,0.0166
3638.00,0.0167
3637.00,0.0168
3636.00,0.0170
3635.00,0.0172
3634.00,0.0174
3633.00,0.0175
3632.00,0.0178
3631.00,0.0181
3630.00,0.0185
3629.00,0.0189
3628.00,0.0192
3627.00,0.0193
3626.00,0.0193
3625.00,0.0193
3624.00,0.0192
3623.00,0.0192
3622.00,0.0193
3621.00,0.0195
3620.00,0.0198
3619.00,0.0200
3618.00,0.0202
3617.00,0.0203
3616.00,0.0203
3615.00,0.0203
3614.00,0.0203
3613.00,0.0205
3612.00,0.0207
3611.00,0.0210
3610.00,0.0212
3609.00,0.0213
3608.00,0.0213
3607.00,0.0213
3606.00,0.0213
3605.00,0.0214
3604.00,0.0214
3603.00,0.0214
3602.00,0.0214
3601.00,0.0215
3600.00,0.0216
3599.00,0.0216
3598.00,0.0217
3597.00,0.0218
3596.00,0.0219
3595.00,0.0221
3594.00,0.0223
3593.00,0.0225
3592.00,0.0226
3591.00,0.0227
3590.00,0.0227
3589.00,0.0228
3588.00,0.0230
3587.00,0.0232
3586.00,0.0234
3585.00,0.0235
3584.00,0.0235
3583.00,0.0234
3582.00,0.0234
3581.00,0.0234
3580.00,0.0235
3579.00,0.0236
3578.00,0.0237
3577.00,0.0238
3576.00,0.0238
3575.00,0.0240
3574.00,0.0241
3573.00,0.0242
3572.00,0.0243
3571.00,0.0243
3570.00,0.0243
3569.00,0.0245
3568.00,0.0248
3567.00,0.0252
3566.00,0.0254
3565.00,0.0255
3564.00,0.0254
3563.00,0.0253
3562.00,0.0253
3561.00,0.0253
3560.00,0.0253
3559.00,0.0254
3558.00,0.0255
3557.00,0.0256
3556.00,0.0257
3555.00,0.0258
3554.00,0.0259
3553.00,0.0260
3552.00,0.0262
3551.00,0.0264
3550.00,0.0265
3549.00,0.0266
3548.00,0.0267
3547.00,0.0268
3546.00,0.0270
3545.00,0.0271
3544.00,0.0271
3543.00,0.0271
3542.00,0.0271
3541.00,0.0270
3540.00,0.0270
3539.00,0.0271
3538.00,0.0272
3537.00,0.0273
3536.00,0.0274
3535.00,0.0275
3534.00,0.0276
3533.00,0.0276
3532.00,0.0277
3531.00,0.0277
3530.00,0.0278
3529.00,0.0279
3528.00,0.0281
3527.00,0.0282
3526.00,0.0284
3525.00,0.0285
3524.00,0.0285
3523.00,0.0286
3522.00,0.0286
3521.00,0.0286
3520.00,0.0287
3519.00,0.0287
3518.00,0.0288
3517.00,0.0289
3516.00,0.0290
3515.00,0.0290
3514.00,0.0291
3513.00,0.0291
3512.00,0.0291
3511.00,0.0292
3510.00,0.0293
3509.00,0.0294
3508.00,0.0295
3507.00,0.0296
3506.00,0.0297
3505.00,0.0297
3504.00,0.0298
3503.00,0.0299
3502.00,0.0300
3501.00,0.0301
3500.00,0.0301
3499.00,0.0301
3498.00,0.0302
3497.00,0.0302
3496.00,0.0303
3495.00,0.0304
3494.00,0.0305
3493.00,0.0306
3492.00,0.0306
3491.00,0.0306
3490.00,0.0307
3489.00,0.0307
3488.00,0.0308
3487.00,0.0310
3486.00,0.0310
3485.00,0.0311
3484.00,0.0311
3483.00,0.0311
3482.00,0.0312
3481.00,0.0313
3480.00,0.0314
3479.00,0.0315
3478.00,0.0315
3477.00,0.0316
3476.00,0.0316
3475.00,0.0317
3474.00,0.0318
3473.00,0.0319
3472.00,0.0319
3471.00,0.0319
3470.00,0.0319
3469.00,0.0320
3468.00,0.0320
3467.00,0.0321
3466.00,0.0322
3465.00,0.0322
3464.00,0.0323
3463.00,0.0323
3462.00,0.0324
3461.00,0.0325
3460.00,0.0325
3459.00,0.0326
3458.00,0.0326
3457.00,0.0326
3456.00,0.0327
3455.00,0.0327
3454.00,0.0328
3453.00,0.0329
3452.00,0.0329
3451.00,0.0330
3450.00,0.0330
3449.00,0.0331
3448.00,0.0331
3447.00,0.0332
3446.00,0.0333
3445.00,0.0334
3444.00,0.0335
3443.00,0.0335
3442.00,0.0336
3441.00,0.0336
3440.00,0.0336
3439.00,0.0336
3438.00,0.0337
3437.00,0.0338
3436.00,0.0338
3435.00,0.0339
3434.00,0.0340
3433.00,0.0340
3432.00,0.0341
3431.00,0.0341
3430.00,0.0342
3429.00,0.0342
3428.00,0.0343
3427.00,0.0343
3426.00,0.0343
3425.00,0.0343
3424.00,0.0344
3423.00,0.0344
3422.00,0.0345
3421.00,0.0346
3420.00,0.0346
3419.00,0.0347
3418.00,0.0347
3417.00,0.0347
3416.00,0.0347
3415.00,0.0347
3414.00,0.0348
3413.00,0.0348
3412.00,0.0349
3411.00,0.0349
3410.00,0.0349
3409.00,0.0349
3408.00,0.0349
3407.00,0.0350
3406.00,0.0351
3405.00,0.0351
3404.00,0.0352
3403.00,0.0352
3402.00,0.0352
3401.00,0.0352
3400.00,0.0352
3399.00,0.0352
3398.00,0.0353
3397.00,0.0353
3396.00,0.0353
3395.00,0.0354
3394.00,0.0355
3393.00,0.0355
3392.00,0.0356
3391.00,0.0356
3390.00,0.0356
3389.00,0.0357
3388.00,0.0357
3387.00,0.0357
3386.00,0.0358
3385.00,0.0358
3384.00,0.0358
3383.00,0.0358
3382.00,0.0358
3381.00,0.0358
3380.00,0.0357
3379.00,0.0358
3378.00,0.0358
3377.00,0.0359
3376.00,0.0360
3375.00,0.0360
3374.00,0.0360
3373.00,0.0360
3372.00,0.0359
3371.00,0.0358
3370.00,0.0358
3369.00,0.0359
3368.00,0.0359
3367.00,0.0360
3366.00,0.0361
3365.00,0.0362
3364.00,0.0362
3363.00,0.0363
3362.00,0.0363
3361.00,0.0363
3360.00,0.0362
3359.00,0.0362
3358.00,0.0361
3357.00,0.0361
3356.00,0.0362
3355.00,0.0362
3354.00,0.0362
3353.00,0.0363
3352.00,0.0363
3351.00,0.0363
3350.00,0.0364
3349.00,0.0364
3348.00,0.0364
3347.00,0.0363
3346.00,0.0363
3345.00,0.0363
3344.00,0.0363
3343.00,0.0363
3342.00,0.0363
3341.00,0.0363
3340.00,0.0362
3339.00,0.0362
3338.00,0.0362
3337.00,0.0362
3336.00,0.0362
3335.00,0.0363
3334.00,0.0363
3333.00,0.0363
3332.00,0.0363
3331.00,0.0363
3330.00,0.0363
3329.00,0.0363
3328.00,0.0363
3327.00,0.0363
3326.00,0.0364
3325.00,0.0364
3324.00,0.0364
3323.00,0.0364
3322.00,0.0363
3321.00,0.0363
3320.00,0.0363
3319.00,0.0363
3318.00,0.0363
3317.00,0.0364
3316.00,0.0363
3315.00,0.0363
3314.00,0.0363
3313.00,0.0363
3312.00,0.0364
3311.00,0.0364
3310.00,0.0364
3309.00,0.0364
3308.00,0.0364
3307.00,0.0363
3306.00,0.0363
3305.00,0.0362
3304.00,0.0362
3303.00,0.0362
3302.00,0.0363
3301.00,0.0363
3300.00,0.0364
3299.00,0.0364
3298.00,0.0364
3297.00,0.0364
3296.00,0.0364
3295.00,0.0364
3294.00,0.0364
3293.00,0.0364
3292.00,0.0364
3291.00,0.0364
3290.00,0.0364
3289.00,0.0364
3288.00,0.0364
3287.00,0.0364
3286.00,0.0364
3285.00,0.0364
3284.00,0.0364
3283.00,0.0364
3282.00,0.0364
3281.00,0.0364
3280.00,0.0364
3279.00,0.0364
3278.00,0.0364
3277.00,0.0364
3276.00,0.0364
3275.00,0.0364
3274.00,0.0365
3273.00,0.0365
3272.00,0.0365
3271.00,0.0365
3270.00,0.0365
3269.00,0.0365
3268.00,0.0365
3267.00,0.0365
3266.00,0.0365
3265.00,0.0365
3264.00,0.0364
3263.00,0.0364
3262.00,0.0364
3261.00,0.0364
3260.00,0.0364
3259.00,0.0364
3258.00,0.0364
3257.00,0.0364
3256.00,0.0364
3255.00,0.0364
3254.00,0.0364
3253.00,0.0365
3252.00,0.0365
3251.00,0.0365
3250.00,0.0365
3249.00,0.0366
3248.00,0.0366
3247.00,0.0366
3246.00,0.0366
3245.00,0.0366
3244.00,0.0365
3243.00,0.0365
3242.00,0.0365
3241.00,0.0365
3240.00,0.0365
3239.00,0.0366
3238.00,0.0366
3237.00,0.0366
3236.00,0.0366
3235.00,0.0365
3234.00,0.0365
3233.00,0.0365
3232.00,0.0365
3231.00,0.0365
3230.00,0.0366
3229.00,0.0366
3228.00,0.0367
3227.00,0.0367
3226.00,0.0367
3225.00,0.0366
3224.00,0.0366
3223.00,0.0365
3222.00,0.0366
3221.00,0.0366
3220.00,0.0367
3219.00,0.0367
3218.00,0.0366
3217.00,0.0366
3216.00,0.0366
3215.00,0.0366
3214.00,0.0366
3213.00,0.0366
3212.00,0.0366
3211.00,0.0366
3210.00,0.0366
3209.00,0.0366
3208.00,0.0366
3207.00,0.0366
3206.00,0.0366
3205.00,0.0366
3204.00,0.0365
3203.00,0.0365
3202.00,0.0365
3201.00,0.0365
3200.00,0.0365
3199.00,0.0365
3198.00,0.0366
3197.00,0.0366
3196.00,0.0366
3195.00,0.0366
3194.00,0.0365
3193.00,0.0365
3192.00,0.0365
3191.00,0.0365
3190.00,0.0365
3189.00,0.0365
3188.00,0.0365
3187.00,0.0365
3186.00,0.0365
3185.00,0.0365
3184.00,0.0365
3183.00,0.0364
3182.00,0.0364
3181.00,0.0363
3180.00,0.0363
3179.00,0.0362
3178.00,0.0362
3177.00,0.0362
3176.00,0.0362
3175.00,0.0363
3174.00,0.0362
3173.00,0.0362
3172.00,0.0362
3171.00,0.0362
3170.00,0.0362
3169.00,0.0362
3168.00,0.0362
3167.00,0.0362
3166.00,0.0362
3165.00,0.0362
3164.00,0.0362
3163.00,0.0361
3162.00,0.0361
3161.00,0.0361
3160.00,0.0360
3159.00,0.0360
3158.00,0.0360
3157.00,0.0360
3156.00,0.0360
3155.00,0.0359
3154.00,0.0359
3153.00,0.0358
3152.00,0.0358
3151.00,0.0358
3150.00,0.0358
3149.00,0.0358
3148.00,0.0358
3147.00,0.0358
3146.00,0.0358
3145.00,0.0358
3144.00,0.0357
3143.00,0.0357
3142.00,0.0356
3141.00,0.0356
3140.00,0.0356
3139.00,0.0356
3138.00,0.0356
3137.00,0.0356
3136.00,0.0355
3135.00,0.0355
3134.00,0.0354
3133.00,0.0354
3132.00,0.0354
3131.00,0.0354
3130.00,0.0354
3129.00,0.0354
3128.00,0.0354
3127.00,0.0354
3126.00,0.0354
3125.00,0.0354
3124.00,0.0354
3123.00,0.0354
3122.00,0.0353
3121.00,0.0353
3120.00,0.0353
3119.00,0.0353
3118.00,0.0353
3117.00,0.0353
3116.00,0.0352
3115.00,0.0352
3114.00,0.0352
3113.00,0.0351
3112.00,0.0351
3111.00,0.0350
3110.00,0.0350
3109.00,0.0350
3108.00,0.0350
3107.00,0.0350
3106.00,0.0350
3105.00,0.0350
3104.00,0.0350
3103.00,0.0349
3102.00,0.0349
3101.00,0.0349
3100.00,0.0349
3099.00,0.0349
3098.00,0.0348
3097.00,0.0348
3096.00,0.0348
3095.00,0.0348
3094.00,0.0348
3093.00,0.0348
3092.00,0.0348
3091.00,0.0347
3090.00,0.0347
3089.00,0.0347
3088.00,0.0347
3087.00,0.0347
3086.00,0.0347
3085.00,0.0347
3084.00,0.0346
3083.00,0.0346
3082.00,0.0346
3081.00,0.0346
3080.00,0.0346
3079.00,0.0346
3078.00,0.0345
3077.00,0.0345
3076.00,0.0344
3075.00,0.0344
3074.00,0.0344
3073.00,0.0344
3072.00,0.0343
3071.00,0.0343
3070.00,0.0343
3069.00,0.0342
3068.00,0.0342
3067.00,0.0342
3066.00,0.0342
3065.00,0.0342
3064.00,0.0343
3063.00,0.0342
3062.00,0.0342
3061.00,0.0341
3060.00,0.0341
3059.00,0.0340
3058.00,0.0340
3057.00,0.0339
3056.00,0.0339
3055.00,0.0340
3054.00,0.0340
3053.00,0.0339
3052.00,0.0339
3051.00,0.0338
3050.00,0.0338
3049.00,0.0338
3048.00,0.0337
3047.00,0.0337
3046.00,0.0337
3045.00,0.0337
3044.00,0.0337
3043.00,0.0336
3042.00,0.0336
3041.00,0.0335
3040.00,0.0335
3039.00,0.0334
3038.00,0.0334
3037.00,0.0334
3036.00,0.0334
3035.00,0.0334
3034.00,0.0333
3033.00,0.0332
3032.00,0.0332
3031.00,0.0331
3030.00,0.0331
3029.00,0.0331
3028.00,0.0331
3027.00,0.0330
3026.00,0.0330
3025.00,0.0330
3024.00,0.0330
3023.00,0.0329
3022.00,0.0329
3021.00,0.0328
3020.00,0.0328
3019.00,0.0327
3018.00,0.0327
3017.00,0.0327
3016.00,0.0327
3015.00,0.0327
3014.00,0.0327
3013.00,0.0327
3012.00,0.0327
3011.00,0.0326
3010.00,0.0325
3009.00,0.0324
3008.00,0.0324
3007.00,0.0323
3006.00,0.0323
3005.00,0.0323
3004.00,0.0323
3003.00,0.0323
3002.00,0.0323
3001.00,0.0322
3000.00,0.0322
2999.00,0.0321
2998.00,0.0321
2997.00,0.0320
2996.00,0.0320
2995.00,0.0320
2994.00,0.0320
2993.00,0.0320
2992.00,0.0319
2991.00,0.0319
2990.00,0.0318
2989.00,0.0318
2988.00,0.0317
2987.00,0.0317
2986.00,0.0317
2985.00,0.0317
2984.00,0.0316
2983.00,0.0315
2982.00,0.0315
2981.00,0.0314
2980.00,0.0313
2979.00,0.0313
2978.00,0.0313
2977.00,0.0313
2976.00,0.0313
2975.00,0.0312
2974.00,0.0312
2973.00,0.0312
2972.00,0.0311
2971.00,0.0311
2970.00,0.0310
2969.00,0.0310
2968.00,0.0309
2967.00,0.0309
2966.00,0.0308
2965.00,0.0307
2964.00,0.0307
2963.00,0.0307
2962.00,0.0306
2961.00,0.0305
2960.00,0.0305
2959.00,0.0304
2958.00,0.0304
2957.00,0.0304
2956.00,0.0303
2955.00,0.0303
2954.00,0.0303
2953.00,0.0304
2952.00,0.0304
2951.00,0.0304
2950.00,0.0303
2949.00,0.0303
2948.00,0.0302
2947.00,0.0302
2946.00,0.0302
2945.00,0.0301
2944.00,0.0301
2943.00,0.0300
2942.00,0.0300
2941.00,0.0299
2940.00,0.0298
2939.00,0.0297
2938.00,0.0296
2937.00,0.0295
2936.00,0.0294
2935.00,0.0293
2934.00,0.0292
2933.00,0.0290
2932.00,0.0289
2931.00,0.0287
2930.00,0.0286
2929.00,0.0285
2928.00,0.0284
2927.00,0.0283
2926.00,0.0282
2925.00,0.0281
2924.00,0.0281
2923.00,0.0282
2922.00,0.0281
2921.00,0.0281
2920.00,0.0281
2919.00,0.0281
2918.00,0.0281
2917.00,0.0281
2916.00,0.0282
2915.00,0.0283
2914.00,0.0284
2913.00,0.0285
2912.00,0.0286
2911.00,0.0287
2910.00,0.0287
2909.00,0.0287
2908.00,0.0287
2907.00,0.0287
2906.00,0.0287
2905.00,0.0288
2904.00,0.0288
2903.00,0.0289
2902.00,0.0289
2901.00,0.0289
2900.00,0.0289
2899.00,0.0289
2898.00,0.0289
2897.00,0.0289
2896.00,0.0289
2895.00,0.0288
2894.00,0.0288
2893.00,0.0287
2892.00,0.0287
2891.00,0.0287
2890.00,0.0287
2889.00,0.0287
2888.00,0.0287
2887.00,0.0287
2886.00,0.0287
2885.00,0.0287
2884.00,0.0287
2883.00,0.0287
2882.00,0.0287
2881.00,0.0286
2880.00,0.0286
2879.00,0.0286
2878.00,0.0286
2877.00,0.0286
2876.00,0.0285
2875.00,0.0285
2874.00,0.0284
2873.00,0.0283
2872.00,0.0283
2871.00,0.0282
2870.00,0.0282
2869.00,0.0281
2868.00,0.0281
2867.00,0.0280
2866.00,0.0279
2865.00,0.0279
2864.00,0.0278
2863.00,0.0277
2862.00,0.0277
2861.00,0.0276
2860.00,0.0275
2859.00,0.0274
2858.00,0.0273
2857.00,0.0271
2856.00,0.0270
2855.00,0.0269
2854.00,0.0269
2853.00,0.0269
2852.00,0.0269
2851.00,0.0269
2850.00,0.0270
2849.00,0.0270
2848.00,0.0271
2847.00,0.0271
2846.00,0.0272
2845.00,0.0273
2844.00,0.0273
2843.00,0.0274
2842.00,0.0274
2841.00,0.0275
2840.00,0.0275
2839.00,0.0275
2838.00,0.0275
2837.00,0.0275
2836.00,0.0274
2835.00,0.0274
2834.00,0.0274
2833.00,0.0274
2832.00,0.0274
2831.00,0.0274
2830.00,0.0273
2829.00,0.0273
2828.00,0.0273
2827.00,0.0273
2826.00,0.0272
2825.00,0.0272
2824.00,0.0272
2823.00,0.0272
2822.00,0.0272
2821.00,0.0272
2820.00,0.0272
2819.00,0.0271
2818.00,0.0271
2817.00,0.0270
2816.00,0.0270
2815.00,0.0270
2814.00,0.0270
2813.00,0.0269
2812.00,0.0269
2811.00,0.0268
2810.00,0.0268
2809.00,0.0268
2808.00,0.0267
2807.00,0.0267
2806.00,0.0267
2805.00,0.0267
2804.00,0.0266
2803.00,0.0266
2802.00,0.0266
2801.00,0.0265
2800.00,0.0265
2799.00,0.0264
2798.00,0.0264
2797.00,0.0264
2796.00,0.0264
2795.00,0.0264
2794.00,0.0263
2793.00,0.0263
2792.00,0.0263
2791.00,0.0262
2790.00,0.0262
2789.00,0.0262
2788.00,0.0262
2787.00,0.0262
2786.00,0.0261
2785.00,0.0261
2784.00,0.0261
2783.00,0.0260
2782.00,0.0260
2781.00,0.0260
2780.00,0.0259
2779.00,0.0259
2778.00,0.0258
2777.00,0.0258
2776.00,0.0258
2775.00,0.0257
2774.00,0.0257
2773.00,0.0257
2772.00,0.0257
2771.00,0.0257
2770.00,0.0257
2769.00,0.0257
2768.00,0.0256
2767.00,0.0256
2766.00,0.0256
2765.00,0.0255
2764.00,0.0255
2763.00,0.0255
2762.00,0.0254
2761.00,0.0254
2760.00,0.0254
2759.00,0.0253
2758.00,0.0253
2757.00,0.0252
2756.00,0.0252
2755.00,0.0252
2754.00,0.0252
2753.00,0.0251
2752.00,0.0251
2751.00,0.0250
2750.00,0.0250
2749.00,0.0250
2748.00,0.0250
2747.00,0.0250
2746.00,0.0250
2745.00,0.0249
2744.00,0.0249
2743.00,0.0248
2742.00,0.0248
2741.00,0.0248
2740.00,0.0248
2739.00,0.0248
2738.00,0.0248
2737.00,0.0247
2736.00,0.0247
2735.00,0.0246
2734.00,0.0246
2733.00,0.0245
2732.00,0.0245
2731.00,0.0245
2730.00,0.0245
2729.00,0.0245
2728.00,0.0244
2727.00,0.0244
2726.00,0.0244
2725.00,0.0244
2724.00,0.0244
2723.00,0.0243
2722.00,0.0243
2721.00,0.0243
2720.00,0.0243
2719.00,0.0242
2718.00,0.0242
2717.00,0.0242
2716.00,0.0242
2715.00,0.0241
2714.00,0.0241
2713.00,0.0241
2712.00,0.0241
2711.00,0.0240
2710.00,0.0240
2709.00,0.0240
2708.00,0.0239
2707.00,0.0239
2706.00,0.0239
2705.00,0.0239
2704.00,0.0238
2703.00,0.0238
2702.00,0.0237
2701.00,0.0237
2700.00,0.0237
2699.00,0.0237
2698.00,0.0237
2697.00,0.0237
2696.00,0.0237
2695.00,0.0237
2694.00,0.0237
2693.00,0.0236
2692.00,0.0236
2691.00,0.0235
2690.00,0.0235
2689.00,0.0235
2688.00,0.0235
2687.00,0.0235
2686.00,0.0234
2685.00,0.0234
2684.00,0.0234
2683.00,0.0233
2682.00,0.0233
2681.00,0.0233
2680.00,0.0233
2679.00,0.0233
2678.00,0.0233
2677.00,0.0233
2676.00,0.0233
2675.00,0.0232
2674.00,0.0232
2673.00,0.0232
2672.00,0.0232
2671.00,0.0232
2670.00,0.0232
2669.00,0.0232
2668.00,0.0231
2667.00,0.0231
2666.00,0.0232
2665.00,0.0232
2664.00,0.0232
2663.00,0.0231
2662.00,0.0231
2661.00,0.0231
2660.00,0.0231
2659.00,0.0231
2658.00,0.0231
2657.00,0.0231
2656.00,0.0231
2655.00,0.0231
2654.00,0.0232
2653.00,0.0232
2652.00,0.0232
2651.00,0.0231
2650.00,0.0231
2649.00,0.0230
2648.00,0.0230
2647.00,0.0230
2646.00,0.0230
2645.00,0.0230
2644.00,0.0230
2643.00,0.0230
2642.00,0.0230
2641.00,0.0230
2640.00,0.0230
2639.00,0.0230
2638.00,0.0230
2637.00,0.0230
2636.00,0.0230
2635.00,0.0230
2634.00,0.0230
2633.00,0.0230
2632.00,0.0230
2631.00,0.0229
2630.00,0.0229
2629.00,0.0230
2628.00,0.0230
2627.00,0.0230
2626.00,0.0230
2625.00,0.0229
2624.00,0.0229
2623.00,0.0229
2622.00,0.0229
2621.00,0.0229
2620.00,0.0229
2619.00,0.0229
2618.00,0.0229
2617.00,0.0229
2616.00,0.0229
2615.00,0.0229
2614.00,0.0230
2613.00,0.0230
2612.00,0.0230
2611.00,0.0229
2610.00,0.0229
2609.00,0.0229
2608.00,0.0229
2607.00,0.0229
2606.00,0.0230
2605.00,0.0229
2604.00,0.0229
2603.00,0.0229
2602.00,0.0228
2601.00,0.0228
2600.00,0.0228
2599.00,0.0228
2598.00,0.0228
2597.00,0.0228
2596.00,0.0228
2595.00,0.0228
2594.00,0.0228
2593.00,0.0228
2592.00,0.0228
2591.00,0.0228
2590.00,0.0228
2589.00,0.0228
2588.00,0.0228
2587.00,0.0227
2586.00,0.0227
2585.00,0.0228
2584.00,0.0228
2583.00,0.0228
2582.00,0.0229
2581.00,0.0229
2580.00,0.0229
2579.00,0.0228
2578.00,0.0228
2577.00,0.0228
2576.00,0.0227
2575.00,0.0227
2574.00,0.0227
2573.00,0.0227
2572.00,0.0227
2571.00,0.0227
2570.00,0.0227
2569.00,0.0227
2568.00,0.0227
2567.00,0.0227
2566.00,0.0227
2565.00,0.0227
2564.00,0.0227
2563.00,0.0227
2562.00,0.0226
2561.00,0.0226
2560.00,0.0225
2559.00,0.0225
2558.00,0.0225
2557.00,0.0225
2556.00,0.0225
2555.00,0.0225
2554.00,0.0226
2553.00,0.0226
2552.00,0.0226
2551.00,0.0226
2550.00,0.0226
2549.00,0.0225
2548.00,0.0225
2547.00,0.0225
2546.00,0.0224
2545.00,0.0224
2544.00,0.0224
2543.00,0.0224
2542.00,0.0224
2541.00,0.0225
2540.00,0.0225
2539.00,0.0225
2538.00,0.0225
2537.00,0.0224
2536.00,0.0224
2535.00,0.0223
2534.00,0.0223
2533.00,0.0223
2532.00,0.0223
2531.00,0.0223
2530.00,0.0223
2529.00,0.0223
2528.00,0.0223
2527.00,0.0223
2526.00,0.0223
2525.00,0.0223
2524.00,0.0224
2523.00,0.0223
2522.00,0.0223
2521.00,0.0223
2520.00,0.0223
2519.00,0.0223
2518.00,0.0222
2517.00,0.0222
2516.00,0.0222
2515.00,0.0222
2514.00,0.0222
2513.00,0.0222
2512.00,0.0222
2511.00,0.0222
2510.00,0.0222
2509.00,0.0221
2508.00,0.0220
2507.00,0.0220
2506.00,0.0220
2505.00,0.0220
2504.00,0.0220
2503.00,0.0221
2502.00,0.0220
2501.00,0.0220
2500.00,0.0220
2499.00,0.0220
2498.00,0.0220
2497.00,0.0220
2496.00,0.0220
2495.00,0.0221
2494.00,0.0221
2493.00,0.0221
2492.00,0.0221
2491.00,0.0220
2490.00,0.0220
2489.00,0.0219
2488.00,0.0219
2487.00,0.0219
2486.00,0.0219
2485.00,0.0219
2484.00,0.0219
2483.00,0.0219
2482.00,0.0219
2481.00,0.0219
2480.00,0.0219
2479.00,0.0219
2478.00,0.0219
2477.00,0.0218
2476.00,0.0218
2475.00,0.0218
2474.00,0.0218
2473.00,0.0217
2472.00,0.0217
2471.00,0.0217
2470.00,0.0216
2469.00,0.0216
2468.00,0.0216
2467.00,0.0216
2466.00,0.0216
2465.00,0.0216
2464.00,0.0216
2463.00,0.0217
2462.00,0.0217
2461.00,0.0217
2460.00,0.0217
2459.00,0.0216
2458.00,0.0216
2457.00,0.0216
2456.00,0.0216
2455.00,0.0216
2454.00,0.0216
2453.00,0.0216
2452.00,0.0216
2451.00,0.0216
2450.00,0.0216
2449.00,0.0216
2448.00,0.0215
2447.00,0.0215
2446.00,0.0215
2445.00,0.0215
2444.00,0.0214
2443.00,0.0214
2442.00,0.0214
2441.00,0.0214
2440.00,0.0214
2439.00,0.0214
2438.00,0.0213
2437.00,0.0212
2436.00,0.0212
2435.00,0.0212
2434.00,0.0212
2433.00,0.0212
2432.00,0.0212
2431.00,0.0211
2430.00,0.0211
2429.00,0.0211
2428.00,0.0211
2427.00,0.0211
2426.00,0.0212
2425.00,0.0212
2424.00,0.0212
2423.00,0.0211
2422.00,0.0211
2421.00,0.0210
2420.00,0.0210
2419.00,0.0210
2418.00,0.0209
2417.00,0.0209
2416.00,0.0208
2415.00,0.0208
2414.00,0.0208
2413.00,0.0208
2412.00,0.0208
2411.00,0.0208
2410.00,0.0208
2409.00,0.0208
2408.00,0.0208
2407.00,0.0207
2406.00,0.0207
2405.00,0.0207
2404.00,0.0206
2403.00,0.0206
2402.00,0.0206
2401.00,0.0206
2400.00,0.0206
2399.00,0.0205
2398.00,0.0204
2397.00,0.0204
2396.00,0.0204
2395.00,0.0204
2394.00,0.0204
2393.00,0.0204
2392.00,0.0203
2391.00,0.0203
2390.00,0.0202
2389.00,0.0202
2388.00,0.0202
2387.00,0.0202
2386.00,0.0202
2385.00,0.0202
2384.00,0.0202
2383.00,0.0201
2382.00,0.0201
2381.00,0.0200
2380.00,0.0199
2379.00,0.0198
2378.00,0.0197
2377.00,0.0196
2376.00,0.0195
2375.00,0.0195
2374.00,0.0195
2373.00,0.0195
2372.00,0.0195
2371.00,0.0195
2370.00,0.0195
2369.00,0.0195
2368.00,0.0195
2367.00,0.0194
2366.00,0.0194
2365.00,0.0194
2364.00,0.0194
2363.00,0.0194
2362.00,0.0195
2361.00,0.0196
2360.00,0.0196
2359.00,0.0194
2358.00,0.0192
2357.00,0.0190
2356.00,0.0190
2355.00,0.0190
2354.00,0.0191
2353.00,0.0192
2352.00,0.0192
2351.00,0.0192
2350.00,0.0191
2349.00,0.0190
2348.00,0.0190
2347.00,0.0190
2346.00,0.0190
2345.00,0.0190
2344.00,0.0189
2343.00,0.0188
2342.00,0.0187
2341.00,0.0188
2340.00,0.0188
2339.00,0.0188
2338.00,0.0188
2337.00,0.0187
2336.00,0.0187
2335.00,0.0187
2334.00,0.0187
2333.00,0.0188
2332.00,0.0188
2331.00,0.0189
2330.00,0.0190
2329.00,0.0190
2328.00,0.0191
2327.00,0.0192
2326.00,0.0193
2325.00,0.0193
2324.00,0.0192
2323.00,0.0192
2322.00,0.0192
2321.00,0.0192
2320.00,0.0192
2319.00,0.0192
2318.00,0.0192
2317.00,0.0192
2316.00,0.0192
2315.00,0.0192
2314.00,0.0191
2313.00,0.0191
2312.00,0.0190
2311.00,0.0190
2310.00,0.0190
2309.00,0.0190
2308.00,0.0190
2307.00,0.0190
2306.00,0.0190
2305.00,0.0190
2304.00,0.0190
2303.00,0.0189
2302.00,0.0189
2301.00,0.0189
2300.00,0.0189
2299.00,0.0189
2298.00,0.0190
2297.00,0.0190
2296.00,0.0190
2295.00,0.0191
2294.00,0.0191
2293.00,0.0191
2292.00,0.0191
2291.00,0.0191
2290.00,0.0191
2289.00,0.0192
2288.00,0.0192
2287.00,0.0192
2286.00,0.0192
2285.00,0.0192
2284.00,0.0192
2283.00,0.0191
2282.00,0.0191
2281.00,0.0191
2280.00,0.0191
2279.00,0.0191
2278.00,0.0190
2277.00,0.0190
2276.00,0.0189
2275.00,0.0189
2274.00,0.0189
2273.00,0.0189
2272.00,0.0189
2271.00,0.0189
2270.00,0.0189
2269.00,0.0189
2268.00,0.0189
2267.00,0.0188
2266.00,0.0189
2265.00,0.0189
2264.00,0.0189
2263.00,0.0190
2262.00,0.0190
2261.00,0.0191
2260.00,0.0191
2259.00,0.0190
2258.00,0.0189
2257.00,0.0189
2256.00,0.0188
2255.00,0.0188
2254.00,0.0188
2253.00,0.0189
2252.00,0.0189
2251.00,0.0189
2250.00,0.0189
2249.00,0.0189
2248.00,0.0189
2247.00,0.0188
2246.00,0.0188
2245.00,0.0187
2244.00,0.0187
2243.00,0.0186
2242.00,0.0187
2241.00,0.0187
2240.00,0.0188
2239.00,0.0189
2238.00,0.0189
2237.00,0.0188
2236.00,0.0187
2235.00,0.0186
2234.00,0.0186
2233.00,0.0187
2232.00,0.0188
2231.00,0.0188
2230.00,0.0189
2229.00,0.0188
2228.00,0.0187
2227.00,0.0185
2226.00,0.0184
2225.00,0.0183
2224.00,0.0184
2223.00,0.0184
2222.00,0.0184
2221.00,0.0185
2220.00,0.0185
2219.00,0.0185
2218.00,0.0185
2217.00,0.0185
2216.00,0.0184
2215.00,0.0185
2214.00,0.0186
2213.00,0.0187
2212.00,0.0187
2211.00,0.0186
2210.00,0.0185
2209.00,0.0184
2208.00,0.0183
2207.00,0.0182
2206.00,0.0182
2205.00,0.0182
2204.00,0.0183
2203.00,0.0183
2202.00,0.0184
2201.00,0.0183
2200.00,0.0183
2199.00,0.0184
2198.00,0.0185
2197.00,0.0186
2196.00,0.0186
2195.00,0.0185
2194.00,0.0184
2193.00,0.0183
2192.00,0.0181
2191.00,0.0180
2190.00,0.0180
2189.00,0.0182
2188.00,0.0185
2187.00,0.0187
2186.00,0.0188
2185.00,0.0187
2184.00,0.0185
2183.00,0.0183
2182.00,0.0182
2181.00,0.0182
2180.00,0.0182
2179.00,0.0182
2178.00,0.0181
2177.00,0.0180
2176.00,0.0180
2175.00,0.0180
2174.00,0.0181
2173.00,0.0182
2172.00,0.0182
2171.00,0.0182
2170.00,0.0183
2169.00,0.0185
2168.00,0.0185
2167.00,0.0185
2166.00,0.0184
2165.00,0.0185
2164.00,0.0185
2163.00,0.0185
2162.00,0.0183
2161.00,0.0180
2160.00,0.0177
2159.00,0.0175
2158.00,0.0175
2157.00,0.0175
2156.00,0.0174
2155.00,0.0171
2154.00,0.0170
2153.00,0.0169
2152.00,0.0170
2151.00,0.0171
2150.00,0.0171
2149.00,0.0171
2148.00,0.0171
2147.00,0.0172
2146.00,0.0172
2145.00,0.0171
2144.00,0.0171
2143.00,0.0171
2142.00,0.0170
2141.00,0.0170
2140.00,0.0169
2139.00,0.0169
2138.00,0.0169
2137.00,0.0168
2136.00,0.0166
2135.00,0.0164
2134.00,0.0163
2133.00,0.0163
2132.00,0.0163
2131.00,0.0163
2130.00,0.0163
2129.00,0.0163
2128.00,0.0163
2127.00,0.0164
2126.00,0.0164
2125.00,0.0164
2124.00,0.0164
2123.00,0.0163
2122.00,0.0162
2121.00,0.0163
2120.00,0.0164
2119.00,0.0165
2118.00,0.0166
2117.00,0.0165
2116.00,0.0165
2115.00,0.0164
2114.00,0.0163
2113.00,0.0162
2112.00,0.0162
2111.00,0.0163
2110.00,0.0163
2109.00,0.0162
2108.00,0.0162
2107.00,0.0162
2106.00,0.0161
2105.00,0.0160
2104.00,0.0160
2103.00,0.0160
2102.00,0.0160
2101.00,0.0160
2100.00,0.0160
2099.00,0.0159
2098.00,0.0159
2097.00,0.0159
2096.00,0.0159
2095.00,0.0159
2094.00,0.0159
2093.00,0.0159
2092.00,0.0158
2091.00,0.0158
2090.00,0.0157
2089.00,0.0157
2088.00,0.0157
2087.00,0.0157
2086.00,0.0157
2085.00,0.0157
2084.00,0.0157
2083.00,0.0156
2082.00,0.0155
2081.00,0.0154
2080.00,0.0154
2079.00,0.0155
2078.00,0.0157
2077.00,0.0158
2076.00,0.0158
2075.00,0.0158
2074.00,0.0157
2073.00,0.0156
2072.00,0.0156
2071.00,0.0156
2070.00,0.0156
2069.00,0.0155
2068.00,0.0153
2067.00,0.0152
2066.00,0.0152
2065.00,0.0152
2064.00,0.0152
2063.00,0.0153
2062.00,0.0153
2061.00,0.0153
2060.00,0.0153
2059.00,0.0152
2058.00,0.0152
2057.00,0.0152
2056.00,0.0153
2055.00,0.0154
2054.00,0.0155
2053.00,0.0157
2052.00,0.0157
2051.00,0.0157
2050.00,0.0156
2049.00,0.0155
2048.00,0.0154
2047.00,0.0152
2046.00,0.0152
2045.00,0.0154
2044.00,0.0155
2043.00,0.0156
2042.00,0.0157
2041.00,0.0157
2040.00,0.0159
2039.00,0.0160
2038.00,0.0162
2037.00,0.0162
2036.00,0.0161
2035.00,0.0159
2034.00,0.0158
2033.00,0.0157
2032.00,0.0156
2031.00,0.0155
2030.00,0.0154
2029.00,0.0155
2028.00,0.0155
2027.00,0.0155
2026.00,0.0154
2025.00,0.0153
2024.00,0.0153
2023.00,0.0152
2022.00,0.0152
2021.00,0.0152
2020.00,0.0153
2019.00,0.0154
2018.00,0.0155
2017.00,0.0154
2016.00,0.0152
2015.00,0.0150
2014.00,0.0149
2013.00,0.0150
2012.00,0.0150
2011.00,0.0150
2010.00,0.0150
2009.00,0.0149
2008.00,0.0149
2007.00,0.0149
2006.00,0.0149
2005.00,0.0150
2004.00,0.0151
2003.00,0.0151
2002.00,0.0150
2001.00,0.0149
2000.00,0.0148
1999.00,0.0147
1998.00,0.0146
1997.00,0.0146
1996.00,0.0147
1995.00,0.0147
1994.00,0.0147
1993.00,0.0147
1992.00,0.0146
1991.00,0.0146
1990.00,0.0145
1989.00,0.0145
1988.00,0.0144
1987.00,0.0143
1986.00,0.0143
1985.00,0.0143
1984.00,0.0145
1983.00,0.0147
1982.00,0.0149
1981.00,0.0150
1980.00,0.0149
1979.00,0.0147
1978.00,0.0144
1977.00,0.0142
1976.00,0.0140
1975.00,0.0139
1974.00,0.0140
1973.00,0.0140
1972.00,0.0140
1971.00,0.0140
1970.00,0.0139
1969.00,0.0138
1968.00,0.0136
1967.00,0.0134
1966.00,0.0134
1965.00,0.0136
1964.00,0.0139
1963.00,0.0140
1962.00,0.0141
1961.00,0.0141
1960.00,0.0140
1959.00,0.0139
1958.00,0.0137
1957.00,0.0135
1956.00,0.0134
1955.00,0.0133
1954.00,0.0133
1953.00,0.0133
1952.00,0.0133
1951.00,0.0132
1950.00,0.0131
1949.00,0.0131
1948.00,0.0131
1947.00,0.0132
1946.00,0.0133
1945.00,0.0133
1944.00,0.0133
1943.00,0.0132
1942.00,0.0130
1941.00,0.0129
1940.00,0.0128
1939.00,0.0128
1938.00,0.0127
1937.00,0.0127
1936.00,0.0127
1935.00,0.0127
1934.00,0.0127
1933.00,0.0127
1932.00,0.0127
1931.00,0.0127
1930.00,0.0127
1929.00,0.0126
1928.00,0.0126
1927.00,0.0126
1926.00,0.0127
1925.00,0.0127
1924.00,0.0126
1923.00,0.0125
1922.00,0.0123
1921.00,0.0124
1920.00,0.0125
1919.00,0.0125
1918.00,0.0123
1917.00,0.0121
1916.00,0.0120
1915.00,0.0120
1914.00,0.0120
1913.00,0.0120
1912.00,0.0120
1911.00,0.0119
1910.00,0.0118
1909.00,0.0117
1908.00,0.0116
1907.00,0.0117
1906.00,0.0117
1905.00,0.0118
1904.00,0.0117
1903.00,0.0117
1902.00,0.0116
1901.00,0.0116
1900.00,0.0116
1899.00,0.0116
1898.00,0.0116
1897.00,0.0116
1896.00,0.0116
1895.00,0.0115
1894.00,0.0114
1893.00,0.0114
1892.00,0.0114
1891.00,0.0114
1890.00,0.0112
1889.00,0.0110
1888.00,0.0109
1887.00,0.0110
1886.00,0.0111
1885.00,0.0112
1884.00,0.0111
1883.00,0.0110
1882.00,0.0110
1881.00,0.0109
1880.00,0.0109
1879.00,0.0108
1878.00,0.0108
1877.00,0.0108
1876.00,0.0108
1875.00,0.0108
1874.00,0.0108
1873.00,0.0109
1872.00,0.0110
1871.00,0.0110
1870.00,0.0109
1869.00,0.0106
1868.00,0.0102
1867.00,0.0099
1866.00,0.0099
1865.00,0.0101
1864.00,0.0103
1863.00,0.0104
1862.00,0.0104
1861.00,0.0104
1860.00,0.0103
1859.00,0.0102
1858.00,0.0102
1857.00,0.0101
1856.00,0.0101
1855.00,0.0100
1854.00,0.0100
1853.00,0.0100
1852.00,0.0100
1851.00,0.0100
1850.00,0.0101
1849.00,0.0102
1848.00,0.0103
1847.00,0.0104
1846.00,0.0104
1845.00,0.0102
1844.00,0.0098
1843.00,0.0095
1842.00,0.0095
1841.00,0.0097
1840.00,0.0098
1839.00,0.0099
1838.00,0.0098
1837.00,0.0096
1836.00,0.0096
1835.00,0.0095
1834.00,0.0096
1833.00,0.0098
1832.00,0.0099
1831.00,0.0098
1830.00,0.0094
1829.00,0.0090
1828.00,0.0090
1827.00,0.0091
1826.00,0.0091
1825.00,0.0091
1824.00,0.0090
1823.00,0.0091
1822.00,0.0092
1821.00,0.0093
1820.00,0.0094
1819.00,0.0094
1818.00,0.0093
1817.00,0.0093
1816.00,0.0092
1815.00,0.0093
1814.00,0.0094
1813.00,0.0095
1812.00,0.0094
1811.00,0.0093
1810.00,0.0093
1809.00,0.0093
1808.00,0.0095
1807.00,0.0096
1806.00,0.0097
1805.00,0.0099
1804.00,0.0101
1803.00,0.0101
1802.00,0.0102
1801.00,0.0101
1800.00,0.0101
1799.00,0.0101
1798.00,0.0104
1797.00,0.0107
1796.00,0.0110
1795.00,0.0113
1794.00,0.0115
1793.00,0.0115
1792.00,0.0113
1791.00,0.0111
1790.00,0.0111
1789.00,0.0115
1788.00,0.0119
1787.00,0.0123
1786.00,0.0125
1785.00,0.0128
1784.00,0.0130
1783.00,0.0132
1782.00,0.0134
1781.00,0.0135
1780.00,0.0137
1779.00,0.0139
1778.00,0.0143
1777.00,0.0147
1776.00,0.0151
1775.00,0.0156
1774.00,0.0159
1773.00,0.0160
1772.00,0.0159
1771.00,0.0158
1770.00,0.0161
1769.00,0.0165
1768.00,0.0168
1767.00,0.0170
1766.00,0.0173
1765.00,0.0176
1764.00,0.0178
1763.00,0.0180
1762.00,0.0180
1761.00,0.0181
1760.00,0.0183
1759.00,0.0185
1758.00,0.0187
1757.00,0.0189
1756.00,0.0191
1755.00,0.0194
1754.00,0.0198
1753.00,0.0202
1752.00,0.0207
1751.00,0.0210
1750.00,0.0211
1749.00,0.0210
1748.00,0.0211
1747.00,0.0213
1746.00,0.0217
1745.00,0.0220
1744.00,0.0223
1743.00,0.0226
1742.00,0.0229
1741.00,0.0234
1740.00,0.0238
1739.00,0.0241
1738.00,0.0245
1737.00,0.0250
1736.00,0.0257
1735.00,0.0264
1734.00,0.0268
1733.00,0.0269
1732.00,0.0270
1731.00,0.0272
1730.00,0.0275
1729.00,0.0278
1728.00,0.0283
1727.00,0.0287
1726.00,0.0292
1725.00,0.0296
1724.00,0.0300
1723.00,0.0303
1722.00,0.0306
1721.00,0.0309
1720.00,0.0311
1719.00,0.0314
1718.00,0.0319
1717.00,0.0322
1716.00,0.0323
1715.00,0.0323
1714.00,0.0323
1713.00,0.0325
1712.00,0.0327
1711.00,0.0329
1710.00,0.0330
1709.00,0.0332
1708.00,0.0333
1707.00,0.0333
1706.00,0.0333
1705.00,0.0334
1704.00,0.0335
1703.00,0.0336
1702.00,0.0337
1701.00,0.0339
1700.00,0.0341
1699.00,0.0343
1698.00,0.0344
1697.00,0.0343
1696.00,0.0341
1695.00,0.0340
1694.00,0.0341
1693.00,0.0342
1692.00,0.0343
1691.00,0.0343
1690.00,0.0344
1689.00,0.0345
1688.00,0.0346
1687.00,0.0346
1686.00,0.0346
1685.00,0.0345
1684.00,0.0343
1683.00,0.0343
1682.00,0.0346
1681.00,0.0350
1680.00,0.0352
1679.00,0.0353
1678.00,0.0354
1677.00,0.0356
1676.00,0.0359
1675.00,0.0361
1674.00,0.0363
1673.00,0.0364
1672.00,0.0365
1671.00,0.0367
1670.00,0.0368
1669.00,0.0370
1668.00,0.0371
1667.00,0.0374
1666.00,0.0376
1665.00,0.0378
1664.00,0.0380
1663.00,0.0383
1662.00,0.0386
1661.00,0.0389
1660.00,0.0392
1659.00,0.0395
1658.00,0.0397
1657.00,0.0397
1656.00,0.0397
1655.00,0.0397
1654.00,0.0401
1653.00,0.0406
1652.00,0.0411
1651.00,0.0415
1650.00,0.0416
1649.00,0.0417
1648.00,0.0420
1647.00,0.0425
1646.00,0.0429
1645.00,0.0433
1644.00,0.0437
1643.00,0.0440
1642.00,0.0443
1641.00,0.0446
1640.00,0.0448
1639.00,0.0449
1638.00,0.0449
1637.00,0.0451
1636.00,0.0455
1635.00,0.0460
1634.00,0.0465
1633.00,0.0470
1632.00,0.0473
1631.00,0.0476
1630.00,0.0479
1629.00,0.0482
1628.00,0.0485
1627.00,0.0489
1626.00,0.0492
1625.00,0.0496
1624.00,0.0500
1623.00,0.0506
1622.00,0.0510
1621.00,0.0513
1620.00,0.0514
1619.00,0.0516
1618.00,0.0521
1617.00,0.0526
1616.00,0.0531
1615.00,0.0534
1614.00,0.0536
1613.00,0.0538
1612.00,0.0540
1611.00,0.0543
1610.00,0.0547
1609.00,0.0551
1608.00,0.0554
1607.00,0.0558
1606.00,0.0561
1605.00,0.0563
1604.00,0.0565
1603.00,0.0568
1602.00,0.0571
1601.00,0.0573
1600.00,0.0575
1599.00,0.0578
1598.00,0.0581
1597.00,0.0583
1596.00,0.0586
1595.00,0.0589
1594.00,0.0592
1593.00,0.0594
1592.00,0.0595
1591.00,0.0597
1590.00,0.0599
1589.00,0.0601
1588.00,0.0603
1587.00,0.0605
1586.00,0.0607
1585.00,0.0608
1584.00,0.0609
1583.00,0.0611
1582.00,0.0613
1581.00,0.0614
1580.00,0.0613
1579.00,0.0612
1578.00,0.0611
1577.00,0.0613
1576.00,0.0618
1575.00,0.0621
1574.00,0.0621
1573.00,0.0618
1572.00,0.0615
1571.00,0.0614
1570.00,0.0614
1569.00,0.0615
1568.00,0.0615
1567.00,0.0615
1566.00,0.0614
1565.00,0.0613
1564.00,0.0611
1563.00,0.0609
1562.00,0.0602
1561.00,0.0593
1560.00,0.0591
1559.00,0.0599
1558.00,0.0602
1557.00,0.0603
1556.00,0.0601
1555.00,0.0599
1554.00,0.0595
1553.00,0.0591
1552.00,0.0587
1551.00,0.0583
1550.00,0.0579
1549.00,0.0576
1548.00,0.0573
1547.00,0.0570
1546.00,0.0567
1545.00,0.0564
1544.00,0.0561
1543.00,0.0558
1542.00,0.0555
1541.00,0.0550
1540.00,0.0543
1539.00,0.0537
1538.00,0.0535
1537.00,0.0533
1536.00,0.0529
1535.00,0.0523
1534.00,0.0518
1533.00,0.0514
1532.00,0.0510
1531.00,0.0508
1530.00,0.0505
1529.00,0.0502
1528.00,0.0499
1527.00,0.0496
1526.00,0.0494
1525.00,0.0491
1524.00,0.0488
1523.00,0.0484
1522.00,0.0481
1521.00,0.0476
1520.00,0.0471
1519.00,0.0467
1518.00,0.0463
1517.00,0.0460
1516.00,0.0458
1515.00,0.0457
1514.00,0.0456
1513.00,0.0456
1512.00,0.0455
1511.00,0.0452
1510.00,0.0449
1509.00,0.0446
1508.00,0.0444
1507.00,0.0438
1506.00,0.0431
1505.00,0.0431
1504.00,0.0433
1503.00,0.0432
1502.00,0.0429
1501.00,0.0427
1500.00,0.0425
1499.00,0.0423
1498.00,0.0422
1497.00,0.0421
1496.00,0.0421
1495.00,0.0421
1494.00,0.0420
1493.00,0.0421
1492.00,0.0421
1491.00,0.0422
1490.00,0.0420
1489.00,0.0417
1488.00,0.0414
1487.00,0.0413
1486.00,0.0413
1485.00,0.0414
1484.00,0.0415
1483.00,0.0415
1482.00,0.0416
1481.00,0.0416
1480.00,0.0417
1479.00,0.0416
1478.00,0.0416
1477.00,0.0416
1476.00,0.0418
1475.00,0.0421
1474.00,0.0424
1473.00,0.0426
1472.00,0.0426
1471.00,0.0425
1470.00,0.0425
1469.00,0.0426
1468.00,0.0426
1467.00,0.0426
1466.00,0.0428
1465.00,0.0430
1464.00,0.0433
1463.00,0.0435
1462.00,0.0436
1461.00,0.0436
1460.00,0.0437
1459.00,0.0439
1458.00,0.0443
1457.00,0.0448
1456.00,0.0450
1455.00,0.0451
1454.00,0.0451
1453.00,0.0452
1452.00,0.0454
1451.00,0.0455
1450.00,0.0457
1449.00,0.0459
1448.00,0.0461
1447.00,0.0462
1446.00,0.0464
1445.00,0.0466
1444.00,0.0468
1443.00,0.0470
1442.00,0.0471
1441.00,0.0473
1440.00,0.0475
1439.00,0.0477
1438.00,0.0479
1437.00,0.0482
1436.00,0.0485
1435.00,0.0487
1434.00,0.0487
1433.00,0.0487
1432.00,0.0488
1431.00,0.0489
1430.00,0.0490
1429.00,0.0492
1428.00,0.0495
1427.00,0.0497
1426.00,0.0498
1425.00,0.0499
1424.00,0.0501
1423.00,0.0502
1422.00,0.0502
1421.00,0.0503
1420.00,0.0505
1419.00,0.0509
1418.00,0.0511
1417.00,0.0512
1416.00,0.0514
1415.00,0.0515
1414.00,0.0515
1413.00,0.0516
1412.00,0.0518
1411.00,0.0519
1410.00,0.0520
1409.00,0.0521
1408.00,0.0523
1407.00,0.0524
1406.00,0.0525
1405.00,0.0527
1404.00,0.0530
1403.00,0.0532
1402.00,0.0533
1401.00,0.0534
1400.00,0.0536
1399.00,0.0539
1398.00,0.0541
1397.00,0.0542
1396.00,0.0543
1395.00,0.0544
1394.00,0.0545
1393.00,0.0547
1392.00,0.0548
1391.00,0.0549
1390.00,0.0549
1389.00,0.0551
1388.00,0.0553
1387.00,0.0555
1386.00,0.0556
1385.00,0.0556
1384.00,0.0557
1383.00,0.0558
1382.00,0.0559
1381.00,0.0559
1380.00,0.0560
1379.00,0.0560
1378.00,0.0560
1377.00,0.0560
1376.00,0.0559
1375.00,0.0560
1374.00,0.0561
1373.00,0.0562
1372.00,0.0562
1371.00,0.0562
1370.00,0.0562
1369.00,0.0561
1368.00,0.0561
1367.00,0.0561
1366.00,0.0560
1365.00,0.0559
1364.00,0.0559
1363.00,0.0560
1362.00,0.0560
1361.00,0.0560
1360.00,0.0560
1359.00,0.0559
1358.00,0.0559
1357.00,0.0558
1356.00,0.0556
1355.00,0.0555
1354.00,0.0554
1353.00,0.0553
1352.00,0.0552
1351.00,0.0551
1350.00,0.0550
1349.00,0.0549
1348.00,0.0548
1347.00,0.0547
1346.00,0.0546
1345.00,0.0545
1344.00,0.0544
1343.00,0.0543
1342.00,0.0543
1341.00,0.0542
1340.00,0.0542
1339.00,0.0541
1338.00,0.0540
1337.00,0.0539
1336.00,0.0538
1335.00,0.0536
1334.00,0.0535
1333.00,0.0534
1332.00,0.0533
1331.00,0.0532
1330.00,0.0531
1329.00,0.0531
1328.00,0.0530
1327.00,0.0529
1326.00,0.0528
1325.00,0.0527
1324.00,0.0527
1323.00,0.0527
1322.00,0.0527
1321.00,0.0527
1320.00,0.0526
1319.00,0.0526
1318.00,0.0526
1317.00,0.0526
1316.00,0.0526
1315.00,0.0526
1314.00,0.0525
1313.00,0.0525
1312.00,0.0525
1311.00,0.0525
1310.00,0.0525
1309.00,0.0525
1308.00,0.0525
1307.00,0.0525
1306.00,0.0525
1305.00,0.0526
1304.00,0.0526
1303.00,0.0527
1302.00,0.0527
1301.00,0.0527
1300.00,0.0527
1299.00,0.0527
1298.00,0.0528
1297.00,0.0528
1296.00,0.0529
1295.00,0.0530
1294.00,0.0531
1293.00,0.0531
1292.00,0.0532
1291.00,0.0532
1290.00,0.0533
1289.00,0.0534
1288.00,0.0534
1287.00,0.0535
1286.00,0.0535
1285.00,0.0536
1284.00,0.0537
1283.00,0.0537
1282.00,0.0538
1281.00,0.0539
1280.00,0.0539
1279.00,0.0540
1278.00,0.0541
1277.00,0.0542
1276.00,0.0542
1275.00,0.0543
1274.00,0.0544
1273.00,0.0545
1272.00,0.0546
1271.00,0.0546
1270.00,0.0547
1269.00,0.0547
1268.00,0.0548
1267.00,0.0548
1266.00,0.0548
1265.00,0.0549
1264.00,0.0550
1263.00,0.0551
1262.00,0.0552
1261.00,0.0552
1260.00,0.0553
1259.00,0.0553
1258.00,0.0553
1257.00,0.0553
1256.00,0.0553
1255.00,0.0553
1254.00,0.0553
1253.00,0.0553
1252.00,0.0554
1251.00,0.0554
1250.00,0.0554
1249.00,0.0554
1248.00,0.0555
1247.00,0.0555
1246.00,0.0556
1245.00,0.0556
1244.00,0.0556
1243.00,0.0556
1242.00,0.0556
1241.00,0.0557
1240.00,0.0557
1239.00,0.0557
1238.00,0.0556
1237.00,0.0556
1236.00,0.0555
1235.00,0.0555
1234.00,0.0554
1233.00,0.0554
1232.00,0.0553
1231.00,0.0553
1230.00,0.0553
1229.00,0.0553
1228.00,0.0553
1227.00,0.0553
1226.00,0.0553
1225.00,0.0552
1224.00,0.0551
1223.00,0.0550
1222.00,0.0550
1221.00,0.0549
1220.00,0.0548
1219.00,0.0547
1218.00,0.0546
1217.00,0.0545
1216.00,0.0545
1215.00,0.0544
1214.00,0.0544
1213.00,0.0543
1212.00,0.0543
1211.00,0.0542
1210.00,0.0542
1209.00,0.0541
1208.00,0.0540
1207.00,0.0539
1206.00,0.0538
1205.00,0.0538
1204.00,0.0538
1203.00,0.0537
1202.00,0.0537
1201.00,0.0536
1200.00,0.0536
1199.00,0.0535
1198.00,0.0534
1197.00,0.0533
1196.00,0.0533
1195.00,0.0532
1194.00,0.0531
1193.00,0.0529
1192.00,0.0528
1191.00,0.0527
1190.00,0.0526
1189.00,0.0526
1188.00,0.0525
1187.00,0.0524
1186.00,0.0524
1185.00,0.0524
1184.00,0.0524
1183.00,0.0524
1182.00,0.0523
1181.00,0.0523
1180.00,0.0522
1179.00,0.0522
1178.00,0.0522
1177.00,0.0522
1176.00,0.0522
1175.00,0.0521
1174.00,0.0520
1173.00,0.0519
1172.00,0.0518
1171.00,0.0517
1170.00,0.0516
1169.00,0.0516
1168.00,0.0516
1167.00,0.0516
1166.00,0.0516
1165.00,0.0516
1164.00,0.0515
1163.00,0.0515
1162.00,0.0515
1161.00,0.0514
1160.00,0.0513
1159.00,0.0512
1158.00,0.0511
1157.00,0.0510
1156.00,0.0510
1155.00,0.0509
1154.00,0.0508
1153.00,0.0508
1152.00,0.0508
1151.00,0.0507
1150.00,0.0507
1149.00,0.0507
1148.00,0.0507
1147.00,0.0507
1146.00,0.0507
1145.00,0.0506
1144.00,0.0506
1143.00,0.0506
1142.00,0.0507
1141.00,0.0507
1140.00,0.0507
1139.00,0.0507
1138.00,0.0507
1137.00,0.0507
1136.00,0.0507
1135.00,0.0507
1134.00,0.0506
1133.00,0.0506
1132.00,0.0505
1131.00,0.0505
1130.00,0.0506
1129.00,0.0506
1128.00,0.0507
1127.00,0.0508
1126.00,0.0509
1125.00,0.0509
1124.00,0.0510
1123.00,0.0511
1122.00,0.0512
1121.00,0.0514
1120.00,0.0515
1119.00,0.0516
1118.00,0.0517
1117.00,0.0518
1116.00,0.0518
1115.00,0.0518
1114.00,0.0517
1113.00,0.0515
1112.00,0.0515
1111.00,0.0515
1110.00,0.0516
1109.00,0.0516
1108.00,0.0517
1107.00,0.0518
1106.00,0.0519
1105.00,0.0520
1104.00,0.0521
1103.00,0.0521
1102.00,0.0521
1101.00,0.0520
1100.00,0.0521
1099.00,0.0521
1098.00,0.0521
1097.00,0.0522
1096.00,0.0522
1095.00,0.0521
1094.00,0.0521
1093.00,0.0521
1092.00,0.0522
1091.00,0.0523
1090.00,0.0522
1089.00,0.0522
1088.00,0.0521
1087.00,0.0520
1086.00,0.0520
1085.00,0.0520
1084.00,0.0521
1083.00,0.0521
1082.00,0.0521
1081.00,0.0520
1080.00,0.0519
1079.00,0.0519
1078.00,0.0518
1077.00,0.0518
1076.00,0.0519
1075.00,0.0521
1074.00,0.0522
1073.00,0.0522
1072.00,0.0521
1071.00,0.0521
1070.00,0.0520
1069.00,0.0520
1068.00,0.0520
1067.00,0.0520
1066.00,0.0520
1065.00,0.0521
1064.00,0.0522
1063.00,0.0523
1062.00,0.0524
1061.00,0.0524
1060.00,0.0524
1059.00,0.0524
1058.00,0.0523
1057.00,0.0524
1056.00,0.0524
1055.00,0.0525
1054.00,0.0527
1053.00,0.0528
1052.00,0.0530
1051.00,0.0531
1050.00,0.0532
1049.00,0.0532
1048.00,0.0533
1047.00,0.0533
1046.00,0.0533
1045.00,0.0533
1044.00,0.0532
1043.00,0.0532
1042.00,0.0533
1041.00,0.0534
1040.00,0.0535
1039.00,0.0537
1038.00,0.0538
1037.00,0.0540
1036.00,0.0540
1035.00,0.0540
1034.00,0.0539
1033.00,0.0537
1032.00,0.0536
1031.00,0.0535
1030.00,0.0535
1029.00,0.0534
1028.00,0.0533
1027.00,0.0531
1026.00,0.0529
1025.00,0.0527
1024.00,0.0525
1023.00,0.0524
1022.00,0.0523
1021.00,0.0522
1020.00,0.0522
1019.00,0.0521
1018.00,0.0521
1017.00,0.0520
1016.00,0.0518
1015.00,0.0518
1014.00,0.0517
1013.00,0.0516
1012.00,0.0516
1011.00,0.0515
1010.00,0.0515
1009.00,0.0514
1008.00,0.0513
1007.00,0.0512
1006.00,0.0511
1005.00,0.0510
1004.00,0.0509
1003.00,0.0508
1002.00,0.0506
1001.00,0.0504
1000.00,0.0503
999.00,0.0501
998.00,0.0499
997.00,0.0497
996.00,0.0495
995.00,0.0493
994.00,0.0491
993.00,0.0489
992.00,0.0487
991.00,0.0485
990.00,0.0482
989.00,0.0480
988.00,0.0479
987.00,0.0478
986.00,0.0478
985.00,0.0477
984.00,0.0476
983.00,0.0476
982.00,0.0475
981.00,0.0474
980.00,0.0474
979.00,0.0473
978.00,0.0472
977.00,0.0470
976.00,0.0469
975.00,0.0468
974.00,0.0467
973.00,0.0466
972.00,0.0467
971.00,0.0467
970.00,0.0466
969.00,0.0464
968.00,0.0462
967.00,0.0461
966.00,0.0459
965.00,0.0458
964.00,0.0458
963.00,0.0458
962.00,0.0458
961.00,0.0459
960.00,0.0459
959.00,0.0459
958.00,0.0458
957.00,0.0456
956.00,0.0455
955.00,0.0454
954.00,0.0453
953.00,0.0452
952.00,0.0452
951.00,0.0453
950.00,0.0454
949.00,0.0456
948.00,0.0456
947.00,0.0456
946.00,0.0456
945.00,0.0456
944.00,0.0455
943.00,0.0456
942.00,0.0457
941.00,0.0459
940.00,0.0461
939.00,0.0463
938.00,0.0463
937.00,0.0462
936.00,0.0461
935.00,0.0460
934.00,0.0460
933.00,0.0460
932.00,0.0461
931.00,0.0463
930.00,0.0464
929.00,0.0465
928.00,0.0466
927.00,0.0467
926.00,0.0468
925.00,0.0470
924.00,0.0472
923.00,0.0472
922.00,0.0472
921.00,0.0473
920.00,0.0474
919.00,0.0477
918.00,0.0480
917.00,0.0482
916.00,0.0484
915.00,0.0484
914.00,0.0484
913.00,0.0483
912.00,0.0481
911.00,0.0480
910.00,0.0481
909.00,0.0481
908.00,0.0483
907.00,0.0484
906.00,0.0484
905.00,0.0484
904.00,0.0484
903.00,0.0483
902.00,0.0482
901.00,0.0480
900.00,0.0479
899.00,0.0479
898.00,0.0478
897.00,0.0478
896.00,0.0478
895.00,0.0479
894.00,0.0479
893.00,0.0479
892.00,0.0479
891.00,0.0478
890.00,0.0476
889.00,0.0475
888.00,0.0475
887.00,0.0476
886.00,0.0478
885.00,0.0478
884.00,0.0478
883.00,0.0478
882.00,0.0478
881.00,0.0479
880.00,0.0478
879.00,0.0478
878.00,0.0478
877.00,0.0478
876.00,0.0479
875.00,0.0479
874.00,0.0480
873.00,0.0480
872.00,0.0482
871.00,0.0482
870.00,0.0482
869.00,0.0481
868.00,0.0481
867.00,0.0481
866.00,0.0482
865.00,0.0483
864.00,0.0484
863.00,0.0487
862.00,0.0489
861.00,0.0492
860.00,0.0493
859.00,0.0492
858.00,0.0491
857.00,0.0490
856.00,0.0490
855.00,0.0489
854.00,0.0489
853.00,0.0489
852.00,0.0490
851.00,0.0493
850.00,0.0495
849.00,0.0497
848.00,0.0497
847.00,0.0497
846.00,0.0498
845.00,0.0499
844.00,0.0500
843.00,0.0500
842.00,0.0500
841.00,0.0502
840.00,0.0505
839.00,0.0509
838.00,0.0512
837.00,0.0514
836.00,0.0513
835.00,0.0512
834.00,0.0511
833.00,0.0512
832.00,0.0513
831.00,0.0516
830.00,0.0519
829.00,0.0521
828.00,0.0523
827.00,0.0525
826.00,0.0526
825.00,0.0527
824.00,0.0529
823.00,0.0532
822.00,0.0534
821.00,0.0537
820.00,0.0540
819.00,0.0543
818.00,0.0546
817.00,0.0549
816.00,0.0551
815.00,0.0553
814.00,0.0553
813.00,0.0553
812.00,0.0552
811.00,0.0551
810.00,0.0551
809.00,0.0553
808.00,0.0556
807.00,0.0559
806.00,0.0562
805.00,0.0564
804.00,0.0566
803.00,0.0568
802.00,0.0571
801.00,0.0573
800.00,0.0574
799.00,0.0576
798.00,0.0578
797.00,0.0579
796.00,0.0581
795.00,0.0581
794.00,0.0581
793.00,0.0580
792.00,0.0580
791.00,0.0579
790.00,0.0578
789.00,0.0577
788.00,0.0578
787.00,0.0579
786.00,0.0582
785.00,0.0584
784.00,0.0585
783.00,0.0586
782.00,0.0588
781.00,0.0590
780.00,0.0593
779.00,0.0595
778.00,0.0596
777.00,0.0596
776.00,0.0596
775.00,0.0596
774.00,0.0597
773.00,0.0599
772.00,0.0601
771.00,0.0603
770.00,0.0604
769.00,0.0606
768.00,0.0608
767.00,0.0611
766.00,0.0612
765.00,0.0612
764.00,0.0611
763.00,0.0612
762.00,0.0613
761.00,0.0616
760.00,0.0619
759.00,0.0620
758.00,0.0621
757.00,0.0621
756.00,0.0621
755.00,0.0621
754.00,0.0622
753.00,0.0623
752.00,0.0624
751.00,0.0626
750.00,0.0629
749.00,0.0632
748.00,0.0634
747.00,0.0635
746.00,0.0635
745.00,0.0634
744.00,0.0633
743.00,0.0632
742.00,0.0631
741.00,0.0631
740.00,0.0632
739.00,0.0633
738.00,0.0636
737.00,0.0637
736.00,0.0638
735.00,0.0637
734.00,0.0635
733.00,0.0635
732.00,0.0636
731.00,0.0638
730.00,0.0640
729.00,0.0641
728.00,0.0642
727.00,0.0642
726.00,0.0642
725.00,0.0641
724.00,0.0640
723.00,0.0640
722.00,0.0641
721.00,0.0643
720.00,0.0647
719.00,0.0651
718.00,0.0655
717.00,0.0660
716.00,0.0663
715.00,0.0664
714.00,0.0664
713.00,0.0663
712.00,0.0663
711.00,0.0663
710.00,0.0663
709.00,0.0665
708.00,0.0667
707.00,0.0671
706.00,0.0675
705.00,0.0679
704.00,0.0681
703.00,0.0683
702.00,0.0687
701.00,0.0691
700.00,0.0695
699.00,0.0698
698.00,0.0699
697.00,0.0702
696.00,0.0705
695.00,0.0707
694.00,0.0707
693.00,0.0707
692.00,0.0705
691.00,0.0702
690.00,0.0698
689.00,0.0697
688.00,0.0700
687.00,0.0707
686.00,0.0715
685.00,0.0724
684.00,0.0729
683.00,0.0731
682.00,0.0730
681.00,0.0729
680.00,0.0727
679.00,0.0722
678.00,0.0716
677.00,0.0714
676.00,0.0715
675.00,0.0720
674.00,0.0724
673.00,0.0728
672.00,0.0730
671.00,0.0729
670.00,0.0726
669.00,0.0724
668.00,0.0727
667.00,0.0734
666.00,0.0739
665.00,0.0738
664.00,0.0737
663.00,0.0737
662.00,0.0739
661.00,0.0743
660.00,0.0750
659.00,0.0754
658.00,0.0755
657.00,0.0752
656.00,0.0750
655.00,0.0751
654.00,0.0760
653.00,0.0764
652.00,0.0767
651.00,0.0768
650.00,0.0769
