Created as New Dataset,Monday, April 03 2023
cm-1,A
4000.00,0.0154
3999.00,0.0154
3998.00,0.0154
3997.00,0.0154
3996.00,0.0154
3995.00,0.0154
3994.00,0.0154
3993.00,0.0155
3992.00,0.0155
3991.00,0.0155
3990.00,0.0155
3989.00,0.0155
3988.00,0.0155
3987.00,0.0155
3986.00,0.0155
3985.00,0.0155
3984.00,0.0154
3983.00,0.0154
3982.00,0.0154
3981.00,0.0154
3980.00,0.0154
3979.00,0.0155
3978.00,0.0155
3977.00,0.0155
3976.00,0.0155
3975.00,0.0154
3974.00,0.0154
3973.00,0.0153
3972.00,0.0153
3971.00,0.0154
3970.00,0.0154
3969.00,0.0154
3968.00,0.0154
3967.00,0.0154
3966.00,0.0154
3965.00,0.0154
3964.00,0.0154
3963.00,0.0154
3962.00,0.0154
3961.00,0.0154
3960.00,0.0154
3959.00,0.0154
3958.00,0.0154
3957.00,0.0154
3956.00,0.0154
3955.00,0.0153
3954.00,0.0153
3953.00,0.0153
3952.00,0.0153
3951.00,0.0154
3950.00,0.0154
3949.00,0.0155
3948.00,0.0155
3947.00,0.0156
3946.00,0.0155
3945.00,0.0155
3944.00,0.0154
3943.00,0.0153
3942.00,0.0153
3941.00,0.0153
3940.00,0.0153
3939.00,0.0154
3938.00,0.0154
3937.00,0.0154
3936.00,0.0155
3935.00,0.0155
3934.00,0.0156
3933.00,0.0156
3932.00,0.0156
3931.00,0.0155
3930.00,0.0155
3929.00,0.0154
3928.00,0.0153
3927.00,0.0152
3926.00,0.0152
3925.00,0.0152
3924.00,0.0153
3923.00,0.0153
3922.00,0.0154
3921.00,0.0155
3920.00,0.0155
3919.00,0.0156
3918.00,0.0156
3917.00,0.0156
3916.00,0.0155
3915.00,0.0154
3914.00,0.0153
3913.00,0.0153
3912.00,0.0153
3911.00,0.0152
3910.00,0.0153
3909.00,0.0153
3908.00,0.0153
3907.00,0.0154
3906.00,0.0155
3905.00,0.0156
3904.00,0.0158
3903.00,0.0158
3902.00,0.0159
3901.00,0.0158
3900.00,0.0157
3899.00,0.0155
3898.00,0.0155
3897.00,0.0155
3896.00,0.0155
3895.00,0.0155
3894.00,0.0155
3893.00,0.0154
3892.00,0.0154
3891.00,0.0153
3890.00,0.0153
3889.00,0.0154
3888.00,0.0155
3887.00,0.0156
3886.00,0.0156
3885.00,0.0155
3884.00,0.0154
3883.00,0.0153
3882.00,0.0153
3881.00,0.0152
3880.00,0.0152
3879.00,0.0153
3878.00,0.0154
3877.00,0.0154
3876.00,0.0154
3875.00,0.0153
3874.00,0.0152
3873.00,0.0153
3872.00,0.0154
3871.00,0.0154
3870.00,0.0154
3869.00,0.0154
3868.00,0.0154
3867.00,0.0156
3866.00,0.0157
3865.00,0.0156
3864.00,0.0155
3863.00,0.0154
3862.00,0.0155
3861.00,0.0155
3860.00,0.0155
3859.00,0.0155
3858.00,0.0153
3857.00,0.0153
3856.00,0.0153
3855.00,0.0154
3854.00,0.0154
3853.00,0.0152
3852.00,0.0150
3851.00,0.0151
3850.00,0.0153
3849.00,0.0154
3848.00,0.0154
3847.00,0.0154
3846.00,0.0154
3845.00,0.0154
3844.00,0.0154
3843.00,0.0154
3842.00,0.0153
3841.00,0.0153
3840.00,0.0152
3839.00,0.0152
3838.00,0.0152
3837.00,0.0151
3836.00,0.0152
3835.00,0.0152
3834.00,0.0152
3833.00,0.0153
3832.00,0.0154
3831.00,0.0154
3830.00,0.0154
3829.00,0.0154
3828.00,0.0154
3827.00,0.0153
3826.00,0.0153
3825.00,0.0153
3824.00,0.0154
3823.00,0.0155
3822.00,0.0155
3821.00,0.0154
3820.00,0.0153
3819.00,0.0152
3818.00,0.0152
3817.00,0.0152
3816.00,0.0151
3815.00,0.0150
3814.00,0.0150
3813.00,0.0152
3812.00,0.0153
3811.00,0.0152
3810.00,0.0151
3809.00,0.0151
3808.00,0.0153
3807.00,0.0153
3806.00,0.0153
3805.00,0.0152
3804.00,0.0152
3803.00,0.0152
3802.00,0.0151
3801.00,0.0150
3800.00,0.0150
3799.00,0.0150
3798.00,0.0151
3797.00,0.0152
3796.00,0.0152
3795.00,0.0151
3794.00,0.0152
3793.00,0.0151
3792.00,0.0151
3791.00,0.0151
3790.00,0.0151
3789.00,0.0151
3788.00,0.0151
3787.00,0.0151
3786.00,0.0151
3785.00,0.0151
3784.00,0.0151
3783.00,0.0151
3782.00,0.0151
3781.00,0.0151
3780.00,0.0150
3779.00,0.0149
3778.00,0.0149
3777.00,0.0150
3776.00,0.0151
3775.00,0.0151
3774.00,0.0151
3773.00,0.0151
3772.00,0.0152
3771.00,0.0153
3770.00,0.0153
3769.00,0.0152
3768.00,0.0153
3767.00,0.0153
3766.00,0.0153
3765.00,0.0152
3764.00,0.0152
3763.00,0.0152
3762.00,0.0153
3761.00,0.0153
3760.00,0.0152
3759.00,0.0152
3758.00,0.0152
3757.00,0.0153
3756.00,0.0153
3755.00,0.0154
3754.00,0.0155
3753.00,0.0155
3752.00,0.0157
3751.00,0.0158
3750.00,0.0159
3749.00,0.0158
3748.00,0.0156
3747.00,0.0154
3746.00,0.0154
3745.00,0.0155
3744.00,0.0154
3743.00,0.0154
3742.00,0.0154
3741.00,0.0156
3740.00,0.0157
3739.00,0.0157
3738.00,0.0157
3737.00,0.0158
3736.00,0.0157
3735.00,0.0156
3734.00,0.0155
3733.00,0.0156
3732.00,0.0155
3731.00,0.0154
3730.00,0.0154
3729.00,0.0154
3728.00,0.0155
3727.00,0.0156
3726.00,0.0155
3725.00,0.0154
3724.00,0.0153
3723.00,0.0153
3722.00,0.0152
3721.00,0.0151
3720.00,0.0151
3719.00,0.0151
3718.00,0.0151
3717.00,0.0152
3716.00,0.0152
3715.00,0.0152
3714.00,0.0152
3713.00,0.0152
3712.00,0.0150
3711.00,0.0149
3710.00,0.0149
3709.00,0.0149
3708.00,0.0150
3707.00,0.0150
3706.00,0.0150
3705.00,0.0150
3704.00,0.0149
3703.00,0.0148
3702.00,0.0148
3701.00,0.0148
3700.00,0.0149
3699.00,0.0150
3698.00,0.0150
3697.00,0.0150
3696.00,0.0149
3695.00,0.0149
3694.00,0.0149
3693.00,0.0149
3692.00,0.0148
3691.00,0.0148
3690.00,0.0148
3689.00,0.0149
3688.00,0.0149
3687.00,0.0149
3686.00,0.0149
3685.00,0.0150
3684.00,0.0151
3683.00,0.0151
3682.00,0.0151
3681.00,0.0150
3680.00,0.0149
3679.00,0.0148
3678.00,0.0148
3677.00,0.0150
3676.00,0.0150
3675.00,0.0151
3674.00,0.0152
3673.00,0.0154
3672.00,0.0155
3671.00,0.0155
3670.00,0.0152
3669.00,0.0151
3668.00,0.0152
3667.00,0.0153
3666.00,0.0154
3665.00,0.0154
3664.00,0.0154
3663.00,0.0154
3662.00,0.0155
3661.00,0.0155
3660.00,0.0155
3659.00,0.0156
3658.00,0.0157
3657.00,0.0159
3656.00,0.0159
3655.00,0.0159
3654.00,0.0159
3653.00,0.0159
3652.00,0.0160
3651.00,0.0161
3650.00,0.0163
3649.00,0.0164
3648.00,0.0164
3647.00,0.0164
3646.00,0.0164
3645.00,0.0165
3644.00,0.0165
3643.00,0.0165
3642.00,0.0164
3641.00,0.0164
3640.00,0.0164
3639.00,0.0164
3638.00,0.0164
3637.00,0.0164
3636.00,0.0165
3635.00,0.0166
3634.00,0.0167
3633.00,0.0168
3632.00,0.0169
3631.00,0.0172
3630.00,0.0175
3629.00,0.0177
3628.00,0.0177
3627.00,0.0177
3626.00,0.0176
3625.00,0.0176
3624.00,0.0175
3623.00,0.0174
3622.00,0.0173
3621.00,0.0174
3620.00,0.0175
3619.00,0.0176
3618.00,0.0177
3617.00,0.0178
3616.00,0.0178
3615.00,0.0178
3614.00,0.0179
3613.00,0.0180
3612.00,0.0181
3611.00,0.0182
3610.00,0.0183
3609.00,0.0182
3608.00,0.0181
3607.00,0.0179
3606.00,0.0179
3605.00,0.0179
3604.00,0.0179
3603.00,0.0178
3602.00,0.0178
3601.00,0.0178
3600.00,0.0178
3599.00,0.0179
3598.00,0.0178
3597.00,0.0178
3596.00,0.0179
3595.00,0.0180
3594.00,0.0181
3593.00,0.0182
3592.00,0.0182
3591.00,0.0183
3590.00,0.0183
3589.00,0.0183
3588.00,0.0183
3587.00,0.0183
3586.00,0.0183
3585.00,0.0183
3584.00,0.0183
3583.00,0.0183
3582.00,0.0183
3581.00,0.0183
3580.00,0.0183
3579.00,0.0183
3578.00,0.0182
3577.00,0.0182
3576.00,0.0182
3575.00,0.0182
3574.00,0.0183
3573.00,0.0183
3572.00,0.0183
3571.00,0.0183
3570.00,0.0183
3569.00,0.0184
3568.00,0.0186
3567.00,0.0187
3566.00,0.0188
3565.00,0.0188
3564.00,0.0187
3563.00,0.0187
3562.00,0.0186
3561.00,0.0186
3560.00,0.0186
3559.00,0.0186
3558.00,0.0186
3557.00,0.0186
3556.00,0.0187
3555.00,0.0187
3554.00,0.0188
3553.00,0.0188
3552.00,0.0188
3551.00,0.0189
3550.00,0.0189
3549.00,0.0190
3548.00,0.0191
3547.00,0.0191
3546.00,0.0192
3545.00,0.0193
3544.00,0.0193
3543.00,0.0192
3542.00,0.0191
3541.00,0.0190
3540.00,0.0190
3539.00,0.0190
3538.00,0.0190
3537.00,0.0190
3536.00,0.0191
3535.00,0.0192
3534.00,0.0192
3533.00,0.0192
3532.00,0.0192
3531.00,0.0192
3530.00,0.0192
3529.00,0.0193
3528.00,0.0194
3527.00,0.0195
3526.00,0.0196
3525.00,0.0196
3524.00,0.0196
3523.00,0.0196
3522.00,0.0195
3521.00,0.0195
3520.00,0.0195
3519.00,0.0194
3518.00,0.0195
3517.00,0.0195
3516.00,0.0195
3515.00,0.0196
3514.00,0.0195
3513.00,0.0195
3512.00,0.0195
3511.00,0.0195
3510.00,0.0196
3509.00,0.0197
3508.00,0.0197
3507.00,0.0197
3506.00,0.0197
3505.00,0.0198
3504.00,0.0198
3503.00,0.0199
3502.00,0.0199
3501.00,0.0199
3500.00,0.0199
3499.00,0.0199
3498.00,0.0199
3497.00,0.0199
3496.00,0.0199
3495.00,0.0200
3494.00,0.0200
3493.00,0.0201
3492.00,0.0201
3491.00,0.0201
3490.00,0.0201
3489.00,0.0201
3488.00,0.0200
3487.00,0.0200
3486.00,0.0200
3485.00,0.0200
3484.00,0.0200
3483.00,0.0200
3482.00,0.0200
3481.00,0.0201
3480.00,0.0201
3479.00,0.0201
3478.00,0.0201
3477.00,0.0201
3476.00,0.0201
3475.00,0.0202
3474.00,0.0202
3473.00,0.0203
3472.00,0.0203
3471.00,0.0203
3470.00,0.0203
3469.00,0.0203
3468.00,0.0203
3467.00,0.0204
3466.00,0.0204
3465.00,0.0204
3464.00,0.0204
3463.00,0.0204
3462.00,0.0204
3461.00,0.0204
3460.00,0.0204
3459.00,0.0204
3458.00,0.0204
3457.00,0.0204
3456.00,0.0204
3455.00,0.0204
3454.00,0.0204
3453.00,0.0205
3452.00,0.0205
3451.00,0.0206
3450.00,0.0206
3449.00,0.0206
3448.00,0.0206
3447.00,0.0206
3446.00,0.0207
3445.00,0.0207
3444.00,0.0206
3443.00,0.0206
3442.00,0.0207
3441.00,0.0207
3440.00,0.0207
3439.00,0.0207
3438.00,0.0207
3437.00,0.0207
3436.00,0.0207
3435.00,0.0207
3434.00,0.0207
3433.00,0.0208
3432.00,0.0208
3431.00,0.0208
3430.00,0.0208
3429.00,0.0208
3428.00,0.0208
3427.00,0.0208
3426.00,0.0208
3425.00,0.0208
3424.00,0.0208
3423.00,0.0209
3422.00,0.0209
3421.00,0.0209
3420.00,0.0210
3419.00,0.0210
3418.00,0.0210
3417.00,0.0209
3416.00,0.0209
3415.00,0.0209
3414.00,0.0209
3413.00,0.0209
3412.00,0.0210
3411.00,0.0209
3410.00,0.0209
3409.00,0.0209
3408.00,0.0209
3407.00,0.0209
3406.00,0.0210
3405.00,0.0210
3404.00,0.0210
3403.00,0.0211
3402.00,0.0211
3401.00,0.0211
3400.00,0.0210
3399.00,0.0210
3398.00,0.0210
3397.00,0.0210
3396.00,0.0210
3395.00,0.0211
3394.00,0.0211
3393.00,0.0212
3392.00,0.0212
3391.00,0.0211
3390.00,0.0211
3389.00,0.0211
3388.00,0.0211
3387.00,0.0211
3386.00,0.0212
3385.00,0.0212
3384.00,0.0212
3383.00,0.0211
3382.00,0.0211
3381.00,0.0211
3380.00,0.0211
3379.00,0.0212
3378.00,0.0212
3377.00,0.0212
3376.00,0.0213
3375.00,0.0213
3374.00,0.0213
3373.00,0.0213
3372.00,0.0213
3371.00,0.0212
3370.00,0.0212
3369.00,0.0212
3368.00,0.0212
3367.00,0.0213
3366.00,0.0213
3365.00,0.0213
3364.00,0.0213
3363.00,0.0213
3362.00,0.0213
3361.00,0.0213
3360.00,0.0213
3359.00,0.0213
3358.00,0.0214
3357.00,0.0214
3356.00,0.0213
3355.00,0.0213
3354.00,0.0213
3353.00,0.0213
3352.00,0.0213
3351.00,0.0213
3350.00,0.0213
3349.00,0.0213
3348.00,0.0213
3347.00,0.0213
3346.00,0.0212
3345.00,0.0212
3344.00,0.0212
3343.00,0.0212
3342.00,0.0213
3341.00,0.0213
3340.00,0.0213
3339.00,0.0213
3338.00,0.0213
3337.00,0.0213
3336.00,0.0213
3335.00,0.0213
3334.00,0.0213
3333.00,0.0214
3332.00,0.0213
3331.00,0.0213
3330.00,0.0213
3329.00,0.0213
3328.00,0.0213
3327.00,0.0213
3326.00,0.0213
3325.00,0.0213
3324.00,0.0213
3323.00,0.0213
3322.00,0.0212
3321.00,0.0212
3320.00,0.0213
3319.00,0.0213
3318.00,0.0213
3317.00,0.0213
3316.00,0.0213
3315.00,0.0213
3314.00,0.0213
3313.00,0.0213
3312.00,0.0213
3311.00,0.0213
3310.00,0.0213
3309.00,0.0213
3308.00,0.0213
3307.00,0.0213
3306.00,0.0213
3305.00,0.0213
3304.00,0.0213
3303.00,0.0213
3302.00,0.0213
3301.00,0.0214
3300.00,0.0214
3299.00,0.0214
3298.00,0.0214
3297.00,0.0214
3296.00,0.0214
3295.00,0.0214
3294.00,0.0214
3293.00,0.0214
3292.00,0.0215
3291.00,0.0215
3290.00,0.0216
3289.00,0.0216
3288.00,0.0215
3287.00,0.0215
3286.00,0.0214
3285.00,0.0214
3284.00,0.0214
3283.00,0.0214
3282.00,0.0214
3281.00,0.0214
3280.00,0.0215
3279.00,0.0215
3278.00,0.0215
3277.00,0.0216
3276.00,0.0216
3275.00,0.0216
3274.00,0.0216
3273.00,0.0216
3272.00,0.0215
3271.00,0.0215
3270.00,0.0214
3269.00,0.0214
3268.00,0.0214
3267.00,0.0214
3266.00,0.0214
3265.00,0.0214
3264.00,0.0214
3263.00,0.0214
3262.00,0.0214
3261.00,0.0214
3260.00,0.0214
3259.00,0.0214
3258.00,0.0215
3257.00,0.0215
3256.00,0.0215
3255.00,0.0215
3254.00,0.0214
3253.00,0.0214
3252.00,0.0214
3251.00,0.0214
3250.00,0.0214
3249.00,0.0215
3248.00,0.0215
3247.00,0.0216
3246.00,0.0216
3245.00,0.0216
3244.00,0.0216
3243.00,0.0215
3242.00,0.0215
3241.00,0.0215
3240.00,0.0215
3239.00,0.0216
3238.00,0.0216
3237.00,0.0216
3236.00,0.0216
3235.00,0.0216
3234.00,0.0216
3233.00,0.0216
3232.00,0.0216
3231.00,0.0216
3230.00,0.0216
3229.00,0.0216
3228.00,0.0216
3227.00,0.0217
3226.00,0.0217
3225.00,0.0216
3224.00,0.0216
3223.00,0.0215
3222.00,0.0215
3221.00,0.0216
3220.00,0.0216
3219.00,0.0216
3218.00,0.0216
3217.00,0.0216
3216.00,0.0215
3215.00,0.0215
3214.00,0.0215
3213.00,0.0216
3212.00,0.0216
3211.00,0.0216
3210.00,0.0215
3209.00,0.0215
3208.00,0.0215
3207.00,0.0216
3206.00,0.0216
3205.00,0.0216
3204.00,0.0216
3203.00,0.0216
3202.00,0.0216
3201.00,0.0216
3200.00,0.0215
3199.00,0.0215
3198.00,0.0215
3197.00,0.0215
3196.00,0.0215
3195.00,0.0215
3194.00,0.0215
3193.00,0.0215
3192.00,0.0215
3191.00,0.0215
3190.00,0.0216
3189.00,0.0216
3188.00,0.0217
3187.00,0.0217
3186.00,0.0217
3185.00,0.0216
3184.00,0.0216
3183.00,0.0215
3182.00,0.0215
3181.00,0.0215
3180.00,0.0215
3179.00,0.0215
3178.00,0.0215
3177.00,0.0215
3176.00,0.0215
3175.00,0.0215
3174.00,0.0215
3173.00,0.0215
3172.00,0.0215
3171.00,0.0215
3170.00,0.0215
3169.00,0.0215
3168.00,0.0215
3167.00,0.0215
3166.00,0.0215
3165.00,0.0215
3164.00,0.0215
3163.00,0.0215
3162.00,0.0215
3161.00,0.0215
3160.00,0.0215
3159.00,0.0215
3158.00,0.0215
3157.00,0.0215
3156.00,0.0214
3155.00,0.0214
3154.00,0.0214
3153.00,0.0214
3152.00,0.0214
3151.00,0.0214
3150.00,0.0214
3149.00,0.0214
3148.00,0.0214
3147.00,0.0214
3146.00,0.0214
3145.00,0.0214
3144.00,0.0214
3143.00,0.0214
3142.00,0.0213
3141.00,0.0213
3140.00,0.0214
3139.00,0.0214
3138.00,0.0214
3137.00,0.0214
3136.00,0.0214
3135.00,0.0214
3134.00,0.0213
3133.00,0.0213
3132.00,0.0213
3131.00,0.0213
3130.00,0.0213
3129.00,0.0213
3128.00,0.0213
3127.00,0.0213
3126.00,0.0213
3125.00,0.0213
3124.00,0.0213
3123.00,0.0213
3122.00,0.0213
3121.00,0.0213
3120.00,0.0213
3119.00,0.0213
3118.00,0.0213
3117.00,0.0213
3116.00,0.0213
3115.00,0.0213
3114.00,0.0213
3113.00,0.0213
3112.00,0.0212
3111.00,0.0212
3110.00,0.0212
3109.00,0.0212
3108.00,0.0212
3107.00,0.0212
3106.00,0.0213
3105.00,0.0213
3104.00,0.0212
3103.00,0.0212
3102.00,0.0213
3101.00,0.0213
3100.00,0.0213
3099.00,0.0212
3098.00,0.0212
3097.00,0.0212
3096.00,0.0212
3095.00,0.0212
3094.00,0.0212
3093.00,0.0212
3092.00,0.0212
3091.00,0.0212
3090.00,0.0212
3089.00,0.0212
3088.00,0.0212
3087.00,0.0212
3086.00,0.0212
3085.00,0.0212
3084.00,0.0212
3083.00,0.0211
3082.00,0.0211
3081.00,0.0211
3080.00,0.0212
3079.00,0.0212
3078.00,0.0211
3077.00,0.0211
3076.00,0.0211
3075.00,0.0211
3074.00,0.0211
3073.00,0.0211
3072.00,0.0211
3071.00,0.0210
3070.00,0.0210
3069.00,0.0210
3068.00,0.0210
3067.00,0.0211
3066.00,0.0211
3065.00,0.0211
3064.00,0.0211
3063.00,0.0211
3062.00,0.0211
3061.00,0.0210
3060.00,0.0210
3059.00,0.0210
3058.00,0.0210
3057.00,0.0210
3056.00,0.0210
3055.00,0.0210
3054.00,0.0209
3053.00,0.0209
3052.00,0.0209
3051.00,0.0209
3050.00,0.0209
3049.00,0.0209
3048.00,0.0209
3047.00,0.0209
3046.00,0.0209
3045.00,0.0209
3044.00,0.0209
3043.00,0.0208
3042.00,0.0208
3041.00,0.0208
3040.00,0.0208
3039.00,0.0207
3038.00,0.0207
3037.00,0.0208
3036.00,0.0208
3035.00,0.0208
3034.00,0.0207
3033.00,0.0207
3032.00,0.0207
3031.00,0.0207
3030.00,0.0207
3029.00,0.0206
3028.00,0.0206
3027.00,0.0205
3026.00,0.0205
3025.00,0.0205
3024.00,0.0205
3023.00,0.0205
3022.00,0.0205
3021.00,0.0205
3020.00,0.0205
3019.00,0.0205
3018.00,0.0205
3017.00,0.0205
3016.00,0.0205
3015.00,0.0205
3014.00,0.0205
3013.00,0.0204
3012.00,0.0204
3011.00,0.0204
3010.00,0.0203
3009.00,0.0202
3008.00,0.0201
3007.00,0.0201
3006.00,0.0201
3005.00,0.0201
3004.00,0.0200
3003.00,0.0200
3002.00,0.0200
3001.00,0.0200
3000.00,0.0199
2999.00,0.0199
2998.00,0.0198
2997.00,0.0198
2996.00,0.0198
2995.00,0.0197
2994.00,0.0197
2993.00,0.0197
2992.00,0.0197
2991.00,0.0196
2990.00,0.0196
2989.00,0.0196
2988.00,0.0195
2987.00,0.0195
2986.00,0.0194
2985.00,0.0194
2984.00,0.0193
2983.00,0.0192
2982.00,0.0191
2981.00,0.0191
2980.00,0.0191
2979.00,0.0191
2978.00,0.0191
2977.00,0.0192
2976.00,0.0192
2975.00,0.0192
2974.00,0.0192
2973.00,0.0192
2972.00,0.0191
2971.00,0.0191
2970.00,0.0190
2969.00,0.0190
2968.00,0.0190
2967.00,0.0190
2966.00,0.0190
2965.00,0.0189
2964.00,0.0189
2963.00,0.0189
2962.00,0.0189
2961.00,0.0189
2960.00,0.0188
2959.00,0.0188
2958.00,0.0188
2957.00,0.0189
2956.00,0.0189
2955.00,0.0189
2954.00,0.0189
2953.00,0.0189
2952.00,0.0189
2951.00,0.0189
2950.00,0.0189
2949.00,0.0189
2948.00,0.0189
2947.00,0.0189
2946.00,0.0189
2945.00,0.0189
2944.00,0.0189
2943.00,0.0189
2942.00,0.0189
2941.00,0.0188
2940.00,0.0188
2939.00,0.0187
2938.00,0.0186
2937.00,0.0186
2936.00,0.0185
2935.00,0.0184
2934.00,0.0183
2933.00,0.0182
2932.00,0.0182
2931.00,0.0181
2930.00,0.0180
2929.00,0.0179
2928.00,0.0179
2927.00,0.0178
2926.00,0.0177
2925.00,0.0177
2924.00,0.0177
2923.00,0.0177
2922.00,0.0177
2921.00,0.0176
2920.00,0.0176
2919.00,0.0175
2918.00,0.0175
2917.00,0.0175
2916.00,0.0175
2915.00,0.0176
2914.00,0.0177
2913.00,0.0179
2912.00,0.0180
2911.00,0.0181
2910.00,0.0182
2909.00,0.0183
2908.00,0.0183
2907.00,0.0184
2906.00,0.0185
2905.00,0.0185
2904.00,0.0185
2903.00,0.0185
2902.00,0.0186
2901.00,0.0186
2900.00,0.0186
2899.00,0.0186
2898.00,0.0186
2897.00,0.0186
2896.00,0.0186
2895.00,0.0186
2894.00,0.0185
2893.00,0.0185
2892.00,0.0185
2891.00,0.0185
2890.00,0.0185
2889.00,0.0185
2888.00,0.0186
2887.00,0.0186
2886.00,0.0186
2885.00,0.0186
2884.00,0.0186
2883.00,0.0186
2882.00,0.0185
2881.00,0.0186
2880.00,0.0186
2879.00,0.0186
2878.00,0.0186
2877.00,0.0186
2876.00,0.0186
2875.00,0.0186
2874.00,0.0186
2873.00,0.0186
2872.00,0.0185
2871.00,0.0185
2870.00,0.0184
2869.00,0.0184
2868.00,0.0184
2867.00,0.0184
2866.00,0.0183
2865.00,0.0183
2864.00,0.0183
2863.00,0.0183
2862.00,0.0183
2861.00,0.0183
2860.00,0.0182
2859.00,0.0181
2858.00,0.0180
2857.00,0.0180
2856.00,0.0179
2855.00,0.0179
2854.00,0.0178
2853.00,0.0178
2852.00,0.0179
2851.00,0.0179
2850.00,0.0179
2849.00,0.0179
2848.00,0.0179
2847.00,0.0180
2846.00,0.0181
2845.00,0.0182
2844.00,0.0183
2843.00,0.0184
2842.00,0.0184
2841.00,0.0185
2840.00,0.0185
2839.00,0.0185
2838.00,0.0185
2837.00,0.0185
2836.00,0.0185
2835.00,0.0184
2834.00,0.0184
2833.00,0.0184
2832.00,0.0184
2831.00,0.0185
2830.00,0.0185
2829.00,0.0185
2828.00,0.0185
2827.00,0.0185
2826.00,0.0185
2825.00,0.0185
2824.00,0.0185
2823.00,0.0185
2822.00,0.0185
2821.00,0.0185
2820.00,0.0185
2819.00,0.0185
2818.00,0.0185
2817.00,0.0184
2816.00,0.0184
2815.00,0.0184
2814.00,0.0184
2813.00,0.0185
2812.00,0.0185
2811.00,0.0185
2810.00,0.0184
2809.00,0.0184
2808.00,0.0184
2807.00,0.0184
2806.00,0.0183
2805.00,0.0183
2804.00,0.0183
2803.00,0.0183
2802.00,0.0184
2801.00,0.0183
2800.00,0.0183
2799.00,0.0183
2798.00,0.0183
2797.00,0.0183
2796.00,0.0183
2795.00,0.0183
2794.00,0.0183
2793.00,0.0183
2792.00,0.0183
2791.00,0.0182
2790.00,0.0182
2789.00,0.0183
2788.00,0.0183
2787.00,0.0183
2786.00,0.0182
2785.00,0.0182
2784.00,0.0182
2783.00,0.0182
2782.00,0.0182
2781.00,0.0182
2780.00,0.0182
2779.00,0.0182
2778.00,0.0181
2777.00,0.0181
2776.00,0.0181
2775.00,0.0182
2774.00,0.0181
2773.00,0.0181
2772.00,0.0181
2771.00,0.0181
2770.00,0.0181
2769.00,0.0181
2768.00,0.0181
2767.00,0.0181
2766.00,0.0181
2765.00,0.0181
2764.00,0.0181
2763.00,0.0180
2762.00,0.0180
2761.00,0.0180
2760.00,0.0180
2759.00,0.0180
2758.00,0.0180
2757.00,0.0180
2756.00,0.0180
2755.00,0.0180
2754.00,0.0180
2753.00,0.0180
2752.00,0.0180
2751.00,0.0180
2750.00,0.0180
2749.00,0.0180
2748.00,0.0180
2747.00,0.0179
2746.00,0.0179
2745.00,0.0179
2744.00,0.0179
2743.00,0.0179
2742.00,0.0179
2741.00,0.0179
2740.00,0.0179
2739.00,0.0179
2738.00,0.0179
2737.00,0.0179
2736.00,0.0179
2735.00,0.0178
2734.00,0.0178
2733.00,0.0178
2732.00,0.0178
2731.00,0.0178
2730.00,0.0178
2729.00,0.0178
2728.00,0.0178
2727.00,0.0177
2726.00,0.0178
2725.00,0.0178
2724.00,0.0178
2723.00,0.0178
2722.00,0.0178
2721.00,0.0178
2720.00,0.0178
2719.00,0.0178
2718.00,0.0178
2717.00,0.0178
2716.00,0.0177
2715.00,0.0177
2714.00,0.0177
2713.00,0.0178
2712.00,0.0178
2711.00,0.0178
2710.00,0.0178
2709.00,0.0177
2708.00,0.0177
2707.00,0.0177
2706.00,0.0177
2705.00,0.0177
2704.00,0.0176
2703.00,0.0176
2702.00,0.0176
2701.00,0.0176
2700.00,0.0176
2699.00,0.0176
2698.00,0.0176
2697.00,0.0176
2696.00,0.0177
2695.00,0.0177
2694.00,0.0177
2693.00,0.0176
2692.00,0.0176
2691.00,0.0176
2690.00,0.0176
2689.00,0.0176
2688.00,0.0176
2687.00,0.0176
2686.00,0.0176
2685.00,0.0176
2684.00,0.0175
2683.00,0.0175
2682.00,0.0175
2681.00,0.0175
2680.00,0.0175
2679.00,0.0175
2678.00,0.0175
2677.00,0.0175
2676.00,0.0175
2675.00,0.0175
2674.00,0.0175
2673.00,0.0175
2672.00,0.0175
2671.00,0.0175
2670.00,0.0175
2669.00,0.0175
2668.00,0.0175
2667.00,0.0175
2666.00,0.0175
2665.00,0.0175
2664.00,0.0175
2663.00,0.0175
2662.00,0.0175
2661.00,0.0175
2660.00,0.0176
2659.00,0.0176
2658.00,0.0176
2657.00,0.0176
2656.00,0.0176
2655.00,0.0177
2654.00,0.0177
2653.00,0.0177
2652.00,0.0177
2651.00,0.0177
2650.00,0.0176
2649.00,0.0176
2648.00,0.0177
2647.00,0.0177
2646.00,0.0177
2645.00,0.0177
2644.00,0.0177
2643.00,0.0177
2642.00,0.0177
2641.00,0.0177
2640.00,0.0177
2639.00,0.0177
2638.00,0.0177
2637.00,0.0177
2636.00,0.0177
2635.00,0.0177
2634.00,0.0177
2633.00,0.0177
2632.00,0.0177
2631.00,0.0177
2630.00,0.0177
2629.00,0.0178
2628.00,0.0178
2627.00,0.0178
2626.00,0.0178
2625.00,0.0178
2624.00,0.0178
2623.00,0.0178
2622.00,0.0178
2621.00,0.0178
2620.00,0.0178
2619.00,0.0177
2618.00,0.0177
2617.00,0.0177
2616.00,0.0177
2615.00,0.0178
2614.00,0.0178
2613.00,0.0179
2612.00,0.0179
2611.00,0.0179
2610.00,0.0179
2609.00,0.0179
2608.00,0.0179
2607.00,0.0179
2606.00,0.0179
2605.00,0.0179
2604.00,0.0179
2603.00,0.0179
2602.00,0.0179
2601.00,0.0179
2600.00,0.0179
2599.00,0.0178
2598.00,0.0178
2597.00,0.0178
2596.00,0.0178
2595.00,0.0178
2594.00,0.0178
2593.00,0.0178
2592.00,0.0178
2591.00,0.0178
2590.00,0.0178
2589.00,0.0178
2588.00,0.0178
2587.00,0.0178
2586.00,0.0178
2585.00,0.0178
2584.00,0.0178
2583.00,0.0178
2582.00,0.0178
2581.00,0.0178
2580.00,0.0178
2579.00,0.0178
2578.00,0.0178
2577.00,0.0178
2576.00,0.0178
2575.00,0.0178
2574.00,0.0178
2573.00,0.0178
2572.00,0.0178
2571.00,0.0178
2570.00,0.0178
2569.00,0.0178
2568.00,0.0178
2567.00,0.0178
2566.00,0.0178
2565.00,0.0178
2564.00,0.0178
2563.00,0.0178
2562.00,0.0178
2561.00,0.0178
2560.00,0.0178
2559.00,0.0178
2558.00,0.0178
2557.00,0.0178
2556.00,0.0178
2555.00,0.0178
2554.00,0.0178
2553.00,0.0179
2552.00,0.0179
2551.00,0.0179
2550.00,0.0178
2549.00,0.0178
2548.00,0.0178
2547.00,0.0177
2546.00,0.0177
2545.00,0.0177
2544.00,0.0177
2543.00,0.0177
2542.00,0.0177
2541.00,0.0177
2540.00,0.0178
2539.00,0.0178
2538.00,0.0178
2537.00,0.0177
2536.00,0.0176
2535.00,0.0176
2534.00,0.0176
2533.00,0.0176
2532.00,0.0176
2531.00,0.0176
2530.00,0.0176
2529.00,0.0176
2528.00,0.0176
2527.00,0.0176
2526.00,0.0176
2525.00,0.0176
2524.00,0.0177
2523.00,0.0177
2522.00,0.0177
2521.00,0.0177
2520.00,0.0177
2519.00,0.0177
2518.00,0.0177
2517.00,0.0177
2516.00,0.0177
2515.00,0.0177
2514.00,0.0177
2513.00,0.0176
2512.00,0.0176
2511.00,0.0176
2510.00,0.0176
2509.00,0.0176
2508.00,0.0175
2507.00,0.0175
2506.00,0.0175
2505.00,0.0175
2504.00,0.0176
2503.00,0.0176
2502.00,0.0176
2501.00,0.0176
2500.00,0.0176
2499.00,0.0176
2498.00,0.0176
2497.00,0.0176
2496.00,0.0176
2495.00,0.0176
2494.00,0.0176
2493.00,0.0176
2492.00,0.0176
2491.00,0.0176
2490.00,0.0176
2489.00,0.0176
2488.00,0.0176
2487.00,0.0176
2486.00,0.0176
2485.00,0.0175
2484.00,0.0175
2483.00,0.0175
2482.00,0.0175
2481.00,0.0175
2480.00,0.0175
2479.00,0.0176
2478.00,0.0176
2477.00,0.0176
2476.00,0.0176
2475.00,0.0175
2474.00,0.0175
2473.00,0.0175
2472.00,0.0174
2471.00,0.0174
2470.00,0.0174
2469.00,0.0174
2468.00,0.0175
2467.00,0.0175
2466.00,0.0175
2465.00,0.0175
2464.00,0.0175
2463.00,0.0175
2462.00,0.0175
2461.00,0.0175
2460.00,0.0175
2459.00,0.0175
2458.00,0.0174
2457.00,0.0174
2456.00,0.0174
2455.00,0.0174
2454.00,0.0174
2453.00,0.0174
2452.00,0.0175
2451.00,0.0175
2450.00,0.0175
2449.00,0.0175
2448.00,0.0175
2447.00,0.0175
2446.00,0.0175
2445.00,0.0174
2444.00,0.0174
2443.00,0.0174
2442.00,0.0173
2441.00,0.0173
2440.00,0.0173
2439.00,0.0172
2438.00,0.0172
2437.00,0.0172
2436.00,0.0172
2435.00,0.0172
2434.00,0.0172
2433.00,0.0172
2432.00,0.0172
2431.00,0.0172
2430.00,0.0172
2429.00,0.0171
2428.00,0.0171
2427.00,0.0171
2426.00,0.0172
2425.00,0.0172
2424.00,0.0172
2423.00,0.0172
2422.00,0.0171
2421.00,0.0171
2420.00,0.0171
2419.00,0.0171
2418.00,0.0171
2417.00,0.0171
2416.00,0.0171
2415.00,0.0171
2414.00,0.0171
2413.00,0.0171
2412.00,0.0170
2411.00,0.0170
2410.00,0.0170
2409.00,0.0170
2408.00,0.0170
2407.00,0.0170
2406.00,0.0170
2405.00,0.0170
2404.00,0.0170
2403.00,0.0170
2402.00,0.0170
2401.00,0.0170
2400.00,0.0169
2399.00,0.0169
2398.00,0.0169
2397.00,0.0169
2396.00,0.0169
2395.00,0.0169
2394.00,0.0169
2393.00,0.0168
2392.00,0.0168
2391.00,0.0168
2390.00,0.0168
2389.00,0.0168
2388.00,0.0167
2387.00,0.0167
2386.00,0.0166
2385.00,0.0165
2384.00,0.0164
2383.00,0.0163
2382.00,0.0163
2381.00,0.0163
2380.00,0.0163
2379.00,0.0163
2378.00,0.0163
2377.00,0.0163
2376.00,0.0164
2375.00,0.0165
2374.00,0.0166
2373.00,0.0166
2372.00,0.0166
2371.00,0.0166
2370.00,0.0166
2369.00,0.0166
2368.00,0.0166
2367.00,0.0165
2366.00,0.0164
2365.00,0.0164
2364.00,0.0164
2363.00,0.0163
2362.00,0.0164
2361.00,0.0165
2360.00,0.0168
2359.00,0.0169
2358.00,0.0170
2357.00,0.0170
2356.00,0.0170
2355.00,0.0170
2354.00,0.0170
2353.00,0.0170
2352.00,0.0170
2351.00,0.0171
2350.00,0.0170
2349.00,0.0167
2348.00,0.0163
2347.00,0.0159
2346.00,0.0159
2345.00,0.0162
2344.00,0.0164
2343.00,0.0166
2342.00,0.0167
2341.00,0.0168
2340.00,0.0168
2339.00,0.0168
2338.00,0.0168
2337.00,0.0168
2336.00,0.0168
2335.00,0.0168
2334.00,0.0167
2333.00,0.0166
2332.00,0.0166
2331.00,0.0167
2330.00,0.0168
2329.00,0.0169
2328.00,0.0170
2327.00,0.0172
2326.00,0.0172
2325.00,0.0172
2324.00,0.0171
2323.00,0.0171
2322.00,0.0170
2321.00,0.0170
2320.00,0.0171
2319.00,0.0171
2318.00,0.0172
2317.00,0.0172
2316.00,0.0171
2315.00,0.0170
2314.00,0.0169
2313.00,0.0168
2312.00,0.0168
2311.00,0.0168
2310.00,0.0169
2309.00,0.0169
2308.00,0.0169
2307.00,0.0169
2306.00,0.0169
2305.00,0.0168
2304.00,0.0167
2303.00,0.0166
2302.00,0.0166
2301.00,0.0165
2300.00,0.0165
2299.00,0.0165
2298.00,0.0165
2297.00,0.0166
2296.00,0.0166
2295.00,0.0166
2294.00,0.0166
2293.00,0.0167
2292.00,0.0167
2291.00,0.0167
2290.00,0.0167
2289.00,0.0168
2288.00,0.0168
2287.00,0.0168
2286.00,0.0168
2285.00,0.0168
2284.00,0.0167
2283.00,0.0166
2282.00,0.0166
2281.00,0.0166
2280.00,0.0166
2279.00,0.0165
2278.00,0.0165
2277.00,0.0164
2276.00,0.0164
2275.00,0.0164
2274.00,0.0164
2273.00,0.0164
2272.00,0.0165
2271.00,0.0165
2270.00,0.0165
2269.00,0.0165
2268.00,0.0165
2267.00,0.0165
2266.00,0.0166
2265.00,0.0166
2264.00,0.0167
2263.00,0.0167
2262.00,0.0167
2261.00,0.0167
2260.00,0.0168
2259.00,0.0168
2258.00,0.0168
2257.00,0.0167
2256.00,0.0166
2255.00,0.0165
2254.00,0.0166
2253.00,0.0166
2252.00,0.0166
2251.00,0.0166
2250.00,0.0165
2249.00,0.0165
2248.00,0.0165
2247.00,0.0165
2246.00,0.0165
2245.00,0.0165
2244.00,0.0165
2243.00,0.0165
2242.00,0.0164
2241.00,0.0164
2240.00,0.0164
2239.00,0.0164
2238.00,0.0164
2237.00,0.0165
2236.00,0.0164
2235.00,0.0164
2234.00,0.0164
2233.00,0.0165
2232.00,0.0165
2231.00,0.0165
2230.00,0.0165
2229.00,0.0165
2228.00,0.0165
2227.00,0.0166
2226.00,0.0166
2225.00,0.0165
2224.00,0.0164
2223.00,0.0163
2222.00,0.0163
2221.00,0.0164
2220.00,0.0165
2219.00,0.0165
2218.00,0.0165
2217.00,0.0164
2216.00,0.0164
2215.00,0.0165
2214.00,0.0166
2213.00,0.0166
2212.00,0.0167
2211.00,0.0166
2210.00,0.0166
2209.00,0.0165
2208.00,0.0164
2207.00,0.0164
2206.00,0.0164
2205.00,0.0165
2204.00,0.0165
2203.00,0.0166
2202.00,0.0167
2201.00,0.0168
2200.00,0.0170
2199.00,0.0171
2198.00,0.0171
2197.00,0.0169
2196.00,0.0167
2195.00,0.0165
2194.00,0.0164
2193.00,0.0164
2192.00,0.0163
2191.00,0.0164
2190.00,0.0165
2189.00,0.0166
2188.00,0.0167
2187.00,0.0168
2186.00,0.0169
2185.00,0.0169
2184.00,0.0168
2183.00,0.0167
2182.00,0.0166
2181.00,0.0165
2180.00,0.0165
2179.00,0.0165
2178.00,0.0165
2177.00,0.0164
2176.00,0.0162
2175.00,0.0162
2174.00,0.0163
2173.00,0.0164
2172.00,0.0166
2171.00,0.0167
2170.00,0.0167
2169.00,0.0168
2168.00,0.0167
2167.00,0.0166
2166.00,0.0166
2165.00,0.0167
2164.00,0.0168
2163.00,0.0169
2162.00,0.0168
2161.00,0.0165
2160.00,0.0162
2159.00,0.0160
2158.00,0.0159
2157.00,0.0159
2156.00,0.0158
2155.00,0.0158
2154.00,0.0158
2153.00,0.0158
2152.00,0.0159
2151.00,0.0160
2150.00,0.0160
2149.00,0.0159
2148.00,0.0159
2147.00,0.0158
2146.00,0.0157
2145.00,0.0157
2144.00,0.0156
2143.00,0.0156
2142.00,0.0155
2141.00,0.0155
2140.00,0.0156
2139.00,0.0156
2138.00,0.0156
2137.00,0.0156
2136.00,0.0154
2135.00,0.0153
2134.00,0.0152
2133.00,0.0152
2132.00,0.0152
2131.00,0.0152
2130.00,0.0151
2129.00,0.0151
2128.00,0.0151
2127.00,0.0151
2126.00,0.0152
2125.00,0.0152
2124.00,0.0152
2123.00,0.0152
2122.00,0.0153
2121.00,0.0153
2120.00,0.0153
2119.00,0.0154
2118.00,0.0155
2117.00,0.0156
2116.00,0.0156
2115.00,0.0155
2114.00,0.0155
2113.00,0.0155
2112.00,0.0155
2111.00,0.0155
2110.00,0.0155
2109.00,0.0156
2108.00,0.0155
2107.00,0.0155
2106.00,0.0155
2105.00,0.0154
2104.00,0.0153
2103.00,0.0153
2102.00,0.0152
2101.00,0.0151
2100.00,0.0150
2099.00,0.0149
2098.00,0.0149
2097.00,0.0150
2096.00,0.0151
2095.00,0.0151
2094.00,0.0151
2093.00,0.0152
2092.00,0.0152
2091.00,0.0152
2090.00,0.0151
2089.00,0.0151
2088.00,0.0150
2087.00,0.0150
2086.00,0.0150
2085.00,0.0150
2084.00,0.0150
2083.00,0.0150
2082.00,0.0150
2081.00,0.0150
2080.00,0.0150
2079.00,0.0150
2078.00,0.0151
2077.00,0.0151
2076.00,0.0151
2075.00,0.0151
2074.00,0.0150
2073.00,0.0150
2072.00,0.0150
2071.00,0.0150
2070.00,0.0151
2069.00,0.0151
2068.00,0.0151
2067.00,0.0150
2066.00,0.0149
2065.00,0.0148
2064.00,0.0147
2063.00,0.0147
2062.00,0.0148
2061.00,0.0149
2060.00,0.0149
2059.00,0.0150
2058.00,0.0150
2057.00,0.0150
2056.00,0.0150
2055.00,0.0151
2054.00,0.0151
2053.00,0.0152
2052.00,0.0152
2051.00,0.0152
2050.00,0.0151
2049.00,0.0151
2048.00,0.0150
2047.00,0.0149
2046.00,0.0150
2045.00,0.0151
2044.00,0.0153
2043.00,0.0154
2042.00,0.0155
2041.00,0.0155
2040.00,0.0155
2039.00,0.0155
2038.00,0.0156
2037.00,0.0157
2036.00,0.0157
2035.00,0.0156
2034.00,0.0154
2033.00,0.0152
2032.00,0.0150
2031.00,0.0149
2030.00,0.0149
2029.00,0.0149
2028.00,0.0150
2027.00,0.0150
2026.00,0.0150
2025.00,0.0150
2024.00,0.0150
2023.00,0.0150
2022.00,0.0150
2021.00,0.0151
2020.00,0.0153
2019.00,0.0154
2018.00,0.0155
2017.00,0.0154
2016.00,0.0153
2015.00,0.0152
2014.00,0.0152
2013.00,0.0153
2012.00,0.0153
2011.00,0.0152
2010.00,0.0149
2009.00,0.0147
2008.00,0.0147
2007.00,0.0148
2006.00,0.0150
2005.00,0.0150
2004.00,0.0149
2003.00,0.0148
2002.00,0.0148
2001.00,0.0148
2000.00,0.0148
1999.00,0.0149
1998.00,0.0149
1997.00,0.0150
1996.00,0.0150
1995.00,0.0150
1994.00,0.0150
1993.00,0.0151
1992.00,0.0151
1991.00,0.0151
1990.00,0.0151
1989.00,0.0150
1988.00,0.0148
1987.00,0.0146
1986.00,0.0145
1985.00,0.0145
1984.00,0.0146
1983.00,0.0148
1982.00,0.0151
1981.00,0.0152
1980.00,0.0153
1979.00,0.0152
1978.00,0.0151
1977.00,0.0149
1976.00,0.0147
1975.00,0.0144
1974.00,0.0143
1973.00,0.0143
1972.00,0.0145
1971.00,0.0146
1970.00,0.0146
1969.00,0.0144
1968.00,0.0142
1967.00,0.0141
1966.00,0.0142
1965.00,0.0144
1964.00,0.0146
1963.00,0.0147
1962.00,0.0147
1961.00,0.0146
1960.00,0.0144
1959.00,0.0142
1958.00,0.0140
1957.00,0.0139
1956.00,0.0139
1955.00,0.0139
1954.00,0.0139
1953.00,0.0139
1952.00,0.0138
1951.00,0.0138
1950.00,0.0138
1949.00,0.0138
1948.00,0.0138
1947.00,0.0138
1946.00,0.0138
1945.00,0.0138
1944.00,0.0137
1943.00,0.0137
1942.00,0.0136
1941.00,0.0136
1940.00,0.0136
1939.00,0.0135
1938.00,0.0135
1937.00,0.0136
1936.00,0.0136
1935.00,0.0137
1934.00,0.0138
1933.00,0.0137
1932.00,0.0136
1931.00,0.0135
1930.00,0.0133
1929.00,0.0133
1928.00,0.0132
1927.00,0.0132
1926.00,0.0132
1925.00,0.0132
1924.00,0.0132
1923.00,0.0131
1922.00,0.0131
1921.00,0.0132
1920.00,0.0132
1919.00,0.0132
1918.00,0.0130
1917.00,0.0129
1916.00,0.0129
1915.00,0.0129
1914.00,0.0129
1913.00,0.0129
1912.00,0.0128
1911.00,0.0128
1910.00,0.0127
1909.00,0.0127
1908.00,0.0127
1907.00,0.0127
1906.00,0.0127
1905.00,0.0127
1904.00,0.0127
1903.00,0.0126
1902.00,0.0126
1901.00,0.0125
1900.00,0.0125
1899.00,0.0125
1898.00,0.0125
1897.00,0.0124
1896.00,0.0124
1895.00,0.0123
1894.00,0.0122
1893.00,0.0122
1892.00,0.0122
1891.00,0.0122
1890.00,0.0121
1889.00,0.0120
1888.00,0.0119
1887.00,0.0120
1886.00,0.0120
1885.00,0.0120
1884.00,0.0120
1883.00,0.0119
1882.00,0.0119
1881.00,0.0119
1880.00,0.0119
1879.00,0.0118
1878.00,0.0117
1877.00,0.0117
1876.00,0.0117
1875.00,0.0117
1874.00,0.0117
1873.00,0.0118
1872.00,0.0119
1871.00,0.0119
1870.00,0.0119
1869.00,0.0117
1868.00,0.0115
1867.00,0.0114
1866.00,0.0114
1865.00,0.0115
1864.00,0.0116
1863.00,0.0116
1862.00,0.0115
1861.00,0.0114
1860.00,0.0114
1859.00,0.0114
1858.00,0.0114
1857.00,0.0114
1856.00,0.0114
1855.00,0.0113
1854.00,0.0112
1853.00,0.0112
1852.00,0.0112
1851.00,0.0113
1850.00,0.0113
1849.00,0.0113
1848.00,0.0114
1847.00,0.0114
1846.00,0.0115
1845.00,0.0114
1844.00,0.0111
1843.00,0.0109
1842.00,0.0109
1841.00,0.0109
1840.00,0.0109
1839.00,0.0109
1838.00,0.0109
1837.00,0.0108
1836.00,0.0108
1835.00,0.0108
1834.00,0.0108
1833.00,0.0109
1832.00,0.0109
1831.00,0.0108
1830.00,0.0106
1829.00,0.0104
1828.00,0.0103
1827.00,0.0103
1826.00,0.0103
1825.00,0.0102
1824.00,0.0102
1823.00,0.0103
1822.00,0.0103
1821.00,0.0103
1820.00,0.0103
1819.00,0.0103
1818.00,0.0102
1817.00,0.0101
1816.00,0.0101
1815.00,0.0101
1814.00,0.0101
1813.00,0.0101
1812.00,0.0100
1811.00,0.0099
1810.00,0.0099
1809.00,0.0100
1808.00,0.0100
1807.00,0.0100
1806.00,0.0101
1805.00,0.0101
1804.00,0.0102
1803.00,0.0101
1802.00,0.0101
1801.00,0.0100
1800.00,0.0100
1799.00,0.0100
1798.00,0.0101
1797.00,0.0103
1796.00,0.0104
1795.00,0.0105
1794.00,0.0106
1793.00,0.0106
1792.00,0.0104
1791.00,0.0102
1790.00,0.0101
1789.00,0.0102
1788.00,0.0104
1787.00,0.0104
1786.00,0.0105
1785.00,0.0106
1784.00,0.0106
1783.00,0.0106
1782.00,0.0106
1781.00,0.0106
1780.00,0.0107
1779.00,0.0108
1778.00,0.0110
1777.00,0.0112
1776.00,0.0114
1775.00,0.0116
1774.00,0.0117
1773.00,0.0117
1772.00,0.0115
1771.00,0.0114
1770.00,0.0115
1769.00,0.0117
1768.00,0.0119
1767.00,0.0120
1766.00,0.0120
1765.00,0.0122
1764.00,0.0123
1763.00,0.0123
1762.00,0.0122
1761.00,0.0122
1760.00,0.0123
1759.00,0.0124
1758.00,0.0125
1757.00,0.0125
1756.00,0.0126
1755.00,0.0127
1754.00,0.0129
1753.00,0.0131
1752.00,0.0133
1751.00,0.0134
1750.00,0.0134
1749.00,0.0134
1748.00,0.0134
1747.00,0.0135
1746.00,0.0136
1745.00,0.0137
1744.00,0.0138
1743.00,0.0138
1742.00,0.0140
1741.00,0.0142
1740.00,0.0144
1739.00,0.0146
1738.00,0.0147
1737.00,0.0150
1736.00,0.0153
1735.00,0.0156
1734.00,0.0158
1733.00,0.0157
1732.00,0.0157
1731.00,0.0157
1730.00,0.0158
1729.00,0.0159
1728.00,0.0161
1727.00,0.0164
1726.00,0.0166
1725.00,0.0168
1724.00,0.0170
1723.00,0.0172
1722.00,0.0173
1721.00,0.0174
1720.00,0.0175
1719.00,0.0176
1718.00,0.0180
1717.00,0.0183
1716.00,0.0184
1715.00,0.0183
1714.00,0.0183
1713.00,0.0184
1712.00,0.0186
1711.00,0.0187
1710.00,0.0188
1709.00,0.0189
1708.00,0.0189
1707.00,0.0190
1706.00,0.0191
1705.00,0.0191
1704.00,0.0192
1703.00,0.0193
1702.00,0.0193
1701.00,0.0195
1700.00,0.0198
1699.00,0.0200
1698.00,0.0201
1697.00,0.0201
1696.00,0.0199
1695.00,0.0197
1694.00,0.0197
1693.00,0.0198
1692.00,0.0199
1691.00,0.0199
1690.00,0.0200
1689.00,0.0201
1688.00,0.0201
1687.00,0.0200
1686.00,0.0198
1685.00,0.0196
1684.00,0.0195
1683.00,0.0195
1682.00,0.0197
1681.00,0.0199
1680.00,0.0200
1679.00,0.0201
1678.00,0.0201
1677.00,0.0201
1676.00,0.0202
1675.00,0.0203
1674.00,0.0203
1673.00,0.0203
1672.00,0.0203
1671.00,0.0203
1670.00,0.0203
1669.00,0.0202
1668.00,0.0202
1667.00,0.0203
1666.00,0.0203
1665.00,0.0204
1664.00,0.0205
1663.00,0.0206
1662.00,0.0206
1661.00,0.0207
1660.00,0.0207
1659.00,0.0208
1658.00,0.0208
1657.00,0.0207
1656.00,0.0205
1655.00,0.0203
1654.00,0.0204
1653.00,0.0206
1652.00,0.0209
1651.00,0.0211
1650.00,0.0213
1649.00,0.0214
1648.00,0.0217
1647.00,0.0220
1646.00,0.0220
1645.00,0.0220
1644.00,0.0221
1643.00,0.0222
1642.00,0.0222
1641.00,0.0223
1640.00,0.0224
1639.00,0.0224
1638.00,0.0224
1637.00,0.0226
1636.00,0.0228
1635.00,0.0229
1634.00,0.0231
1633.00,0.0232
1632.00,0.0234
1631.00,0.0235
1630.00,0.0236
1629.00,0.0237
1628.00,0.0238
1627.00,0.0239
1626.00,0.0241
1625.00,0.0242
1624.00,0.0245
1623.00,0.0247
1622.00,0.0249
1621.00,0.0249
1620.00,0.0250
1619.00,0.0251
1618.00,0.0253
1617.00,0.0255
1616.00,0.0257
1615.00,0.0257
1614.00,0.0258
1613.00,0.0258
1612.00,0.0259
1611.00,0.0261
1610.00,0.0263
1609.00,0.0265
1608.00,0.0266
1607.00,0.0267
1606.00,0.0268
1605.00,0.0268
1604.00,0.0269
1603.00,0.0270
1602.00,0.0271
1601.00,0.0271
1600.00,0.0271
1599.00,0.0272
1598.00,0.0273
1597.00,0.0273
1596.00,0.0274
1595.00,0.0274
1594.00,0.0275
1593.00,0.0275
1592.00,0.0275
1591.00,0.0276
1590.00,0.0276
1589.00,0.0277
1588.00,0.0277
1587.00,0.0277
1586.00,0.0277
1585.00,0.0277
1584.00,0.0277
1583.00,0.0278
1582.00,0.0278
1581.00,0.0278
1580.00,0.0278
1579.00,0.0277
1578.00,0.0277
1577.00,0.0278
1576.00,0.0280
1575.00,0.0280
1574.00,0.0280
1573.00,0.0279
1572.00,0.0278
1571.00,0.0278
1570.00,0.0278
1569.00,0.0278
1568.00,0.0278
1567.00,0.0278
1566.00,0.0277
1565.00,0.0277
1564.00,0.0276
1563.00,0.0275
1562.00,0.0270
1561.00,0.0264
1560.00,0.0263
1559.00,0.0271
1558.00,0.0274
1557.00,0.0275
1556.00,0.0275
1555.00,0.0274
1554.00,0.0273
1553.00,0.0271
1552.00,0.0268
1551.00,0.0267
1550.00,0.0265
1549.00,0.0264
1548.00,0.0264
1547.00,0.0263
1546.00,0.0262
1545.00,0.0262
1544.00,0.0262
1543.00,0.0262
1542.00,0.0261
1541.00,0.0259
1540.00,0.0254
1539.00,0.0249
1538.00,0.0248
1537.00,0.0248
1536.00,0.0248
1535.00,0.0248
1534.00,0.0247
1533.00,0.0246
1532.00,0.0245
1531.00,0.0245
1530.00,0.0245
1529.00,0.0244
1528.00,0.0244
1527.00,0.0244
1526.00,0.0245
1525.00,0.0245
1524.00,0.0245
1523.00,0.0244
1522.00,0.0244
1521.00,0.0241
1520.00,0.0238
1519.00,0.0236
1518.00,0.0235
1517.00,0.0234
1516.00,0.0234
1515.00,0.0234
1514.00,0.0235
1513.00,0.0235
1512.00,0.0236
1511.00,0.0235
1510.00,0.0233
1509.00,0.0233
1508.00,0.0234
1507.00,0.0232
1506.00,0.0228
1505.00,0.0229
1504.00,0.0230
1503.00,0.0230
1502.00,0.0229
1501.00,0.0228
1500.00,0.0227
1499.00,0.0226
1498.00,0.0226
1497.00,0.0226
1496.00,0.0227
1495.00,0.0227
1494.00,0.0228
1493.00,0.0229
1492.00,0.0230
1491.00,0.0230
1490.00,0.0230
1489.00,0.0228
1488.00,0.0226
1487.00,0.0225
1486.00,0.0225
1485.00,0.0225
1484.00,0.0225
1483.00,0.0225
1482.00,0.0226
1481.00,0.0226
1480.00,0.0226
1479.00,0.0225
1478.00,0.0225
1477.00,0.0225
1476.00,0.0226
1475.00,0.0228
1474.00,0.0230
1473.00,0.0232
1472.00,0.0230
1471.00,0.0228
1470.00,0.0227
1469.00,0.0227
1468.00,0.0227
1467.00,0.0226
1466.00,0.0227
1465.00,0.0227
1464.00,0.0228
1463.00,0.0228
1462.00,0.0227
1461.00,0.0227
1460.00,0.0226
1459.00,0.0228
1458.00,0.0232
1457.00,0.0235
1456.00,0.0235
1455.00,0.0234
1454.00,0.0233
1453.00,0.0234
1452.00,0.0235
1451.00,0.0235
1450.00,0.0236
1449.00,0.0237
1448.00,0.0238
1447.00,0.0239
1446.00,0.0239
1445.00,0.0240
1444.00,0.0240
1443.00,0.0241
1442.00,0.0242
1441.00,0.0242
1440.00,0.0242
1439.00,0.0242
1438.00,0.0243
1437.00,0.0244
1436.00,0.0246
1435.00,0.0246
1434.00,0.0246
1433.00,0.0246
1432.00,0.0246
1431.00,0.0246
1430.00,0.0246
1429.00,0.0246
1428.00,0.0247
1427.00,0.0247
1426.00,0.0247
1425.00,0.0247
1424.00,0.0248
1423.00,0.0248
1422.00,0.0247
1421.00,0.0246
1420.00,0.0246
1419.00,0.0246
1418.00,0.0247
1417.00,0.0248
1416.00,0.0248
1415.00,0.0249
1414.00,0.0249
1413.00,0.0248
1412.00,0.0248
1411.00,0.0248
1410.00,0.0248
1409.00,0.0248
1408.00,0.0247
1407.00,0.0247
1406.00,0.0246
1405.00,0.0247
1404.00,0.0248
1403.00,0.0249
1402.00,0.0249
1401.00,0.0249
1400.00,0.0249
1399.00,0.0250
1398.00,0.0251
1397.00,0.0251
1396.00,0.0252
1395.00,0.0252
1394.00,0.0251
1393.00,0.0252
1392.00,0.0252
1391.00,0.0253
1390.00,0.0253
1389.00,0.0253
1388.00,0.0254
1387.00,0.0254
1386.00,0.0255
1385.00,0.0254
1384.00,0.0255
1383.00,0.0255
1382.00,0.0255
1381.00,0.0255
1380.00,0.0255
1379.00,0.0256
1378.00,0.0256
1377.00,0.0256
1376.00,0.0256
1375.00,0.0256
1374.00,0.0257
1373.00,0.0258
1372.00,0.0258
1371.00,0.0258
1370.00,0.0259
1369.00,0.0259
1368.00,0.0259
1367.00,0.0259
1366.00,0.0259
1365.00,0.0258
1364.00,0.0257
1363.00,0.0257
1362.00,0.0258
1361.00,0.0259
1360.00,0.0259
1359.00,0.0259
1358.00,0.0259
1357.00,0.0259
1356.00,0.0259
1355.00,0.0259
1354.00,0.0259
1353.00,0.0258
1352.00,0.0258
1351.00,0.0258
1350.00,0.0258
1349.00,0.0258
1348.00,0.0258
1347.00,0.0258
1346.00,0.0258
1345.00,0.0258
1344.00,0.0258
1343.00,0.0258
1342.00,0.0258
1341.00,0.0258
1340.00,0.0258
1339.00,0.0258
1338.00,0.0258
1337.00,0.0258
1336.00,0.0258
1335.00,0.0258
1334.00,0.0258
1333.00,0.0258
1332.00,0.0257
1331.00,0.0257
1330.00,0.0258
1329.00,0.0258
1328.00,0.0258
1327.00,0.0258
1326.00,0.0258
1325.00,0.0258
1324.00,0.0259
1323.00,0.0259
1322.00,0.0260
1321.00,0.0260
1320.00,0.0260
1319.00,0.0260
1318.00,0.0260
1317.00,0.0260
1316.00,0.0261
1315.00,0.0262
1314.00,0.0262
1313.00,0.0262
1312.00,0.0263
1311.00,0.0263
1310.00,0.0263
1309.00,0.0263
1308.00,0.0264
1307.00,0.0264
1306.00,0.0264
1305.00,0.0265
1304.00,0.0265
1303.00,0.0266
1302.00,0.0266
1301.00,0.0267
1300.00,0.0267
1299.00,0.0268
1298.00,0.0268
1297.00,0.0269
1296.00,0.0270
1295.00,0.0270
1294.00,0.0271
1293.00,0.0271
1292.00,0.0272
1291.00,0.0272
1290.00,0.0272
1289.00,0.0273
1288.00,0.0273
1287.00,0.0274
1286.00,0.0274
1285.00,0.0274
1284.00,0.0275
1283.00,0.0276
1282.00,0.0276
1281.00,0.0277
1280.00,0.0277
1279.00,0.0278
1278.00,0.0278
1277.00,0.0279
1276.00,0.0279
1275.00,0.0280
1274.00,0.0280
1273.00,0.0281
1272.00,0.0281
1271.00,0.0282
1270.00,0.0282
1269.00,0.0282
1268.00,0.0282
1267.00,0.0283
1266.00,0.0283
1265.00,0.0283
1264.00,0.0283
1263.00,0.0283
1262.00,0.0284
1261.00,0.0285
1260.00,0.0285
1259.00,0.0285
1258.00,0.0286
1257.00,0.0286
1256.00,0.0286
1255.00,0.0286
1254.00,0.0286
1253.00,0.0287
1252.00,0.0287
1251.00,0.0287
1250.00,0.0288
1249.00,0.0288
1248.00,0.0289
1247.00,0.0290
1246.00,0.0290
1245.00,0.0290
1244.00,0.0290
1243.00,0.0290
1242.00,0.0291
1241.00,0.0291
1240.00,0.0291
1239.00,0.0292
1238.00,0.0292
1237.00,0.0293
1236.00,0.0293
1235.00,0.0293
1234.00,0.0294
1233.00,0.0294
1232.00,0.0294
1231.00,0.0294
1230.00,0.0295
1229.00,0.0295
1228.00,0.0296
1227.00,0.0297
1226.00,0.0297
1225.00,0.0297
1224.00,0.0297
1223.00,0.0297
1222.00,0.0297
1221.00,0.0297
1220.00,0.0298
1219.00,0.0298
1218.00,0.0298
1217.00,0.0298
1216.00,0.0298
1215.00,0.0298
1214.00,0.0298
1213.00,0.0298
1212.00,0.0299
1211.00,0.0299
1210.00,0.0300
1209.00,0.0300
1208.00,0.0299
1207.00,0.0299
1206.00,0.0299
1205.00,0.0299
1204.00,0.0299
1203.00,0.0299
1202.00,0.0299
1201.00,0.0299
1200.00,0.0300
1199.00,0.0300
1198.00,0.0300
1197.00,0.0300
1196.00,0.0299
1195.00,0.0299
1194.00,0.0299
1193.00,0.0298
1192.00,0.0298
1191.00,0.0298
1190.00,0.0299
1189.00,0.0299
1188.00,0.0299
1187.00,0.0298
1186.00,0.0298
1185.00,0.0299
1184.00,0.0299
1183.00,0.0299
1182.00,0.0298
1181.00,0.0298
1180.00,0.0298
1179.00,0.0298
1178.00,0.0299
1177.00,0.0300
1176.00,0.0300
1175.00,0.0300
1174.00,0.0300
1173.00,0.0299
1172.00,0.0299
1171.00,0.0298
1170.00,0.0298
1169.00,0.0297
1168.00,0.0297
1167.00,0.0297
1166.00,0.0297
1165.00,0.0297
1164.00,0.0296
1163.00,0.0296
1162.00,0.0296
1161.00,0.0296
1160.00,0.0296
1159.00,0.0295
1158.00,0.0295
1157.00,0.0295
1156.00,0.0295
1155.00,0.0295
1154.00,0.0295
1153.00,0.0294
1152.00,0.0294
1151.00,0.0294
1150.00,0.0294
1149.00,0.0294
1148.00,0.0294
1147.00,0.0293
1146.00,0.0293
1145.00,0.0293
1144.00,0.0293
1143.00,0.0293
1142.00,0.0293
1141.00,0.0292
1140.00,0.0292
1139.00,0.0292
1138.00,0.0292
1137.00,0.0291
1136.00,0.0291
1135.00,0.0291
1134.00,0.0291
1133.00,0.0292
1132.00,0.0291
1131.00,0.0291
1130.00,0.0290
1129.00,0.0289
1128.00,0.0289
1127.00,0.0288
1126.00,0.0288
1125.00,0.0287
1124.00,0.0287
1123.00,0.0287
1122.00,0.0288
1121.00,0.0289
1120.00,0.0290
1119.00,0.0290
1118.00,0.0290
1117.00,0.0290
1116.00,0.0290
1115.00,0.0290
1114.00,0.0289
1113.00,0.0288
1112.00,0.0288
1111.00,0.0288
1110.00,0.0288
1109.00,0.0288
1108.00,0.0287
1107.00,0.0287
1106.00,0.0286
1105.00,0.0286
1104.00,0.0286
1103.00,0.0286
1102.00,0.0286
1101.00,0.0286
1100.00,0.0286
1099.00,0.0286
1098.00,0.0286
1097.00,0.0286
1096.00,0.0286
1095.00,0.0286
1094.00,0.0286
1093.00,0.0285
1092.00,0.0285
1091.00,0.0285
1090.00,0.0285
1089.00,0.0286
1088.00,0.0286
1087.00,0.0287
1086.00,0.0287
1085.00,0.0286
1084.00,0.0286
1083.00,0.0286
1082.00,0.0285
1081.00,0.0285
1080.00,0.0285
1079.00,0.0285
1078.00,0.0285
1077.00,0.0284
1076.00,0.0285
1075.00,0.0285
1074.00,0.0286
1073.00,0.0286
1072.00,0.0287
1071.00,0.0287
1070.00,0.0287
1069.00,0.0287
1068.00,0.0287
1067.00,0.0287
1066.00,0.0287
1065.00,0.0287
1064.00,0.0288
1063.00,0.0289
1062.00,0.0289
1061.00,0.0289
1060.00,0.0289
1059.00,0.0289
1058.00,0.0289
1057.00,0.0289
1056.00,0.0288
1055.00,0.0288
1054.00,0.0287
1053.00,0.0287
1052.00,0.0288
1051.00,0.0290
1050.00,0.0291
1049.00,0.0291
1048.00,0.0291
1047.00,0.0290
1046.00,0.0290
1045.00,0.0289
1044.00,0.0288
1043.00,0.0288
1042.00,0.0288
1041.00,0.0288
1040.00,0.0288
1039.00,0.0289
1038.00,0.0289
1037.00,0.0288
1036.00,0.0288
1035.00,0.0288
1034.00,0.0288
1033.00,0.0288
1032.00,0.0288
1031.00,0.0288
1030.00,0.0289
1029.00,0.0289
1028.00,0.0288
1027.00,0.0287
1026.00,0.0285
1025.00,0.0284
1024.00,0.0284
1023.00,0.0284
1022.00,0.0285
1021.00,0.0285
1020.00,0.0285
1019.00,0.0285
1018.00,0.0284
1017.00,0.0284
1016.00,0.0284
1015.00,0.0284
1014.00,0.0285
1013.00,0.0285
1012.00,0.0285
1011.00,0.0285
1010.00,0.0284
1009.00,0.0282
1008.00,0.0281
1007.00,0.0281
1006.00,0.0280
1005.00,0.0279
1004.00,0.0279
1003.00,0.0279
1002.00,0.0279
1001.00,0.0279
1000.00,0.0280
999.00,0.0280
998.00,0.0279
997.00,0.0279
996.00,0.0278
995.00,0.0277
994.00,0.0277
993.00,0.0277
992.00,0.0277
991.00,0.0278
990.00,0.0277
989.00,0.0277
988.00,0.0276
987.00,0.0276
986.00,0.0276
985.00,0.0276
984.00,0.0275
983.00,0.0275
982.00,0.0274
981.00,0.0274
980.00,0.0275
979.00,0.0275
978.00,0.0275
977.00,0.0274
976.00,0.0274
975.00,0.0273
974.00,0.0273
973.00,0.0272
972.00,0.0271
971.00,0.0270
970.00,0.0269
969.00,0.0269
968.00,0.0268
967.00,0.0269
966.00,0.0269
965.00,0.0270
964.00,0.0269
963.00,0.0269
962.00,0.0269
961.00,0.0269
960.00,0.0269
959.00,0.0269
958.00,0.0268
957.00,0.0267
956.00,0.0267
955.00,0.0267
954.00,0.0267
953.00,0.0267
952.00,0.0267
951.00,0.0266
950.00,0.0266
949.00,0.0266
948.00,0.0266
947.00,0.0266
946.00,0.0266
945.00,0.0266
944.00,0.0265
943.00,0.0266
942.00,0.0266
941.00,0.0267
940.00,0.0268
939.00,0.0268
938.00,0.0269
937.00,0.0269
936.00,0.0269
935.00,0.0270
934.00,0.0270
933.00,0.0270
932.00,0.0269
931.00,0.0267
930.00,0.0266
929.00,0.0265
928.00,0.0265
927.00,0.0266
926.00,0.0267
925.00,0.0268
924.00,0.0268
923.00,0.0269
922.00,0.0269
921.00,0.0269
920.00,0.0269
919.00,0.0270
918.00,0.0271
917.00,0.0272
916.00,0.0274
915.00,0.0274
914.00,0.0274
913.00,0.0273
912.00,0.0273
911.00,0.0273
910.00,0.0273
909.00,0.0273
908.00,0.0273
907.00,0.0273
906.00,0.0273
905.00,0.0273
904.00,0.0274
903.00,0.0274
902.00,0.0275
901.00,0.0274
900.00,0.0275
899.00,0.0275
898.00,0.0277
897.00,0.0278
896.00,0.0278
895.00,0.0277
894.00,0.0276
893.00,0.0275
892.00,0.0275
891.00,0.0275
890.00,0.0276
889.00,0.0277
888.00,0.0278
887.00,0.0279
886.00,0.0278
885.00,0.0277
884.00,0.0276
883.00,0.0276
882.00,0.0276
881.00,0.0277
880.00,0.0279
879.00,0.0280
878.00,0.0281
877.00,0.0282
876.00,0.0282
875.00,0.0281
874.00,0.0280
873.00,0.0279
872.00,0.0278
871.00,0.0279
870.00,0.0279
869.00,0.0280
868.00,0.0281
867.00,0.0282
866.00,0.0282
865.00,0.0281
864.00,0.0280
863.00,0.0280
862.00,0.0281
861.00,0.0282
860.00,0.0283
859.00,0.0283
858.00,0.0284
857.00,0.0284
856.00,0.0284
855.00,0.0284
854.00,0.0283
853.00,0.0282
852.00,0.0282
851.00,0.0283
850.00,0.0285
849.00,0.0286
848.00,0.0287
847.00,0.0285
846.00,0.0284
845.00,0.0283
844.00,0.0283
843.00,0.0284
842.00,0.0285
841.00,0.0285
840.00,0.0286
839.00,0.0287
838.00,0.0287
837.00,0.0287
836.00,0.0286
835.00,0.0285
834.00,0.0284
833.00,0.0285
832.00,0.0287
831.00,0.0289
830.00,0.0292
829.00,0.0293
828.00,0.0293
827.00,0.0293
826.00,0.0293
825.00,0.0293
824.00,0.0294
823.00,0.0295
822.00,0.0296
821.00,0.0297
820.00,0.0298
819.00,0.0298
818.00,0.0297
817.00,0.0297
816.00,0.0298
815.00,0.0299
814.00,0.0299
813.00,0.0300
812.00,0.0300
811.00,0.0299
810.00,0.0299
809.00,0.0298
808.00,0.0298
807.00,0.0299
806.00,0.0300
805.00,0.0302
804.00,0.0303
803.00,0.0303
802.00,0.0302
801.00,0.0301
800.00,0.0300
799.00,0.0301
798.00,0.0302
797.00,0.0303
796.00,0.0304
795.00,0.0304
794.00,0.0303
793.00,0.0303
792.00,0.0303
791.00,0.0303
790.00,0.0304
789.00,0.0304
788.00,0.0304
787.00,0.0304
786.00,0.0305
785.00,0.0305
784.00,0.0304
783.00,0.0304
782.00,0.0304
781.00,0.0306
780.00,0.0308
779.00,0.0310
778.00,0.0311
777.00,0.0310
776.00,0.0310
775.00,0.0310
774.00,0.0310
773.00,0.0310
772.00,0.0310
771.00,0.0310
770.00,0.0311
769.00,0.0314
768.00,0.0316
767.00,0.0317
766.00,0.0318
765.00,0.0319
764.00,0.0319
763.00,0.0320
762.00,0.0319
761.00,0.0319
760.00,0.0319
759.00,0.0319
758.00,0.0319
757.00,0.0320
756.00,0.0321
755.00,0.0321
754.00,0.0320
753.00,0.0318
752.00,0.0317
751.00,0.0318
750.00,0.0319
749.00,0.0321
748.00,0.0322
747.00,0.0323
746.00,0.0324
745.00,0.0324
744.00,0.0323
743.00,0.0323
742.00,0.0322
741.00,0.0322
740.00,0.0322
739.00,0.0321
738.00,0.0321
737.00,0.0320
736.00,0.0321
735.00,0.0321
734.00,0.0321
733.00,0.0322
732.00,0.0323
731.00,0.0324
730.00,0.0325
729.00,0.0325
728.00,0.0324
727.00,0.0324
726.00,0.0323
725.00,0.0323
724.00,0.0323
723.00,0.0323
722.00,0.0324
721.00,0.0324
720.00,0.0325
719.00,0.0325
718.00,0.0326
717.00,0.0327
716.00,0.0327
715.00,0.0327
714.00,0.0326
713.00,0.0325
712.00,0.0324
711.00,0.0325
710.00,0.0325
709.00,0.0326
708.00,0.0328
707.00,0.0330
706.00,0.0330
705.00,0.0330
704.00,0.0329
703.00,0.0327
702.00,0.0327
701.00,0.0328
700.00,0.0330
699.00,0.0332
698.00,0.0332
697.00,0.0331
696.00,0.0331
695.00,0.0331
694.00,0.0332
693.00,0.0332
692.00,0.0332
691.00,0.0332
690.00,0.0334
689.00,0.0336
688.00,0.0338
687.00,0.0340
686.00,0.0342
685.00,0.0344
684.00,0.0344
683.00,0.0343
682.00,0.0343
681.00,0.0344
680.00,0.0345
679.00,0.0345
678.00,0.0342
677.00,0.0339
676.00,0.0337
675.00,0.0338
674.00,0.0339
673.00,0.0341
672.00,0.0341
671.00,0.0342
670.00,0.0344
669.00,0.0350
668.00,0.0358
667.00,0.0358
666.00,0.0351
665.00,0.0345
664.00,0.0342
663.00,0.0343
662.00,0.0344
661.00,0.0345
660.00,0.0348
659.00,0.0350
658.00,0.0352
657.00,0.0352
656.00,0.0352
655.00,0.0352
654.00,0.0354
653.00,0.0356
652.00,0.0359
651.00,0.0361
650.00,0.0360
