Created as New Dataset,Monday, April 03 2023
cm-1,A
4000.00,0.0188
3999.00,0.0188
3998.00,0.0188
3997.00,0.0188
3996.00,0.0188
3995.00,0.0188
3994.00,0.0188
3993.00,0.0188
3992.00,0.0188
3991.00,0.0188
3990.00,0.0188
3989.00,0.0188
3988.00,0.0188
3987.00,0.0188
3986.00,0.0188
3985.00,0.0188
3984.00,0.0187
3983.00,0.0187
3982.00,0.0187
3981.00,0.0187
3980.00,0.0187
3979.00,0.0188
3978.00,0.0188
3977.00,0.0188
3976.00,0.0188
3975.00,0.0188
3974.00,0.0188
3973.00,0.0188
3972.00,0.0188
3971.00,0.0188
3970.00,0.0187
3969.00,0.0187
3968.00,0.0187
3967.00,0.0187
3966.00,0.0188
3965.00,0.0188
3964.00,0.0188
3963.00,0.0188
3962.00,0.0188
3961.00,0.0188
3960.00,0.0188
3959.00,0.0188
3958.00,0.0188
3957.00,0.0187
3956.00,0.0187
3955.00,0.0187
3954.00,0.0187
3953.00,0.0187
3952.00,0.0188
3951.00,0.0188
3950.00,0.0188
3949.00,0.0188
3948.00,0.0189
3947.00,0.0189
3946.00,0.0189
3945.00,0.0188
3944.00,0.0187
3943.00,0.0187
3942.00,0.0187
3941.00,0.0187
3940.00,0.0187
3939.00,0.0188
3938.00,0.0188
3937.00,0.0188
3936.00,0.0188
3935.00,0.0189
3934.00,0.0189
3933.00,0.0190
3932.00,0.0189
3931.00,0.0189
3930.00,0.0188
3929.00,0.0188
3928.00,0.0188
3927.00,0.0187
3926.00,0.0187
3925.00,0.0187
3924.00,0.0187
3923.00,0.0188
3922.00,0.0188
3921.00,0.0189
3920.00,0.0189
3919.00,0.0189
3918.00,0.0189
3917.00,0.0189
3916.00,0.0188
3915.00,0.0188
3914.00,0.0188
3913.00,0.0187
3912.00,0.0187
3911.00,0.0187
3910.00,0.0187
3909.00,0.0187
3908.00,0.0188
3907.00,0.0188
3906.00,0.0189
3905.00,0.0190
3904.00,0.0191
3903.00,0.0192
3902.00,0.0192
3901.00,0.0192
3900.00,0.0191
3899.00,0.0190
3898.00,0.0190
3897.00,0.0190
3896.00,0.0190
3895.00,0.0190
3894.00,0.0189
3893.00,0.0189
3892.00,0.0189
3891.00,0.0189
3890.00,0.0189
3889.00,0.0189
3888.00,0.0190
3887.00,0.0190
3886.00,0.0191
3885.00,0.0190
3884.00,0.0189
3883.00,0.0189
3882.00,0.0188
3881.00,0.0187
3880.00,0.0187
3879.00,0.0187
3878.00,0.0188
3877.00,0.0189
3876.00,0.0188
3875.00,0.0188
3874.00,0.0188
3873.00,0.0188
3872.00,0.0189
3871.00,0.0190
3870.00,0.0190
3869.00,0.0190
3868.00,0.0190
3867.00,0.0192
3866.00,0.0192
3865.00,0.0191
3864.00,0.0190
3863.00,0.0189
3862.00,0.0190
3861.00,0.0191
3860.00,0.0190
3859.00,0.0190
3858.00,0.0189
3857.00,0.0188
3856.00,0.0188
3855.00,0.0190
3854.00,0.0191
3853.00,0.0190
3852.00,0.0189
3851.00,0.0189
3850.00,0.0190
3849.00,0.0190
3848.00,0.0190
3847.00,0.0190
3846.00,0.0190
3845.00,0.0189
3844.00,0.0190
3843.00,0.0190
3842.00,0.0190
3841.00,0.0191
3840.00,0.0192
3839.00,0.0192
3838.00,0.0191
3837.00,0.0191
3836.00,0.0190
3835.00,0.0190
3834.00,0.0190
3833.00,0.0190
3832.00,0.0190
3831.00,0.0191
3830.00,0.0191
3829.00,0.0191
3828.00,0.0190
3827.00,0.0189
3826.00,0.0189
3825.00,0.0189
3824.00,0.0190
3823.00,0.0192
3822.00,0.0193
3821.00,0.0193
3820.00,0.0193
3819.00,0.0192
3818.00,0.0192
3817.00,0.0191
3816.00,0.0190
3815.00,0.0189
3814.00,0.0188
3813.00,0.0189
3812.00,0.0189
3811.00,0.0189
3810.00,0.0188
3809.00,0.0189
3808.00,0.0190
3807.00,0.0190
3806.00,0.0190
3805.00,0.0190
3804.00,0.0190
3803.00,0.0191
3802.00,0.0191
3801.00,0.0191
3800.00,0.0190
3799.00,0.0190
3798.00,0.0190
3797.00,0.0190
3796.00,0.0189
3795.00,0.0189
3794.00,0.0189
3793.00,0.0189
3792.00,0.0188
3791.00,0.0188
3790.00,0.0188
3789.00,0.0188
3788.00,0.0189
3787.00,0.0188
3786.00,0.0188
3785.00,0.0188
3784.00,0.0188
3783.00,0.0188
3782.00,0.0188
3781.00,0.0188
3780.00,0.0187
3779.00,0.0187
3778.00,0.0187
3777.00,0.0188
3776.00,0.0188
3775.00,0.0188
3774.00,0.0188
3773.00,0.0188
3772.00,0.0188
3771.00,0.0189
3770.00,0.0190
3769.00,0.0190
3768.00,0.0190
3767.00,0.0190
3766.00,0.0190
3765.00,0.0190
3764.00,0.0190
3763.00,0.0190
3762.00,0.0191
3761.00,0.0191
3760.00,0.0190
3759.00,0.0190
3758.00,0.0191
3757.00,0.0191
3756.00,0.0192
3755.00,0.0192
3754.00,0.0193
3753.00,0.0194
3752.00,0.0196
3751.00,0.0196
3750.00,0.0197
3749.00,0.0196
3748.00,0.0194
3747.00,0.0193
3746.00,0.0192
3745.00,0.0193
3744.00,0.0192
3743.00,0.0192
3742.00,0.0192
3741.00,0.0193
3740.00,0.0194
3739.00,0.0194
3738.00,0.0194
3737.00,0.0195
3736.00,0.0195
3735.00,0.0194
3734.00,0.0193
3733.00,0.0193
3732.00,0.0193
3731.00,0.0192
3730.00,0.0192
3729.00,0.0191
3728.00,0.0192
3727.00,0.0192
3726.00,0.0192
3725.00,0.0191
3724.00,0.0191
3723.00,0.0190
3722.00,0.0189
3721.00,0.0189
3720.00,0.0188
3719.00,0.0188
3718.00,0.0189
3717.00,0.0189
3716.00,0.0189
3715.00,0.0190
3714.00,0.0190
3713.00,0.0190
3712.00,0.0190
3711.00,0.0190
3710.00,0.0190
3709.00,0.0191
3708.00,0.0191
3707.00,0.0191
3706.00,0.0190
3705.00,0.0190
3704.00,0.0189
3703.00,0.0188
3702.00,0.0188
3701.00,0.0189
3700.00,0.0190
3699.00,0.0191
3698.00,0.0192
3697.00,0.0192
3696.00,0.0192
3695.00,0.0191
3694.00,0.0191
3693.00,0.0191
3692.00,0.0191
3691.00,0.0191
3690.00,0.0190
3689.00,0.0191
3688.00,0.0191
3687.00,0.0190
3686.00,0.0191
3685.00,0.0191
3684.00,0.0191
3683.00,0.0191
3682.00,0.0191
3681.00,0.0190
3680.00,0.0189
3679.00,0.0188
3678.00,0.0188
3677.00,0.0189
3676.00,0.0190
3675.00,0.0191
3674.00,0.0192
3673.00,0.0194
3672.00,0.0195
3671.00,0.0194
3670.00,0.0192
3669.00,0.0190
3668.00,0.0190
3667.00,0.0191
3666.00,0.0192
3665.00,0.0192
3664.00,0.0192
3663.00,0.0192
3662.00,0.0192
3661.00,0.0192
3660.00,0.0193
3659.00,0.0193
3658.00,0.0194
3657.00,0.0196
3656.00,0.0197
3655.00,0.0198
3654.00,0.0198
3653.00,0.0198
3652.00,0.0198
3651.00,0.0199
3650.00,0.0201
3649.00,0.0202
3648.00,0.0201
3647.00,0.0201
3646.00,0.0200
3645.00,0.0200
3644.00,0.0201
3643.00,0.0200
3642.00,0.0200
3641.00,0.0200
3640.00,0.0200
3639.00,0.0200
3638.00,0.0200
3637.00,0.0200
3636.00,0.0200
3635.00,0.0201
3634.00,0.0201
3633.00,0.0202
3632.00,0.0203
3631.00,0.0204
3630.00,0.0207
3629.00,0.0208
3628.00,0.0209
3627.00,0.0209
3626.00,0.0209
3625.00,0.0209
3624.00,0.0208
3623.00,0.0207
3622.00,0.0207
3621.00,0.0208
3620.00,0.0209
3619.00,0.0209
3618.00,0.0210
3617.00,0.0211
3616.00,0.0211
3615.00,0.0210
3614.00,0.0210
3613.00,0.0210
3612.00,0.0211
3611.00,0.0211
3610.00,0.0212
3609.00,0.0212
3608.00,0.0211
3607.00,0.0210
3606.00,0.0210
3605.00,0.0210
3604.00,0.0210
3603.00,0.0210
3602.00,0.0209
3601.00,0.0208
3600.00,0.0208
3599.00,0.0208
3598.00,0.0208
3597.00,0.0207
3596.00,0.0208
3595.00,0.0209
3594.00,0.0210
3593.00,0.0211
3592.00,0.0212
3591.00,0.0212
3590.00,0.0212
3589.00,0.0211
3588.00,0.0210
3587.00,0.0210
3586.00,0.0210
3585.00,0.0210
3584.00,0.0211
3583.00,0.0211
3582.00,0.0210
3581.00,0.0210
3580.00,0.0210
3579.00,0.0210
3578.00,0.0210
3577.00,0.0210
3576.00,0.0210
3575.00,0.0210
3574.00,0.0210
3573.00,0.0211
3572.00,0.0211
3571.00,0.0212
3570.00,0.0212
3569.00,0.0213
3568.00,0.0214
3567.00,0.0214
3566.00,0.0215
3565.00,0.0214
3564.00,0.0214
3563.00,0.0214
3562.00,0.0213
3561.00,0.0213
3560.00,0.0212
3559.00,0.0213
3558.00,0.0213
3557.00,0.0213
3556.00,0.0213
3555.00,0.0213
3554.00,0.0212
3553.00,0.0213
3552.00,0.0213
3551.00,0.0214
3550.00,0.0215
3549.00,0.0215
3548.00,0.0215
3547.00,0.0216
3546.00,0.0217
3545.00,0.0217
3544.00,0.0218
3543.00,0.0217
3542.00,0.0217
3541.00,0.0216
3540.00,0.0216
3539.00,0.0215
3538.00,0.0216
3537.00,0.0216
3536.00,0.0217
3535.00,0.0217
3534.00,0.0217
3533.00,0.0217
3532.00,0.0217
3531.00,0.0217
3530.00,0.0217
3529.00,0.0217
3528.00,0.0218
3527.00,0.0219
3526.00,0.0220
3525.00,0.0220
3524.00,0.0219
3523.00,0.0219
3522.00,0.0219
3521.00,0.0218
3520.00,0.0218
3519.00,0.0218
3518.00,0.0218
3517.00,0.0219
3516.00,0.0219
3515.00,0.0219
3514.00,0.0218
3513.00,0.0218
3512.00,0.0218
3511.00,0.0219
3510.00,0.0220
3509.00,0.0221
3508.00,0.0221
3507.00,0.0221
3506.00,0.0221
3505.00,0.0221
3504.00,0.0221
3503.00,0.0221
3502.00,0.0222
3501.00,0.0222
3500.00,0.0222
3499.00,0.0222
3498.00,0.0222
3497.00,0.0222
3496.00,0.0222
3495.00,0.0223
3494.00,0.0223
3493.00,0.0223
3492.00,0.0223
3491.00,0.0223
3490.00,0.0223
3489.00,0.0223
3488.00,0.0223
3487.00,0.0223
3486.00,0.0223
3485.00,0.0224
3484.00,0.0224
3483.00,0.0224
3482.00,0.0224
3481.00,0.0224
3480.00,0.0225
3479.00,0.0225
3478.00,0.0225
3477.00,0.0224
3476.00,0.0224
3475.00,0.0224
3474.00,0.0224
3473.00,0.0225
3472.00,0.0225
3471.00,0.0225
3470.00,0.0225
3469.00,0.0225
3468.00,0.0226
3467.00,0.0226
3466.00,0.0227
3465.00,0.0227
3464.00,0.0227
3463.00,0.0227
3462.00,0.0226
3461.00,0.0226
3460.00,0.0226
3459.00,0.0226
3458.00,0.0226
3457.00,0.0226
3456.00,0.0226
3455.00,0.0226
3454.00,0.0226
3453.00,0.0227
3452.00,0.0227
3451.00,0.0228
3450.00,0.0228
3449.00,0.0228
3448.00,0.0228
3447.00,0.0228
3446.00,0.0228
3445.00,0.0229
3444.00,0.0229
3443.00,0.0229
3442.00,0.0230
3441.00,0.0230
3440.00,0.0230
3439.00,0.0230
3438.00,0.0230
3437.00,0.0230
3436.00,0.0230
3435.00,0.0230
3434.00,0.0230
3433.00,0.0230
3432.00,0.0230
3431.00,0.0231
3430.00,0.0231
3429.00,0.0230
3428.00,0.0230
3427.00,0.0230
3426.00,0.0230
3425.00,0.0231
3424.00,0.0231
3423.00,0.0231
3422.00,0.0231
3421.00,0.0231
3420.00,0.0232
3419.00,0.0232
3418.00,0.0232
3417.00,0.0232
3416.00,0.0232
3415.00,0.0232
3414.00,0.0232
3413.00,0.0231
3412.00,0.0231
3411.00,0.0231
3410.00,0.0231
3409.00,0.0231
3408.00,0.0231
3407.00,0.0231
3406.00,0.0232
3405.00,0.0232
3404.00,0.0233
3403.00,0.0233
3402.00,0.0233
3401.00,0.0233
3400.00,0.0233
3399.00,0.0233
3398.00,0.0233
3397.00,0.0233
3396.00,0.0233
3395.00,0.0233
3394.00,0.0234
3393.00,0.0234
3392.00,0.0234
3391.00,0.0234
3390.00,0.0234
3389.00,0.0234
3388.00,0.0234
3387.00,0.0235
3386.00,0.0235
3385.00,0.0235
3384.00,0.0234
3383.00,0.0234
3382.00,0.0234
3381.00,0.0234
3380.00,0.0234
3379.00,0.0235
3378.00,0.0235
3377.00,0.0235
3376.00,0.0235
3375.00,0.0235
3374.00,0.0234
3373.00,0.0234
3372.00,0.0234
3371.00,0.0234
3370.00,0.0235
3369.00,0.0235
3368.00,0.0235
3367.00,0.0235
3366.00,0.0236
3365.00,0.0236
3364.00,0.0236
3363.00,0.0236
3362.00,0.0236
3361.00,0.0236
3360.00,0.0236
3359.00,0.0236
3358.00,0.0236
3357.00,0.0236
3356.00,0.0236
3355.00,0.0236
3354.00,0.0236
3353.00,0.0236
3352.00,0.0236
3351.00,0.0237
3350.00,0.0237
3349.00,0.0237
3348.00,0.0237
3347.00,0.0236
3346.00,0.0236
3345.00,0.0235
3344.00,0.0235
3343.00,0.0236
3342.00,0.0236
3341.00,0.0237
3340.00,0.0237
3339.00,0.0237
3338.00,0.0237
3337.00,0.0237
3336.00,0.0237
3335.00,0.0237
3334.00,0.0237
3333.00,0.0237
3332.00,0.0237
3331.00,0.0237
3330.00,0.0237
3329.00,0.0237
3328.00,0.0237
3327.00,0.0238
3326.00,0.0238
3325.00,0.0238
3324.00,0.0238
3323.00,0.0237
3322.00,0.0236
3321.00,0.0236
3320.00,0.0237
3319.00,0.0238
3318.00,0.0238
3317.00,0.0239
3316.00,0.0238
3315.00,0.0238
3314.00,0.0238
3313.00,0.0238
3312.00,0.0238
3311.00,0.0238
3310.00,0.0239
3309.00,0.0239
3308.00,0.0239
3307.00,0.0238
3306.00,0.0238
3305.00,0.0238
3304.00,0.0238
3303.00,0.0239
3302.00,0.0239
3301.00,0.0239
3300.00,0.0239
3299.00,0.0239
3298.00,0.0239
3297.00,0.0239
3296.00,0.0239
3295.00,0.0239
3294.00,0.0239
3293.00,0.0239
3292.00,0.0239
3291.00,0.0239
3290.00,0.0239
3289.00,0.0239
3288.00,0.0239
3287.00,0.0239
3286.00,0.0238
3285.00,0.0238
3284.00,0.0238
3283.00,0.0238
3282.00,0.0238
3281.00,0.0239
3280.00,0.0239
3279.00,0.0239
3278.00,0.0240
3277.00,0.0240
3276.00,0.0239
3275.00,0.0239
3274.00,0.0239
3273.00,0.0239
3272.00,0.0240
3271.00,0.0240
3270.00,0.0240
3269.00,0.0240
3268.00,0.0240
3267.00,0.0240
3266.00,0.0240
3265.00,0.0240
3264.00,0.0239
3263.00,0.0239
3262.00,0.0239
3261.00,0.0239
3260.00,0.0239
3259.00,0.0239
3258.00,0.0238
3257.00,0.0238
3256.00,0.0239
3255.00,0.0239
3254.00,0.0239
3253.00,0.0240
3252.00,0.0240
3251.00,0.0240
3250.00,0.0240
3249.00,0.0240
3248.00,0.0241
3247.00,0.0241
3246.00,0.0241
3245.00,0.0241
3244.00,0.0240
3243.00,0.0240
3242.00,0.0240
3241.00,0.0240
3240.00,0.0240
3239.00,0.0240
3238.00,0.0240
3237.00,0.0241
3236.00,0.0241
3235.00,0.0241
3234.00,0.0240
3233.00,0.0240
3232.00,0.0240
3231.00,0.0240
3230.00,0.0240
3229.00,0.0240
3228.00,0.0241
3227.00,0.0241
3226.00,0.0241
3225.00,0.0241
3224.00,0.0241
3223.00,0.0241
3222.00,0.0241
3221.00,0.0241
3220.00,0.0241
3219.00,0.0240
3218.00,0.0240
3217.00,0.0240
3216.00,0.0240
3215.00,0.0240
3214.00,0.0240
3213.00,0.0240
3212.00,0.0240
3211.00,0.0240
3210.00,0.0240
3209.00,0.0239
3208.00,0.0240
3207.00,0.0240
3206.00,0.0241
3205.00,0.0241
3204.00,0.0241
3203.00,0.0240
3202.00,0.0240
3201.00,0.0240
3200.00,0.0240
3199.00,0.0241
3198.00,0.0241
3197.00,0.0241
3196.00,0.0240
3195.00,0.0240
3194.00,0.0240
3193.00,0.0240
3192.00,0.0240
3191.00,0.0240
3190.00,0.0240
3189.00,0.0239
3188.00,0.0239
3187.00,0.0239
3186.00,0.0240
3185.00,0.0240
3184.00,0.0240
3183.00,0.0240
3182.00,0.0240
3181.00,0.0240
3180.00,0.0240
3179.00,0.0240
3178.00,0.0239
3177.00,0.0239
3176.00,0.0239
3175.00,0.0239
3174.00,0.0239
3173.00,0.0239
3172.00,0.0239
3171.00,0.0239
3170.00,0.0239
3169.00,0.0239
3168.00,0.0239
3167.00,0.0239
3166.00,0.0239
3165.00,0.0238
3164.00,0.0238
3163.00,0.0238
3162.00,0.0238
3161.00,0.0239
3160.00,0.0238
3159.00,0.0238
3158.00,0.0238
3157.00,0.0238
3156.00,0.0238
3155.00,0.0237
3154.00,0.0237
3153.00,0.0237
3152.00,0.0238
3151.00,0.0238
3150.00,0.0238
3149.00,0.0238
3148.00,0.0238
3147.00,0.0238
3146.00,0.0237
3145.00,0.0237
3144.00,0.0237
3143.00,0.0237
3142.00,0.0237
3141.00,0.0237
3140.00,0.0238
3139.00,0.0238
3138.00,0.0237
3137.00,0.0237
3136.00,0.0237
3135.00,0.0236
3134.00,0.0237
3133.00,0.0237
3132.00,0.0237
3131.00,0.0237
3130.00,0.0237
3129.00,0.0237
3128.00,0.0236
3127.00,0.0236
3126.00,0.0236
3125.00,0.0236
3124.00,0.0236
3123.00,0.0236
3122.00,0.0236
3121.00,0.0236
3120.00,0.0236
3119.00,0.0236
3118.00,0.0236
3117.00,0.0236
3116.00,0.0236
3115.00,0.0236
3114.00,0.0236
3113.00,0.0236
3112.00,0.0236
3111.00,0.0236
3110.00,0.0236
3109.00,0.0236
3108.00,0.0236
3107.00,0.0236
3106.00,0.0236
3105.00,0.0236
3104.00,0.0236
3103.00,0.0235
3102.00,0.0235
3101.00,0.0235
3100.00,0.0234
3099.00,0.0234
3098.00,0.0234
3097.00,0.0234
3096.00,0.0234
3095.00,0.0234
3094.00,0.0235
3093.00,0.0235
3092.00,0.0235
3091.00,0.0235
3090.00,0.0235
3089.00,0.0235
3088.00,0.0236
3087.00,0.0235
3086.00,0.0235
3085.00,0.0235
3084.00,0.0235
3083.00,0.0235
3082.00,0.0235
3081.00,0.0235
3080.00,0.0236
3079.00,0.0235
3078.00,0.0235
3077.00,0.0234
3076.00,0.0234
3075.00,0.0234
3074.00,0.0234
3073.00,0.0234
3072.00,0.0233
3071.00,0.0233
3070.00,0.0233
3069.00,0.0234
3068.00,0.0234
3067.00,0.0234
3066.00,0.0234
3065.00,0.0234
3064.00,0.0234
3063.00,0.0234
3062.00,0.0233
3061.00,0.0233
3060.00,0.0233
3059.00,0.0233
3058.00,0.0233
3057.00,0.0233
3056.00,0.0233
3055.00,0.0233
3054.00,0.0233
3053.00,0.0233
3052.00,0.0233
3051.00,0.0233
3050.00,0.0233
3049.00,0.0233
3048.00,0.0233
3047.00,0.0233
3046.00,0.0233
3045.00,0.0232
3044.00,0.0232
3043.00,0.0232
3042.00,0.0232
3041.00,0.0232
3040.00,0.0231
3039.00,0.0231
3038.00,0.0231
3037.00,0.0231
3036.00,0.0231
3035.00,0.0231
3034.00,0.0230
3033.00,0.0230
3032.00,0.0230
3031.00,0.0230
3030.00,0.0230
3029.00,0.0230
3028.00,0.0230
3027.00,0.0229
3026.00,0.0229
3025.00,0.0229
3024.00,0.0229
3023.00,0.0229
3022.00,0.0229
3021.00,0.0228
3020.00,0.0228
3019.00,0.0228
3018.00,0.0227
3017.00,0.0227
3016.00,0.0228
3015.00,0.0228
3014.00,0.0228
3013.00,0.0228
3012.00,0.0227
3011.00,0.0227
3010.00,0.0226
3009.00,0.0225
3008.00,0.0224
3007.00,0.0224
3006.00,0.0223
3005.00,0.0223
3004.00,0.0223
3003.00,0.0223
3002.00,0.0222
3001.00,0.0222
3000.00,0.0222
2999.00,0.0221
2998.00,0.0221
2997.00,0.0220
2996.00,0.0220
2995.00,0.0219
2994.00,0.0219
2993.00,0.0219
2992.00,0.0219
2991.00,0.0219
2990.00,0.0218
2989.00,0.0218
2988.00,0.0217
2987.00,0.0217
2986.00,0.0216
2985.00,0.0216
2984.00,0.0214
2983.00,0.0213
2982.00,0.0212
2981.00,0.0211
2980.00,0.0211
2979.00,0.0212
2978.00,0.0212
2977.00,0.0212
2976.00,0.0213
2975.00,0.0213
2974.00,0.0212
2973.00,0.0212
2972.00,0.0211
2971.00,0.0211
2970.00,0.0211
2969.00,0.0211
2968.00,0.0211
2967.00,0.0210
2966.00,0.0210
2965.00,0.0210
2964.00,0.0210
2963.00,0.0209
2962.00,0.0209
2961.00,0.0208
2960.00,0.0207
2959.00,0.0207
2958.00,0.0207
2957.00,0.0207
2956.00,0.0207
2955.00,0.0208
2954.00,0.0208
2953.00,0.0208
2952.00,0.0208
2951.00,0.0209
2950.00,0.0209
2949.00,0.0209
2948.00,0.0209
2947.00,0.0208
2946.00,0.0208
2945.00,0.0208
2944.00,0.0208
2943.00,0.0208
2942.00,0.0208
2941.00,0.0207
2940.00,0.0207
2939.00,0.0206
2938.00,0.0205
2937.00,0.0203
2936.00,0.0202
2935.00,0.0201
2934.00,0.0200
2933.00,0.0198
2932.00,0.0197
2931.00,0.0196
2930.00,0.0194
2929.00,0.0193
2928.00,0.0192
2927.00,0.0191
2926.00,0.0191
2925.00,0.0190
2924.00,0.0190
2923.00,0.0190
2922.00,0.0189
2921.00,0.0189
2920.00,0.0189
2919.00,0.0189
2918.00,0.0188
2917.00,0.0188
2916.00,0.0189
2915.00,0.0191
2914.00,0.0194
2913.00,0.0196
2912.00,0.0198
2911.00,0.0199
2910.00,0.0200
2909.00,0.0201
2908.00,0.0202
2907.00,0.0203
2906.00,0.0203
2905.00,0.0204
2904.00,0.0204
2903.00,0.0205
2902.00,0.0205
2901.00,0.0205
2900.00,0.0206
2899.00,0.0206
2898.00,0.0206
2897.00,0.0206
2896.00,0.0206
2895.00,0.0206
2894.00,0.0206
2893.00,0.0206
2892.00,0.0207
2891.00,0.0207
2890.00,0.0207
2889.00,0.0207
2888.00,0.0208
2887.00,0.0208
2886.00,0.0208
2885.00,0.0208
2884.00,0.0208
2883.00,0.0207
2882.00,0.0207
2881.00,0.0207
2880.00,0.0207
2879.00,0.0207
2878.00,0.0207
2877.00,0.0207
2876.00,0.0207
2875.00,0.0207
2874.00,0.0207
2873.00,0.0207
2872.00,0.0207
2871.00,0.0206
2870.00,0.0206
2869.00,0.0206
2868.00,0.0205
2867.00,0.0205
2866.00,0.0205
2865.00,0.0204
2864.00,0.0204
2863.00,0.0204
2862.00,0.0203
2861.00,0.0203
2860.00,0.0202
2859.00,0.0201
2858.00,0.0200
2857.00,0.0199
2856.00,0.0198
2855.00,0.0198
2854.00,0.0197
2853.00,0.0198
2852.00,0.0198
2851.00,0.0198
2850.00,0.0198
2849.00,0.0199
2848.00,0.0200
2847.00,0.0201
2846.00,0.0202
2845.00,0.0204
2844.00,0.0205
2843.00,0.0206
2842.00,0.0207
2841.00,0.0208
2840.00,0.0208
2839.00,0.0209
2838.00,0.0209
2837.00,0.0209
2836.00,0.0209
2835.00,0.0209
2834.00,0.0209
2833.00,0.0209
2832.00,0.0209
2831.00,0.0209
2830.00,0.0210
2829.00,0.0210
2828.00,0.0209
2827.00,0.0209
2826.00,0.0209
2825.00,0.0210
2824.00,0.0210
2823.00,0.0210
2822.00,0.0210
2821.00,0.0210
2820.00,0.0210
2819.00,0.0210
2818.00,0.0210
2817.00,0.0210
2816.00,0.0210
2815.00,0.0210
2814.00,0.0210
2813.00,0.0210
2812.00,0.0209
2811.00,0.0209
2810.00,0.0209
2809.00,0.0209
2808.00,0.0209
2807.00,0.0210
2806.00,0.0209
2805.00,0.0209
2804.00,0.0209
2803.00,0.0209
2802.00,0.0209
2801.00,0.0209
2800.00,0.0208
2799.00,0.0208
2798.00,0.0208
2797.00,0.0208
2796.00,0.0209
2795.00,0.0209
2794.00,0.0209
2793.00,0.0209
2792.00,0.0209
2791.00,0.0209
2790.00,0.0209
2789.00,0.0208
2788.00,0.0208
2787.00,0.0208
2786.00,0.0208
2785.00,0.0208
2784.00,0.0208
2783.00,0.0208
2782.00,0.0208
2781.00,0.0208
2780.00,0.0207
2779.00,0.0207
2778.00,0.0207
2777.00,0.0207
2776.00,0.0207
2775.00,0.0207
2774.00,0.0207
2773.00,0.0207
2772.00,0.0207
2771.00,0.0208
2770.00,0.0208
2769.00,0.0208
2768.00,0.0207
2767.00,0.0207
2766.00,0.0207
2765.00,0.0207
2764.00,0.0207
2763.00,0.0207
2762.00,0.0207
2761.00,0.0207
2760.00,0.0206
2759.00,0.0206
2758.00,0.0207
2757.00,0.0207
2756.00,0.0207
2755.00,0.0207
2754.00,0.0207
2753.00,0.0207
2752.00,0.0206
2751.00,0.0206
2750.00,0.0206
2749.00,0.0206
2748.00,0.0206
2747.00,0.0206
2746.00,0.0206
2745.00,0.0206
2744.00,0.0205
2743.00,0.0205
2742.00,0.0205
2741.00,0.0205
2740.00,0.0206
2739.00,0.0206
2738.00,0.0206
2737.00,0.0206
2736.00,0.0206
2735.00,0.0205
2734.00,0.0205
2733.00,0.0205
2732.00,0.0205
2731.00,0.0205
2730.00,0.0205
2729.00,0.0205
2728.00,0.0205
2727.00,0.0204
2726.00,0.0204
2725.00,0.0205
2724.00,0.0205
2723.00,0.0205
2722.00,0.0205
2721.00,0.0205
2720.00,0.0205
2719.00,0.0205
2718.00,0.0205
2717.00,0.0205
2716.00,0.0205
2715.00,0.0205
2714.00,0.0205
2713.00,0.0205
2712.00,0.0205
2711.00,0.0204
2710.00,0.0204
2709.00,0.0204
2708.00,0.0204
2707.00,0.0204
2706.00,0.0204
2705.00,0.0204
2704.00,0.0204
2703.00,0.0204
2702.00,0.0203
2701.00,0.0204
2700.00,0.0204
2699.00,0.0204
2698.00,0.0204
2697.00,0.0204
2696.00,0.0204
2695.00,0.0204
2694.00,0.0204
2693.00,0.0204
2692.00,0.0204
2691.00,0.0203
2690.00,0.0203
2689.00,0.0203
2688.00,0.0204
2687.00,0.0204
2686.00,0.0204
2685.00,0.0204
2684.00,0.0204
2683.00,0.0204
2682.00,0.0203
2681.00,0.0203
2680.00,0.0203
2679.00,0.0203
2678.00,0.0203
2677.00,0.0203
2676.00,0.0203
2675.00,0.0203
2674.00,0.0203
2673.00,0.0203
2672.00,0.0203
2671.00,0.0203
2670.00,0.0203
2669.00,0.0203
2668.00,0.0203
2667.00,0.0203
2666.00,0.0203
2665.00,0.0204
2664.00,0.0204
2663.00,0.0204
2662.00,0.0204
2661.00,0.0204
2660.00,0.0204
2659.00,0.0204
2658.00,0.0204
2657.00,0.0204
2656.00,0.0205
2655.00,0.0205
2654.00,0.0206
2653.00,0.0206
2652.00,0.0206
2651.00,0.0206
2650.00,0.0205
2649.00,0.0204
2648.00,0.0204
2647.00,0.0204
2646.00,0.0205
2645.00,0.0205
2644.00,0.0205
2643.00,0.0205
2642.00,0.0206
2641.00,0.0206
2640.00,0.0205
2639.00,0.0205
2638.00,0.0205
2637.00,0.0205
2636.00,0.0205
2635.00,0.0205
2634.00,0.0205
2633.00,0.0206
2632.00,0.0206
2631.00,0.0206
2630.00,0.0206
2629.00,0.0206
2628.00,0.0206
2627.00,0.0206
2626.00,0.0206
2625.00,0.0206
2624.00,0.0206
2623.00,0.0207
2622.00,0.0207
2621.00,0.0207
2620.00,0.0207
2619.00,0.0206
2618.00,0.0206
2617.00,0.0206
2616.00,0.0206
2615.00,0.0206
2614.00,0.0206
2613.00,0.0206
2612.00,0.0207
2611.00,0.0207
2610.00,0.0207
2609.00,0.0207
2608.00,0.0208
2607.00,0.0208
2606.00,0.0208
2605.00,0.0208
2604.00,0.0208
2603.00,0.0208
2602.00,0.0208
2601.00,0.0207
2600.00,0.0207
2599.00,0.0207
2598.00,0.0207
2597.00,0.0207
2596.00,0.0207
2595.00,0.0207
2594.00,0.0207
2593.00,0.0208
2592.00,0.0208
2591.00,0.0209
2590.00,0.0209
2589.00,0.0208
2588.00,0.0207
2587.00,0.0207
2586.00,0.0207
2585.00,0.0207
2584.00,0.0207
2583.00,0.0207
2582.00,0.0208
2581.00,0.0208
2580.00,0.0208
2579.00,0.0208
2578.00,0.0208
2577.00,0.0207
2576.00,0.0207
2575.00,0.0207
2574.00,0.0207
2573.00,0.0207
2572.00,0.0207
2571.00,0.0207
2570.00,0.0207
2569.00,0.0207
2568.00,0.0207
2567.00,0.0208
2566.00,0.0208
2565.00,0.0208
2564.00,0.0208
2563.00,0.0208
2562.00,0.0207
2561.00,0.0207
2560.00,0.0207
2559.00,0.0207
2558.00,0.0207
2557.00,0.0207
2556.00,0.0207
2555.00,0.0207
2554.00,0.0207
2553.00,0.0207
2552.00,0.0207
2551.00,0.0207
2550.00,0.0207
2549.00,0.0207
2548.00,0.0207
2547.00,0.0207
2546.00,0.0206
2545.00,0.0206
2544.00,0.0206
2543.00,0.0206
2542.00,0.0206
2541.00,0.0206
2540.00,0.0206
2539.00,0.0206
2538.00,0.0206
2537.00,0.0206
2536.00,0.0206
2535.00,0.0206
2534.00,0.0206
2533.00,0.0206
2532.00,0.0206
2531.00,0.0206
2530.00,0.0206
2529.00,0.0206
2528.00,0.0206
2527.00,0.0206
2526.00,0.0207
2525.00,0.0207
2524.00,0.0207
2523.00,0.0207
2522.00,0.0206
2521.00,0.0206
2520.00,0.0206
2519.00,0.0206
2518.00,0.0206
2517.00,0.0206
2516.00,0.0206
2515.00,0.0206
2514.00,0.0206
2513.00,0.0207
2512.00,0.0207
2511.00,0.0207
2510.00,0.0206
2509.00,0.0206
2508.00,0.0205
2507.00,0.0205
2506.00,0.0205
2505.00,0.0206
2504.00,0.0206
2503.00,0.0206
2502.00,0.0206
2501.00,0.0206
2500.00,0.0206
2499.00,0.0205
2498.00,0.0205
2497.00,0.0206
2496.00,0.0206
2495.00,0.0207
2494.00,0.0207
2493.00,0.0207
2492.00,0.0207
2491.00,0.0206
2490.00,0.0206
2489.00,0.0206
2488.00,0.0206
2487.00,0.0205
2486.00,0.0205
2485.00,0.0205
2484.00,0.0206
2483.00,0.0206
2482.00,0.0206
2481.00,0.0206
2480.00,0.0206
2479.00,0.0206
2478.00,0.0206
2477.00,0.0206
2476.00,0.0205
2475.00,0.0205
2474.00,0.0205
2473.00,0.0205
2472.00,0.0205
2471.00,0.0205
2470.00,0.0205
2469.00,0.0204
2468.00,0.0204
2467.00,0.0204
2466.00,0.0205
2465.00,0.0205
2464.00,0.0205
2463.00,0.0205
2462.00,0.0206
2461.00,0.0206
2460.00,0.0206
2459.00,0.0206
2458.00,0.0205
2457.00,0.0205
2456.00,0.0205
2455.00,0.0205
2454.00,0.0205
2453.00,0.0205
2452.00,0.0205
2451.00,0.0205
2450.00,0.0205
2449.00,0.0204
2448.00,0.0204
2447.00,0.0205
2446.00,0.0205
2445.00,0.0205
2444.00,0.0204
2443.00,0.0204
2442.00,0.0204
2441.00,0.0204
2440.00,0.0204
2439.00,0.0204
2438.00,0.0204
2437.00,0.0203
2436.00,0.0203
2435.00,0.0203
2434.00,0.0204
2433.00,0.0204
2432.00,0.0204
2431.00,0.0203
2430.00,0.0203
2429.00,0.0203
2428.00,0.0203
2427.00,0.0203
2426.00,0.0203
2425.00,0.0204
2424.00,0.0203
2423.00,0.0203
2422.00,0.0202
2421.00,0.0202
2420.00,0.0202
2419.00,0.0202
2418.00,0.0201
2417.00,0.0201
2416.00,0.0202
2415.00,0.0202
2414.00,0.0202
2413.00,0.0202
2412.00,0.0202
2411.00,0.0201
2410.00,0.0201
2409.00,0.0201
2408.00,0.0200
2407.00,0.0201
2406.00,0.0201
2405.00,0.0201
2404.00,0.0201
2403.00,0.0202
2402.00,0.0202
2401.00,0.0201
2400.00,0.0201
2399.00,0.0200
2398.00,0.0199
2397.00,0.0200
2396.00,0.0200
2395.00,0.0200
2394.00,0.0200
2393.00,0.0199
2392.00,0.0199
2391.00,0.0199
2390.00,0.0199
2389.00,0.0199
2388.00,0.0198
2387.00,0.0197
2386.00,0.0196
2385.00,0.0196
2384.00,0.0195
2383.00,0.0194
2382.00,0.0193
2381.00,0.0192
2380.00,0.0191
2379.00,0.0190
2378.00,0.0190
2377.00,0.0190
2376.00,0.0190
2375.00,0.0190
2374.00,0.0191
2373.00,0.0192
2372.00,0.0193
2371.00,0.0193
2370.00,0.0194
2369.00,0.0194
2368.00,0.0195
2367.00,0.0195
2366.00,0.0195
2365.00,0.0194
2364.00,0.0194
2363.00,0.0194
2362.00,0.0195
2361.00,0.0197
2360.00,0.0198
2359.00,0.0199
2358.00,0.0199
2357.00,0.0199
2356.00,0.0200
2355.00,0.0200
2354.00,0.0199
2353.00,0.0200
2352.00,0.0201
2351.00,0.0202
2350.00,0.0201
2349.00,0.0198
2348.00,0.0193
2347.00,0.0189
2346.00,0.0189
2345.00,0.0190
2344.00,0.0193
2343.00,0.0195
2342.00,0.0196
2341.00,0.0197
2340.00,0.0197
2339.00,0.0197
2338.00,0.0197
2337.00,0.0197
2336.00,0.0197
2335.00,0.0198
2334.00,0.0198
2333.00,0.0198
2332.00,0.0198
2331.00,0.0198
2330.00,0.0199
2329.00,0.0199
2328.00,0.0200
2327.00,0.0200
2326.00,0.0200
2325.00,0.0199
2324.00,0.0198
2323.00,0.0199
2322.00,0.0200
2321.00,0.0201
2320.00,0.0202
2319.00,0.0202
2318.00,0.0201
2317.00,0.0200
2316.00,0.0199
2315.00,0.0199
2314.00,0.0198
2313.00,0.0198
2312.00,0.0199
2311.00,0.0200
2310.00,0.0200
2309.00,0.0201
2308.00,0.0200
2307.00,0.0200
2306.00,0.0200
2305.00,0.0200
2304.00,0.0200
2303.00,0.0199
2302.00,0.0198
2301.00,0.0197
2300.00,0.0197
2299.00,0.0197
2298.00,0.0198
2297.00,0.0198
2296.00,0.0199
2295.00,0.0199
2294.00,0.0199
2293.00,0.0199
2292.00,0.0199
2291.00,0.0199
2290.00,0.0200
2289.00,0.0201
2288.00,0.0201
2287.00,0.0201
2286.00,0.0201
2285.00,0.0200
2284.00,0.0199
2283.00,0.0199
2282.00,0.0199
2281.00,0.0199
2280.00,0.0198
2279.00,0.0198
2278.00,0.0197
2277.00,0.0196
2276.00,0.0196
2275.00,0.0196
2274.00,0.0196
2273.00,0.0197
2272.00,0.0198
2271.00,0.0199
2270.00,0.0199
2269.00,0.0199
2268.00,0.0198
2267.00,0.0198
2266.00,0.0198
2265.00,0.0199
2264.00,0.0200
2263.00,0.0200
2262.00,0.0200
2261.00,0.0200
2260.00,0.0200
2259.00,0.0200
2258.00,0.0199
2257.00,0.0199
2256.00,0.0199
2255.00,0.0198
2254.00,0.0198
2253.00,0.0198
2252.00,0.0199
2251.00,0.0198
2250.00,0.0198
2249.00,0.0198
2248.00,0.0198
2247.00,0.0197
2246.00,0.0197
2245.00,0.0197
2244.00,0.0197
2243.00,0.0197
2242.00,0.0197
2241.00,0.0197
2240.00,0.0197
2239.00,0.0198
2238.00,0.0199
2237.00,0.0200
2236.00,0.0200
2235.00,0.0200
2234.00,0.0200
2233.00,0.0200
2232.00,0.0200
2231.00,0.0200
2230.00,0.0199
2229.00,0.0199
2228.00,0.0198
2227.00,0.0197
2226.00,0.0197
2225.00,0.0197
2224.00,0.0197
2223.00,0.0198
2222.00,0.0198
2221.00,0.0199
2220.00,0.0200
2219.00,0.0200
2218.00,0.0200
2217.00,0.0200
2216.00,0.0200
2215.00,0.0200
2214.00,0.0200
2213.00,0.0200
2212.00,0.0199
2211.00,0.0199
2210.00,0.0199
2209.00,0.0198
2208.00,0.0198
2207.00,0.0197
2206.00,0.0197
2205.00,0.0197
2204.00,0.0197
2203.00,0.0197
2202.00,0.0198
2201.00,0.0198
2200.00,0.0199
2199.00,0.0201
2198.00,0.0202
2197.00,0.0203
2196.00,0.0203
2195.00,0.0203
2194.00,0.0203
2193.00,0.0202
2192.00,0.0201
2191.00,0.0199
2190.00,0.0198
2189.00,0.0198
2188.00,0.0198
2187.00,0.0199
2186.00,0.0200
2185.00,0.0199
2184.00,0.0197
2183.00,0.0195
2182.00,0.0195
2181.00,0.0195
2180.00,0.0196
2179.00,0.0197
2178.00,0.0198
2177.00,0.0197
2176.00,0.0196
2175.00,0.0196
2174.00,0.0197
2173.00,0.0200
2172.00,0.0202
2171.00,0.0204
2170.00,0.0204
2169.00,0.0204
2168.00,0.0203
2167.00,0.0202
2166.00,0.0200
2165.00,0.0199
2164.00,0.0200
2163.00,0.0200
2162.00,0.0199
2161.00,0.0197
2160.00,0.0194
2159.00,0.0192
2158.00,0.0192
2157.00,0.0194
2156.00,0.0194
2155.00,0.0194
2154.00,0.0193
2153.00,0.0193
2152.00,0.0194
2151.00,0.0194
2150.00,0.0193
2149.00,0.0193
2148.00,0.0192
2147.00,0.0192
2146.00,0.0193
2145.00,0.0194
2144.00,0.0194
2143.00,0.0194
2142.00,0.0193
2141.00,0.0191
2140.00,0.0190
2139.00,0.0190
2138.00,0.0190
2137.00,0.0190
2136.00,0.0189
2135.00,0.0187
2134.00,0.0186
2133.00,0.0185
2132.00,0.0185
2131.00,0.0185
2130.00,0.0186
2129.00,0.0186
2128.00,0.0187
2127.00,0.0189
2126.00,0.0190
2125.00,0.0191
2124.00,0.0191
2123.00,0.0191
2122.00,0.0190
2121.00,0.0190
2120.00,0.0190
2119.00,0.0190
2118.00,0.0190
2117.00,0.0190
2116.00,0.0190
2115.00,0.0190
2114.00,0.0189
2113.00,0.0190
2112.00,0.0190
2111.00,0.0191
2110.00,0.0192
2109.00,0.0191
2108.00,0.0190
2107.00,0.0189
2106.00,0.0188
2105.00,0.0188
2104.00,0.0188
2103.00,0.0189
2102.00,0.0190
2101.00,0.0191
2100.00,0.0191
2099.00,0.0190
2098.00,0.0190
2097.00,0.0189
2096.00,0.0189
2095.00,0.0189
2094.00,0.0189
2093.00,0.0189
2092.00,0.0188
2091.00,0.0188
2090.00,0.0187
2089.00,0.0187
2088.00,0.0187
2087.00,0.0186
2086.00,0.0187
2085.00,0.0187
2084.00,0.0188
2083.00,0.0188
2082.00,0.0189
2081.00,0.0188
2080.00,0.0188
2079.00,0.0188
2078.00,0.0189
2077.00,0.0189
2076.00,0.0189
2075.00,0.0188
2074.00,0.0187
2073.00,0.0186
2072.00,0.0187
2071.00,0.0187
2070.00,0.0188
2069.00,0.0189
2068.00,0.0189
2067.00,0.0189
2066.00,0.0189
2065.00,0.0189
2064.00,0.0189
2063.00,0.0188
2062.00,0.0187
2061.00,0.0187
2060.00,0.0186
2059.00,0.0186
2058.00,0.0186
2057.00,0.0187
2056.00,0.0188
2055.00,0.0189
2054.00,0.0189
2053.00,0.0189
2052.00,0.0190
2051.00,0.0190
2050.00,0.0190
2049.00,0.0189
2048.00,0.0188
2047.00,0.0188
2046.00,0.0189
2045.00,0.0191
2044.00,0.0193
2043.00,0.0194
2042.00,0.0193
2041.00,0.0192
2040.00,0.0191
2039.00,0.0191
2038.00,0.0193
2037.00,0.0195
2036.00,0.0196
2035.00,0.0196
2034.00,0.0195
2033.00,0.0193
2032.00,0.0192
2031.00,0.0191
2030.00,0.0190
2029.00,0.0190
2028.00,0.0191
2027.00,0.0191
2026.00,0.0191
2025.00,0.0191
2024.00,0.0190
2023.00,0.0190
2022.00,0.0190
2021.00,0.0191
2020.00,0.0192
2019.00,0.0192
2018.00,0.0192
2017.00,0.0190
2016.00,0.0188
2015.00,0.0188
2014.00,0.0188
2013.00,0.0188
2012.00,0.0188
2011.00,0.0188
2010.00,0.0188
2009.00,0.0188
2008.00,0.0187
2007.00,0.0187
2006.00,0.0187
2005.00,0.0187
2004.00,0.0187
2003.00,0.0187
2002.00,0.0188
2001.00,0.0189
2000.00,0.0189
1999.00,0.0189
1998.00,0.0189
1997.00,0.0189
1996.00,0.0189
1995.00,0.0190
1994.00,0.0190
1993.00,0.0190
1992.00,0.0190
1991.00,0.0189
1990.00,0.0189
1989.00,0.0188
1988.00,0.0187
1987.00,0.0186
1986.00,0.0186
1985.00,0.0187
1984.00,0.0188
1983.00,0.0189
1982.00,0.0189
1981.00,0.0189
1980.00,0.0189
1979.00,0.0189
1978.00,0.0188
1977.00,0.0187
1976.00,0.0186
1975.00,0.0185
1974.00,0.0184
1973.00,0.0183
1972.00,0.0183
1971.00,0.0183
1970.00,0.0183
1969.00,0.0183
1968.00,0.0182
1967.00,0.0181
1966.00,0.0182
1965.00,0.0183
1964.00,0.0183
1963.00,0.0182
1962.00,0.0180
1961.00,0.0179
1960.00,0.0179
1959.00,0.0179
1958.00,0.0179
1957.00,0.0178
1956.00,0.0179
1955.00,0.0179
1954.00,0.0179
1953.00,0.0179
1952.00,0.0179
1951.00,0.0179
1950.00,0.0179
1949.00,0.0179
1948.00,0.0179
1947.00,0.0179
1946.00,0.0179
1945.00,0.0179
1944.00,0.0179
1943.00,0.0178
1942.00,0.0176
1941.00,0.0175
1940.00,0.0174
1939.00,0.0173
1938.00,0.0173
1937.00,0.0174
1936.00,0.0174
1935.00,0.0174
1934.00,0.0174
1933.00,0.0174
1932.00,0.0175
1931.00,0.0174
1930.00,0.0174
1929.00,0.0173
1928.00,0.0172
1927.00,0.0172
1926.00,0.0172
1925.00,0.0172
1924.00,0.0171
1923.00,0.0171
1922.00,0.0171
1921.00,0.0171
1920.00,0.0171
1919.00,0.0170
1918.00,0.0168
1917.00,0.0168
1916.00,0.0168
1915.00,0.0169
1914.00,0.0170
1913.00,0.0170
1912.00,0.0169
1911.00,0.0169
1910.00,0.0168
1909.00,0.0168
1908.00,0.0168
1907.00,0.0167
1906.00,0.0167
1905.00,0.0167
1904.00,0.0166
1903.00,0.0166
1902.00,0.0166
1901.00,0.0166
1900.00,0.0167
1899.00,0.0167
1898.00,0.0167
1897.00,0.0166
1896.00,0.0166
1895.00,0.0165
1894.00,0.0164
1893.00,0.0164
1892.00,0.0164
1891.00,0.0163
1890.00,0.0162
1889.00,0.0162
1888.00,0.0163
1887.00,0.0163
1886.00,0.0163
1885.00,0.0163
1884.00,0.0162
1883.00,0.0161
1882.00,0.0161
1881.00,0.0162
1880.00,0.0162
1879.00,0.0161
1878.00,0.0161
1877.00,0.0161
1876.00,0.0161
1875.00,0.0161
1874.00,0.0161
1873.00,0.0160
1872.00,0.0160
1871.00,0.0160
1870.00,0.0160
1869.00,0.0159
1868.00,0.0158
1867.00,0.0157
1866.00,0.0157
1865.00,0.0158
1864.00,0.0158
1863.00,0.0158
1862.00,0.0157
1861.00,0.0156
1860.00,0.0156
1859.00,0.0156
1858.00,0.0157
1857.00,0.0157
1856.00,0.0156
1855.00,0.0156
1854.00,0.0156
1853.00,0.0155
1852.00,0.0155
1851.00,0.0155
1850.00,0.0155
1849.00,0.0155
1848.00,0.0155
1847.00,0.0155
1846.00,0.0155
1845.00,0.0155
1844.00,0.0153
1843.00,0.0152
1842.00,0.0152
1841.00,0.0152
1840.00,0.0152
1839.00,0.0152
1838.00,0.0151
1837.00,0.0151
1836.00,0.0151
1835.00,0.0151
1834.00,0.0151
1833.00,0.0152
1832.00,0.0152
1831.00,0.0151
1830.00,0.0148
1829.00,0.0147
1828.00,0.0146
1827.00,0.0146
1826.00,0.0146
1825.00,0.0145
1824.00,0.0146
1823.00,0.0146
1822.00,0.0147
1821.00,0.0147
1820.00,0.0146
1819.00,0.0146
1818.00,0.0145
1817.00,0.0145
1816.00,0.0144
1815.00,0.0144
1814.00,0.0144
1813.00,0.0144
1812.00,0.0144
1811.00,0.0143
1810.00,0.0142
1809.00,0.0142
1808.00,0.0142
1807.00,0.0142
1806.00,0.0143
1805.00,0.0143
1804.00,0.0143
1803.00,0.0143
1802.00,0.0142
1801.00,0.0142
1800.00,0.0142
1799.00,0.0142
1798.00,0.0143
1797.00,0.0144
1796.00,0.0145
1795.00,0.0146
1794.00,0.0146
1793.00,0.0146
1792.00,0.0144
1791.00,0.0142
1790.00,0.0141
1789.00,0.0142
1788.00,0.0143
1787.00,0.0144
1786.00,0.0144
1785.00,0.0145
1784.00,0.0145
1783.00,0.0145
1782.00,0.0145
1781.00,0.0145
1780.00,0.0145
1779.00,0.0145
1778.00,0.0146
1777.00,0.0147
1776.00,0.0148
1775.00,0.0150
1774.00,0.0151
1773.00,0.0151
1772.00,0.0150
1771.00,0.0150
1770.00,0.0150
1769.00,0.0151
1768.00,0.0151
1767.00,0.0152
1766.00,0.0153
1765.00,0.0154
1764.00,0.0154
1763.00,0.0154
1762.00,0.0153
1761.00,0.0152
1760.00,0.0153
1759.00,0.0154
1758.00,0.0155
1757.00,0.0155
1756.00,0.0155
1755.00,0.0157
1754.00,0.0158
1753.00,0.0158
1752.00,0.0159
1751.00,0.0160
1750.00,0.0160
1749.00,0.0160
1748.00,0.0160
1747.00,0.0161
1746.00,0.0162
1745.00,0.0162
1744.00,0.0163
1743.00,0.0164
1742.00,0.0165
1741.00,0.0167
1740.00,0.0169
1739.00,0.0170
1738.00,0.0172
1737.00,0.0175
1736.00,0.0178
1735.00,0.0181
1734.00,0.0182
1733.00,0.0181
1732.00,0.0181
1731.00,0.0181
1730.00,0.0181
1729.00,0.0183
1728.00,0.0185
1727.00,0.0187
1726.00,0.0189
1725.00,0.0191
1724.00,0.0193
1723.00,0.0194
1722.00,0.0196
1721.00,0.0197
1720.00,0.0197
1719.00,0.0198
1718.00,0.0200
1717.00,0.0203
1716.00,0.0205
1715.00,0.0205
1714.00,0.0205
1713.00,0.0206
1712.00,0.0207
1711.00,0.0208
1710.00,0.0209
1709.00,0.0210
1708.00,0.0211
1707.00,0.0211
1706.00,0.0212
1705.00,0.0213
1704.00,0.0215
1703.00,0.0216
1702.00,0.0217
1701.00,0.0218
1700.00,0.0221
1699.00,0.0223
1698.00,0.0224
1697.00,0.0223
1696.00,0.0221
1695.00,0.0220
1694.00,0.0220
1693.00,0.0221
1692.00,0.0221
1691.00,0.0221
1690.00,0.0221
1689.00,0.0222
1688.00,0.0223
1687.00,0.0223
1686.00,0.0221
1685.00,0.0220
1684.00,0.0218
1683.00,0.0218
1682.00,0.0219
1681.00,0.0220
1680.00,0.0221
1679.00,0.0223
1678.00,0.0224
1677.00,0.0224
1676.00,0.0225
1675.00,0.0226
1674.00,0.0226
1673.00,0.0227
1672.00,0.0227
1671.00,0.0227
1670.00,0.0228
1669.00,0.0227
1668.00,0.0227
1667.00,0.0228
1666.00,0.0229
1665.00,0.0230
1664.00,0.0230
1663.00,0.0231
1662.00,0.0232
1661.00,0.0232
1660.00,0.0234
1659.00,0.0235
1658.00,0.0236
1657.00,0.0236
1656.00,0.0236
1655.00,0.0235
1654.00,0.0236
1653.00,0.0237
1652.00,0.0238
1651.00,0.0240
1650.00,0.0241
1649.00,0.0242
1648.00,0.0244
1647.00,0.0247
1646.00,0.0249
1645.00,0.0250
1644.00,0.0251
1643.00,0.0251
1642.00,0.0252
1641.00,0.0252
1640.00,0.0253
1639.00,0.0253
1638.00,0.0254
1637.00,0.0255
1636.00,0.0257
1635.00,0.0259
1634.00,0.0261
1633.00,0.0263
1632.00,0.0264
1631.00,0.0265
1630.00,0.0266
1629.00,0.0267
1628.00,0.0268
1627.00,0.0270
1626.00,0.0272
1625.00,0.0274
1624.00,0.0276
1623.00,0.0277
1622.00,0.0279
1621.00,0.0280
1620.00,0.0281
1619.00,0.0283
1618.00,0.0285
1617.00,0.0287
1616.00,0.0288
1615.00,0.0289
1614.00,0.0289
1613.00,0.0289
1612.00,0.0290
1611.00,0.0292
1610.00,0.0294
1609.00,0.0295
1608.00,0.0296
1607.00,0.0297
1606.00,0.0297
1605.00,0.0297
1604.00,0.0298
1603.00,0.0298
1602.00,0.0299
1601.00,0.0299
1600.00,0.0300
1599.00,0.0301
1598.00,0.0301
1597.00,0.0302
1596.00,0.0302
1595.00,0.0302
1594.00,0.0303
1593.00,0.0303
1592.00,0.0303
1591.00,0.0303
1590.00,0.0304
1589.00,0.0304
1588.00,0.0304
1587.00,0.0305
1586.00,0.0305
1585.00,0.0305
1584.00,0.0305
1583.00,0.0305
1582.00,0.0305
1581.00,0.0305
1580.00,0.0305
1579.00,0.0306
1578.00,0.0306
1577.00,0.0307
1576.00,0.0308
1575.00,0.0308
1574.00,0.0307
1573.00,0.0306
1572.00,0.0305
1571.00,0.0304
1570.00,0.0305
1569.00,0.0305
1568.00,0.0305
1567.00,0.0305
1566.00,0.0304
1565.00,0.0304
1564.00,0.0304
1563.00,0.0304
1562.00,0.0302
1561.00,0.0297
1560.00,0.0296
1559.00,0.0302
1558.00,0.0304
1557.00,0.0304
1556.00,0.0303
1555.00,0.0302
1554.00,0.0300
1553.00,0.0298
1552.00,0.0296
1551.00,0.0294
1550.00,0.0293
1549.00,0.0292
1548.00,0.0292
1547.00,0.0291
1546.00,0.0291
1545.00,0.0290
1544.00,0.0291
1543.00,0.0291
1542.00,0.0290
1541.00,0.0289
1540.00,0.0283
1539.00,0.0278
1538.00,0.0277
1537.00,0.0278
1536.00,0.0278
1535.00,0.0277
1534.00,0.0276
1533.00,0.0275
1532.00,0.0275
1531.00,0.0275
1530.00,0.0275
1529.00,0.0275
1528.00,0.0276
1527.00,0.0276
1526.00,0.0277
1525.00,0.0277
1524.00,0.0276
1523.00,0.0275
1522.00,0.0274
1521.00,0.0272
1520.00,0.0269
1519.00,0.0268
1518.00,0.0266
1517.00,0.0266
1516.00,0.0265
1515.00,0.0266
1514.00,0.0266
1513.00,0.0267
1512.00,0.0267
1511.00,0.0266
1510.00,0.0265
1509.00,0.0265
1508.00,0.0266
1507.00,0.0264
1506.00,0.0261
1505.00,0.0261
1504.00,0.0262
1503.00,0.0261
1502.00,0.0261
1501.00,0.0260
1500.00,0.0259
1499.00,0.0258
1498.00,0.0258
1497.00,0.0258
1496.00,0.0258
1495.00,0.0258
1494.00,0.0258
1493.00,0.0259
1492.00,0.0260
1491.00,0.0260
1490.00,0.0260
1489.00,0.0258
1488.00,0.0256
1487.00,0.0255
1486.00,0.0254
1485.00,0.0255
1484.00,0.0255
1483.00,0.0256
1482.00,0.0256
1481.00,0.0256
1480.00,0.0256
1479.00,0.0255
1478.00,0.0255
1477.00,0.0255
1476.00,0.0256
1475.00,0.0258
1474.00,0.0260
1473.00,0.0261
1472.00,0.0259
1471.00,0.0257
1470.00,0.0256
1469.00,0.0256
1468.00,0.0256
1467.00,0.0255
1466.00,0.0255
1465.00,0.0255
1464.00,0.0255
1463.00,0.0255
1462.00,0.0255
1461.00,0.0255
1460.00,0.0255
1459.00,0.0256
1458.00,0.0260
1457.00,0.0263
1456.00,0.0263
1455.00,0.0262
1454.00,0.0262
1453.00,0.0262
1452.00,0.0263
1451.00,0.0263
1450.00,0.0264
1449.00,0.0265
1448.00,0.0266
1447.00,0.0267
1446.00,0.0267
1445.00,0.0267
1444.00,0.0268
1443.00,0.0268
1442.00,0.0269
1441.00,0.0270
1440.00,0.0271
1439.00,0.0271
1438.00,0.0272
1437.00,0.0273
1436.00,0.0274
1435.00,0.0274
1434.00,0.0274
1433.00,0.0274
1432.00,0.0275
1431.00,0.0275
1430.00,0.0275
1429.00,0.0275
1428.00,0.0275
1427.00,0.0276
1426.00,0.0275
1425.00,0.0275
1424.00,0.0276
1423.00,0.0277
1422.00,0.0277
1421.00,0.0277
1420.00,0.0277
1419.00,0.0277
1418.00,0.0278
1417.00,0.0278
1416.00,0.0278
1415.00,0.0279
1414.00,0.0279
1413.00,0.0279
1412.00,0.0279
1411.00,0.0278
1410.00,0.0278
1409.00,0.0277
1408.00,0.0277
1407.00,0.0277
1406.00,0.0277
1405.00,0.0278
1404.00,0.0279
1403.00,0.0279
1402.00,0.0279
1401.00,0.0279
1400.00,0.0279
1399.00,0.0280
1398.00,0.0281
1397.00,0.0281
1396.00,0.0281
1395.00,0.0281
1394.00,0.0280
1393.00,0.0281
1392.00,0.0281
1391.00,0.0282
1390.00,0.0282
1389.00,0.0283
1388.00,0.0283
1387.00,0.0284
1386.00,0.0283
1385.00,0.0283
1384.00,0.0283
1383.00,0.0284
1382.00,0.0284
1381.00,0.0285
1380.00,0.0285
1379.00,0.0285
1378.00,0.0286
1377.00,0.0286
1376.00,0.0286
1375.00,0.0287
1374.00,0.0288
1373.00,0.0288
1372.00,0.0289
1371.00,0.0289
1370.00,0.0289
1369.00,0.0289
1368.00,0.0289
1367.00,0.0289
1366.00,0.0289
1365.00,0.0289
1364.00,0.0289
1363.00,0.0289
1362.00,0.0290
1361.00,0.0290
1360.00,0.0290
1359.00,0.0290
1358.00,0.0290
1357.00,0.0290
1356.00,0.0291
1355.00,0.0291
1354.00,0.0291
1353.00,0.0290
1352.00,0.0290
1351.00,0.0291
1350.00,0.0291
1349.00,0.0291
1348.00,0.0291
1347.00,0.0291
1346.00,0.0291
1345.00,0.0291
1344.00,0.0291
1343.00,0.0291
1342.00,0.0291
1341.00,0.0292
1340.00,0.0292
1339.00,0.0292
1338.00,0.0292
1337.00,0.0291
1336.00,0.0291
1335.00,0.0292
1334.00,0.0292
1333.00,0.0292
1332.00,0.0292
1331.00,0.0292
1330.00,0.0293
1329.00,0.0293
1328.00,0.0293
1327.00,0.0292
1326.00,0.0292
1325.00,0.0292
1324.00,0.0292
1323.00,0.0293
1322.00,0.0294
1321.00,0.0295
1320.00,0.0295
1319.00,0.0295
1318.00,0.0295
1317.00,0.0296
1316.00,0.0296
1315.00,0.0297
1314.00,0.0297
1313.00,0.0297
1312.00,0.0298
1311.00,0.0298
1310.00,0.0298
1309.00,0.0298
1308.00,0.0298
1307.00,0.0299
1306.00,0.0299
1305.00,0.0299
1304.00,0.0299
1303.00,0.0300
1302.00,0.0300
1301.00,0.0300
1300.00,0.0301
1299.00,0.0301
1298.00,0.0302
1297.00,0.0303
1296.00,0.0304
1295.00,0.0305
1294.00,0.0305
1293.00,0.0305
1292.00,0.0306
1291.00,0.0307
1290.00,0.0308
1289.00,0.0308
1288.00,0.0308
1287.00,0.0308
1286.00,0.0308
1285.00,0.0308
1284.00,0.0308
1283.00,0.0309
1282.00,0.0310
1281.00,0.0311
1280.00,0.0312
1279.00,0.0313
1278.00,0.0313
1277.00,0.0313
1276.00,0.0313
1275.00,0.0313
1274.00,0.0314
1273.00,0.0314
1272.00,0.0315
1271.00,0.0316
1270.00,0.0316
1269.00,0.0316
1268.00,0.0316
1267.00,0.0316
1266.00,0.0317
1265.00,0.0318
1264.00,0.0318
1263.00,0.0319
1262.00,0.0319
1261.00,0.0320
1260.00,0.0320
1259.00,0.0321
1258.00,0.0321
1257.00,0.0321
1256.00,0.0321
1255.00,0.0321
1254.00,0.0322
1253.00,0.0322
1252.00,0.0322
1251.00,0.0321
1250.00,0.0321
1249.00,0.0322
1248.00,0.0323
1247.00,0.0324
1246.00,0.0325
1245.00,0.0325
1244.00,0.0325
1243.00,0.0325
1242.00,0.0325
1241.00,0.0326
1240.00,0.0326
1239.00,0.0327
1238.00,0.0327
1237.00,0.0327
1236.00,0.0328
1235.00,0.0328
1234.00,0.0328
1233.00,0.0328
1232.00,0.0328
1231.00,0.0329
1230.00,0.0329
1229.00,0.0330
1228.00,0.0331
1227.00,0.0331
1226.00,0.0331
1225.00,0.0331
1224.00,0.0332
1223.00,0.0332
1222.00,0.0332
1221.00,0.0332
1220.00,0.0332
1219.00,0.0332
1218.00,0.0331
1217.00,0.0331
1216.00,0.0331
1215.00,0.0332
1214.00,0.0333
1213.00,0.0333
1212.00,0.0333
1211.00,0.0333
1210.00,0.0333
1209.00,0.0333
1208.00,0.0333
1207.00,0.0333
1206.00,0.0333
1205.00,0.0333
1204.00,0.0334
1203.00,0.0334
1202.00,0.0334
1201.00,0.0334
1200.00,0.0334
1199.00,0.0334
1198.00,0.0334
1197.00,0.0334
1196.00,0.0335
1195.00,0.0335
1194.00,0.0335
1193.00,0.0335
1192.00,0.0335
1191.00,0.0335
1190.00,0.0335
1189.00,0.0334
1188.00,0.0333
1187.00,0.0334
1186.00,0.0334
1185.00,0.0335
1184.00,0.0335
1183.00,0.0334
1182.00,0.0333
1181.00,0.0332
1180.00,0.0333
1179.00,0.0334
1178.00,0.0335
1177.00,0.0335
1176.00,0.0334
1175.00,0.0333
1174.00,0.0332
1173.00,0.0331
1172.00,0.0331
1171.00,0.0332
1170.00,0.0332
1169.00,0.0333
1168.00,0.0333
1167.00,0.0333
1166.00,0.0333
1165.00,0.0332
1164.00,0.0331
1163.00,0.0332
1162.00,0.0332
1161.00,0.0331
1160.00,0.0331
1159.00,0.0330
1158.00,0.0329
1157.00,0.0329
1156.00,0.0328
1155.00,0.0329
1154.00,0.0329
1153.00,0.0329
1152.00,0.0329
1151.00,0.0328
1150.00,0.0327
1149.00,0.0327
1148.00,0.0327
1147.00,0.0327
1146.00,0.0327
1145.00,0.0328
1144.00,0.0328
1143.00,0.0328
1142.00,0.0327
1141.00,0.0327
1140.00,0.0326
1139.00,0.0326
1138.00,0.0326
1137.00,0.0327
1136.00,0.0327
1135.00,0.0328
1134.00,0.0329
1133.00,0.0329
1132.00,0.0328
1131.00,0.0327
1130.00,0.0326
1129.00,0.0327
1128.00,0.0328
1127.00,0.0329
1126.00,0.0328
1125.00,0.0328
1124.00,0.0327
1123.00,0.0327
1122.00,0.0328
1121.00,0.0329
1120.00,0.0330
1119.00,0.0331
1118.00,0.0332
1117.00,0.0332
1116.00,0.0333
1115.00,0.0333
1114.00,0.0332
1113.00,0.0331
1112.00,0.0331
1111.00,0.0332
1110.00,0.0334
1109.00,0.0335
1108.00,0.0336
1107.00,0.0335
1106.00,0.0335
1105.00,0.0334
1104.00,0.0334
1103.00,0.0335
1102.00,0.0336
1101.00,0.0337
1100.00,0.0336
1099.00,0.0335
1098.00,0.0335
1097.00,0.0335
1096.00,0.0335
1095.00,0.0335
1094.00,0.0335
1093.00,0.0335
1092.00,0.0336
1091.00,0.0336
1090.00,0.0336
1089.00,0.0335
1088.00,0.0335
1087.00,0.0335
1086.00,0.0335
1085.00,0.0335
1084.00,0.0335
1083.00,0.0334
1082.00,0.0334
1081.00,0.0333
1080.00,0.0333
1079.00,0.0333
1078.00,0.0334
1077.00,0.0335
1076.00,0.0336
1075.00,0.0337
1074.00,0.0337
1073.00,0.0337
1072.00,0.0337
1071.00,0.0338
1070.00,0.0337
1069.00,0.0337
1068.00,0.0337
1067.00,0.0338
1066.00,0.0339
1065.00,0.0339
1064.00,0.0338
1063.00,0.0338
1062.00,0.0338
1061.00,0.0339
1060.00,0.0340
1059.00,0.0341
1058.00,0.0341
1057.00,0.0341
1056.00,0.0340
1055.00,0.0340
1054.00,0.0340
1053.00,0.0340
1052.00,0.0341
1051.00,0.0342
1050.00,0.0344
1049.00,0.0344
1048.00,0.0344
1047.00,0.0344
1046.00,0.0344
1045.00,0.0344
1044.00,0.0344
1043.00,0.0344
1042.00,0.0344
1041.00,0.0344
1040.00,0.0344
1039.00,0.0344
1038.00,0.0344
1037.00,0.0344
1036.00,0.0345
1035.00,0.0346
1034.00,0.0347
1033.00,0.0347
1032.00,0.0347
1031.00,0.0346
1030.00,0.0345
1029.00,0.0344
1028.00,0.0343
1027.00,0.0342
1026.00,0.0341
1025.00,0.0339
1024.00,0.0338
1023.00,0.0337
1022.00,0.0337
1021.00,0.0336
1020.00,0.0336
1019.00,0.0336
1018.00,0.0336
1017.00,0.0337
1016.00,0.0337
1015.00,0.0337
1014.00,0.0337
1013.00,0.0337
1012.00,0.0337
1011.00,0.0337
1010.00,0.0338
1009.00,0.0339
1008.00,0.0340
1007.00,0.0339
1006.00,0.0337
1005.00,0.0336
1004.00,0.0334
1003.00,0.0333
1002.00,0.0333
1001.00,0.0333
1000.00,0.0332
999.00,0.0331
998.00,0.0330
997.00,0.0329
996.00,0.0329
995.00,0.0328
994.00,0.0327
993.00,0.0327
992.00,0.0327
991.00,0.0327
990.00,0.0326
989.00,0.0325
988.00,0.0324
987.00,0.0323
986.00,0.0322
985.00,0.0322
984.00,0.0322
983.00,0.0321
982.00,0.0320
981.00,0.0320
980.00,0.0320
979.00,0.0320
978.00,0.0319
977.00,0.0319
976.00,0.0319
975.00,0.0318
974.00,0.0317
973.00,0.0315
972.00,0.0314
971.00,0.0313
970.00,0.0313
969.00,0.0312
968.00,0.0312
967.00,0.0312
966.00,0.0312
965.00,0.0312
964.00,0.0312
963.00,0.0310
962.00,0.0309
961.00,0.0308
960.00,0.0308
959.00,0.0308
958.00,0.0309
957.00,0.0309
956.00,0.0309
955.00,0.0309
954.00,0.0309
953.00,0.0309
952.00,0.0308
951.00,0.0308
950.00,0.0308
949.00,0.0308
948.00,0.0308
947.00,0.0308
946.00,0.0307
945.00,0.0307
944.00,0.0307
943.00,0.0307
942.00,0.0308
941.00,0.0308
940.00,0.0310
939.00,0.0311
938.00,0.0311
937.00,0.0310
936.00,0.0309
935.00,0.0309
934.00,0.0310
933.00,0.0311
932.00,0.0310
931.00,0.0309
930.00,0.0308
929.00,0.0307
928.00,0.0307
927.00,0.0307
926.00,0.0308
925.00,0.0310
924.00,0.0312
923.00,0.0313
922.00,0.0313
921.00,0.0313
920.00,0.0314
919.00,0.0315
918.00,0.0317
917.00,0.0318
916.00,0.0319
915.00,0.0320
914.00,0.0319
913.00,0.0319
912.00,0.0317
911.00,0.0317
910.00,0.0317
909.00,0.0318
908.00,0.0320
907.00,0.0320
906.00,0.0320
905.00,0.0320
904.00,0.0320
903.00,0.0320
902.00,0.0320
901.00,0.0320
900.00,0.0321
899.00,0.0321
898.00,0.0322
897.00,0.0322
896.00,0.0321
895.00,0.0320
894.00,0.0320
893.00,0.0319
892.00,0.0320
891.00,0.0321
890.00,0.0322
889.00,0.0323
888.00,0.0323
887.00,0.0324
886.00,0.0324
885.00,0.0325
884.00,0.0325
883.00,0.0326
882.00,0.0325
881.00,0.0324
880.00,0.0324
879.00,0.0325
878.00,0.0327
877.00,0.0328
876.00,0.0327
875.00,0.0326
874.00,0.0325
873.00,0.0325
872.00,0.0327
871.00,0.0328
870.00,0.0329
869.00,0.0328
868.00,0.0327
867.00,0.0326
866.00,0.0325
865.00,0.0325
864.00,0.0326
863.00,0.0326
862.00,0.0327
861.00,0.0327
860.00,0.0327
859.00,0.0328
858.00,0.0328
857.00,0.0328
856.00,0.0327
855.00,0.0327
854.00,0.0327
853.00,0.0327
852.00,0.0326
851.00,0.0325
850.00,0.0325
849.00,0.0327
848.00,0.0328
847.00,0.0329
846.00,0.0330
845.00,0.0330
844.00,0.0330
843.00,0.0330
842.00,0.0330
841.00,0.0331
840.00,0.0334
839.00,0.0336
838.00,0.0337
837.00,0.0336
836.00,0.0335
835.00,0.0335
834.00,0.0335
833.00,0.0335
832.00,0.0335
831.00,0.0336
830.00,0.0337
829.00,0.0339
828.00,0.0339
827.00,0.0339
826.00,0.0339
825.00,0.0341
824.00,0.0344
823.00,0.0346
822.00,0.0347
821.00,0.0347
820.00,0.0346
819.00,0.0346
818.00,0.0347
817.00,0.0348
816.00,0.0350
815.00,0.0351
814.00,0.0350
813.00,0.0349
812.00,0.0347
811.00,0.0346
810.00,0.0347
809.00,0.0348
808.00,0.0349
807.00,0.0349
806.00,0.0350
805.00,0.0351
804.00,0.0353
803.00,0.0355
802.00,0.0354
801.00,0.0353
800.00,0.0352
799.00,0.0352
798.00,0.0354
797.00,0.0356
796.00,0.0359
795.00,0.0359
794.00,0.0357
793.00,0.0355
792.00,0.0354
791.00,0.0353
790.00,0.0354
789.00,0.0355
788.00,0.0358
787.00,0.0359
786.00,0.0359
785.00,0.0358
784.00,0.0357
783.00,0.0357
782.00,0.0359
781.00,0.0361
780.00,0.0363
779.00,0.0364
778.00,0.0364
777.00,0.0364
776.00,0.0364
775.00,0.0363
774.00,0.0363
773.00,0.0363
772.00,0.0364
771.00,0.0363
770.00,0.0363
769.00,0.0364
768.00,0.0365
767.00,0.0367
766.00,0.0369
765.00,0.0370
764.00,0.0370
763.00,0.0369
762.00,0.0367
761.00,0.0367
760.00,0.0368
759.00,0.0370
758.00,0.0372
757.00,0.0374
756.00,0.0376
755.00,0.0377
754.00,0.0376
753.00,0.0374
752.00,0.0373
751.00,0.0373
750.00,0.0374
749.00,0.0377
748.00,0.0379
747.00,0.0381
746.00,0.0381
745.00,0.0379
744.00,0.0377
743.00,0.0375
742.00,0.0373
741.00,0.0373
740.00,0.0374
739.00,0.0376
738.00,0.0375
737.00,0.0374
736.00,0.0373
735.00,0.0373
734.00,0.0373
733.00,0.0374
732.00,0.0374
731.00,0.0375
730.00,0.0377
729.00,0.0378
728.00,0.0379
727.00,0.0379
726.00,0.0378
725.00,0.0377
724.00,0.0376
723.00,0.0375
722.00,0.0376
721.00,0.0377
720.00,0.0378
719.00,0.0380
718.00,0.0382
717.00,0.0384
716.00,0.0384
715.00,0.0384
714.00,0.0382
713.00,0.0381
712.00,0.0381
711.00,0.0380
710.00,0.0381
709.00,0.0381
708.00,0.0382
707.00,0.0382
706.00,0.0380
705.00,0.0379
704.00,0.0380
703.00,0.0384
702.00,0.0387
701.00,0.0388
700.00,0.0387
699.00,0.0386
698.00,0.0388
697.00,0.0391
696.00,0.0394
695.00,0.0394
694.00,0.0392
693.00,0.0391
692.00,0.0392
691.00,0.0392
690.00,0.0392
689.00,0.0394
688.00,0.0397
687.00,0.0401
686.00,0.0403
685.00,0.0405
684.00,0.0407
683.00,0.0408
682.00,0.0408
681.00,0.0405
680.00,0.0402
679.00,0.0402
678.00,0.0404
677.00,0.0406
676.00,0.0405
675.00,0.0402
674.00,0.0401
673.00,0.0403
672.00,0.0406
671.00,0.0407
670.00,0.0407
669.00,0.0408
668.00,0.0411
667.00,0.0411
666.00,0.0407
665.00,0.0405
664.00,0.0405
663.00,0.0406
662.00,0.0407
661.00,0.0407
660.00,0.0408
659.00,0.0410
658.00,0.0412
657.00,0.0413
656.00,0.0412
655.00,0.0413
654.00,0.0416
653.00,0.0420
652.00,0.0424
651.00,0.0424
650.00,0.0421
