Created as New Dataset,Monday, April 03 2023
cm-1,A
4000.00,0.0167
3999.00,0.0167
3998.00,0.0167
3997.00,0.0167
3996.00,0.0167
3995.00,0.0167
3994.00,0.0167
3993.00,0.0167
3992.00,0.0167
3991.00,0.0167
3990.00,0.0167
3989.00,0.0167
3988.00,0.0167
3987.00,0.0167
3986.00,0.0167
3985.00,0.0167
3984.00,0.0167
3983.00,0.0167
3982.00,0.0167
3981.00,0.0167
3980.00,0.0167
3979.00,0.0167
3978.00,0.0168
3977.00,0.0168
3976.00,0.0168
3975.00,0.0168
3974.00,0.0168
3973.00,0.0167
3972.00,0.0168
3971.00,0.0168
3970.00,0.0168
3969.00,0.0168
3968.00,0.0168
3967.00,0.0168
3966.00,0.0168
3965.00,0.0168
3964.00,0.0168
3963.00,0.0168
3962.00,0.0168
3961.00,0.0168
3960.00,0.0168
3959.00,0.0168
3958.00,0.0168
3957.00,0.0168
3956.00,0.0168
3955.00,0.0168
3954.00,0.0168
3953.00,0.0168
3952.00,0.0168
3951.00,0.0168
3950.00,0.0169
3949.00,0.0169
3948.00,0.0169
3947.00,0.0169
3946.00,0.0169
3945.00,0.0169
3944.00,0.0169
3943.00,0.0168
3942.00,0.0168
3941.00,0.0168
3940.00,0.0169
3939.00,0.0169
3938.00,0.0169
3937.00,0.0170
3936.00,0.0170
3935.00,0.0171
3934.00,0.0172
3933.00,0.0172
3932.00,0.0171
3931.00,0.0171
3930.00,0.0170
3929.00,0.0169
3928.00,0.0169
3927.00,0.0169
3926.00,0.0168
3925.00,0.0168
3924.00,0.0169
3923.00,0.0169
3922.00,0.0170
3921.00,0.0171
3920.00,0.0171
3919.00,0.0171
3918.00,0.0172
3917.00,0.0171
3916.00,0.0171
3915.00,0.0170
3914.00,0.0170
3913.00,0.0169
3912.00,0.0169
3911.00,0.0168
3910.00,0.0168
3909.00,0.0169
3908.00,0.0169
3907.00,0.0170
3906.00,0.0171
3905.00,0.0173
3904.00,0.0175
3903.00,0.0177
3902.00,0.0178
3901.00,0.0177
3900.00,0.0176
3899.00,0.0174
3898.00,0.0173
3897.00,0.0173
3896.00,0.0173
3895.00,0.0173
3894.00,0.0172
3893.00,0.0172
3892.00,0.0171
3891.00,0.0172
3890.00,0.0172
3889.00,0.0173
3888.00,0.0174
3887.00,0.0175
3886.00,0.0175
3885.00,0.0174
3884.00,0.0174
3883.00,0.0174
3882.00,0.0173
3881.00,0.0172
3880.00,0.0171
3879.00,0.0172
3878.00,0.0172
3877.00,0.0173
3876.00,0.0173
3875.00,0.0172
3874.00,0.0172
3873.00,0.0173
3872.00,0.0175
3871.00,0.0175
3870.00,0.0175
3869.00,0.0174
3868.00,0.0175
3867.00,0.0177
3866.00,0.0177
3865.00,0.0176
3864.00,0.0174
3863.00,0.0174
3862.00,0.0174
3861.00,0.0175
3860.00,0.0175
3859.00,0.0174
3858.00,0.0173
3857.00,0.0173
3856.00,0.0173
3855.00,0.0175
3854.00,0.0175
3853.00,0.0175
3852.00,0.0174
3851.00,0.0174
3850.00,0.0175
3849.00,0.0175
3848.00,0.0175
3847.00,0.0174
3846.00,0.0174
3845.00,0.0173
3844.00,0.0173
3843.00,0.0174
3842.00,0.0175
3841.00,0.0175
3840.00,0.0176
3839.00,0.0175
3838.00,0.0175
3837.00,0.0175
3836.00,0.0175
3835.00,0.0175
3834.00,0.0175
3833.00,0.0175
3832.00,0.0175
3831.00,0.0175
3830.00,0.0175
3829.00,0.0175
3828.00,0.0175
3827.00,0.0174
3826.00,0.0174
3825.00,0.0175
3824.00,0.0177
3823.00,0.0179
3822.00,0.0179
3821.00,0.0178
3820.00,0.0177
3819.00,0.0177
3818.00,0.0178
3817.00,0.0177
3816.00,0.0174
3815.00,0.0172
3814.00,0.0172
3813.00,0.0173
3812.00,0.0174
3811.00,0.0173
3810.00,0.0173
3809.00,0.0174
3808.00,0.0175
3807.00,0.0175
3806.00,0.0175
3805.00,0.0175
3804.00,0.0177
3803.00,0.0177
3802.00,0.0176
3801.00,0.0175
3800.00,0.0174
3799.00,0.0175
3798.00,0.0176
3797.00,0.0175
3796.00,0.0175
3795.00,0.0174
3794.00,0.0174
3793.00,0.0174
3792.00,0.0173
3791.00,0.0172
3790.00,0.0172
3789.00,0.0173
3788.00,0.0173
3787.00,0.0173
3786.00,0.0173
3785.00,0.0173
3784.00,0.0173
3783.00,0.0173
3782.00,0.0173
3781.00,0.0173
3780.00,0.0173
3779.00,0.0172
3778.00,0.0172
3777.00,0.0173
3776.00,0.0174
3775.00,0.0174
3774.00,0.0174
3773.00,0.0174
3772.00,0.0175
3771.00,0.0176
3770.00,0.0176
3769.00,0.0176
3768.00,0.0176
3767.00,0.0177
3766.00,0.0177
3765.00,0.0176
3764.00,0.0176
3763.00,0.0177
3762.00,0.0178
3761.00,0.0177
3760.00,0.0177
3759.00,0.0177
3758.00,0.0177
3757.00,0.0178
3756.00,0.0179
3755.00,0.0180
3754.00,0.0181
3753.00,0.0183
3752.00,0.0185
3751.00,0.0187
3750.00,0.0187
3749.00,0.0186
3748.00,0.0184
3747.00,0.0183
3746.00,0.0182
3745.00,0.0182
3744.00,0.0181
3743.00,0.0180
3742.00,0.0182
3741.00,0.0183
3740.00,0.0184
3739.00,0.0185
3738.00,0.0186
3737.00,0.0186
3736.00,0.0186
3735.00,0.0185
3734.00,0.0185
3733.00,0.0185
3732.00,0.0184
3731.00,0.0183
3730.00,0.0182
3729.00,0.0182
3728.00,0.0182
3727.00,0.0182
3726.00,0.0181
3725.00,0.0181
3724.00,0.0180
3723.00,0.0179
3722.00,0.0178
3721.00,0.0177
3720.00,0.0177
3719.00,0.0177
3718.00,0.0177
3717.00,0.0177
3716.00,0.0178
3715.00,0.0178
3714.00,0.0179
3713.00,0.0179
3712.00,0.0179
3711.00,0.0179
3710.00,0.0180
3709.00,0.0180
3708.00,0.0180
3707.00,0.0180
3706.00,0.0179
3705.00,0.0178
3704.00,0.0177
3703.00,0.0176
3702.00,0.0175
3701.00,0.0175
3700.00,0.0175
3699.00,0.0177
3698.00,0.0177
3697.00,0.0177
3696.00,0.0177
3695.00,0.0176
3694.00,0.0177
3693.00,0.0177
3692.00,0.0177
3691.00,0.0177
3690.00,0.0178
3689.00,0.0179
3688.00,0.0179
3687.00,0.0179
3686.00,0.0179
3685.00,0.0179
3684.00,0.0179
3683.00,0.0179
3682.00,0.0179
3681.00,0.0178
3680.00,0.0177
3679.00,0.0177
3678.00,0.0179
3677.00,0.0181
3676.00,0.0182
3675.00,0.0182
3674.00,0.0183
3673.00,0.0185
3672.00,0.0185
3671.00,0.0184
3670.00,0.0182
3669.00,0.0180
3668.00,0.0179
3667.00,0.0179
3666.00,0.0179
3665.00,0.0179
3664.00,0.0178
3663.00,0.0178
3662.00,0.0178
3661.00,0.0177
3660.00,0.0177
3659.00,0.0178
3658.00,0.0180
3657.00,0.0181
3656.00,0.0181
3655.00,0.0180
3654.00,0.0181
3653.00,0.0181
3652.00,0.0182
3651.00,0.0184
3650.00,0.0185
3649.00,0.0185
3648.00,0.0184
3647.00,0.0183
3646.00,0.0183
3645.00,0.0182
3644.00,0.0182
3643.00,0.0180
3642.00,0.0179
3641.00,0.0178
3640.00,0.0178
3639.00,0.0178
3638.00,0.0178
3637.00,0.0178
3636.00,0.0179
3635.00,0.0179
3634.00,0.0180
3633.00,0.0180
3632.00,0.0182
3631.00,0.0185
3630.00,0.0187
3629.00,0.0187
3628.00,0.0186
3627.00,0.0185
3626.00,0.0185
3625.00,0.0184
3624.00,0.0183
3623.00,0.0182
3622.00,0.0181
3621.00,0.0181
3620.00,0.0182
3619.00,0.0183
3618.00,0.0183
3617.00,0.0184
3616.00,0.0184
3615.00,0.0184
3614.00,0.0183
3613.00,0.0183
3612.00,0.0184
3611.00,0.0186
3610.00,0.0186
3609.00,0.0185
3608.00,0.0183
3607.00,0.0182
3606.00,0.0182
3605.00,0.0182
3604.00,0.0182
3603.00,0.0181
3602.00,0.0180
3601.00,0.0179
3600.00,0.0179
3599.00,0.0179
3598.00,0.0179
3597.00,0.0179
3596.00,0.0180
3595.00,0.0180
3594.00,0.0180
3593.00,0.0181
3592.00,0.0182
3591.00,0.0183
3590.00,0.0183
3589.00,0.0181
3588.00,0.0179
3587.00,0.0178
3586.00,0.0179
3585.00,0.0179
3584.00,0.0180
3583.00,0.0180
3582.00,0.0179
3581.00,0.0179
3580.00,0.0178
3579.00,0.0178
3578.00,0.0178
3577.00,0.0178
3576.00,0.0178
3575.00,0.0178
3574.00,0.0178
3573.00,0.0178
3572.00,0.0178
3571.00,0.0179
3570.00,0.0179
3569.00,0.0180
3568.00,0.0181
3567.00,0.0182
3566.00,0.0182
3565.00,0.0182
3564.00,0.0181
3563.00,0.0180
3562.00,0.0179
3561.00,0.0179
3560.00,0.0178
3559.00,0.0178
3558.00,0.0178
3557.00,0.0178
3556.00,0.0178
3555.00,0.0178
3554.00,0.0178
3553.00,0.0178
3552.00,0.0179
3551.00,0.0179
3550.00,0.0180
3549.00,0.0180
3548.00,0.0180
3547.00,0.0180
3546.00,0.0180
3545.00,0.0180
3544.00,0.0180
3543.00,0.0179
3542.00,0.0179
3541.00,0.0178
3540.00,0.0178
3539.00,0.0178
3538.00,0.0178
3537.00,0.0178
3536.00,0.0178
3535.00,0.0179
3534.00,0.0179
3533.00,0.0179
3532.00,0.0179
3531.00,0.0179
3530.00,0.0179
3529.00,0.0180
3528.00,0.0180
3527.00,0.0180
3526.00,0.0181
3525.00,0.0180
3524.00,0.0180
3523.00,0.0179
3522.00,0.0179
3521.00,0.0179
3520.00,0.0179
3519.00,0.0179
3518.00,0.0179
3517.00,0.0179
3516.00,0.0179
3515.00,0.0179
3514.00,0.0178
3513.00,0.0178
3512.00,0.0178
3511.00,0.0178
3510.00,0.0178
3509.00,0.0179
3508.00,0.0179
3507.00,0.0180
3506.00,0.0180
3505.00,0.0180
3504.00,0.0180
3503.00,0.0181
3502.00,0.0181
3501.00,0.0181
3500.00,0.0180
3499.00,0.0180
3498.00,0.0180
3497.00,0.0180
3496.00,0.0179
3495.00,0.0179
3494.00,0.0179
3493.00,0.0179
3492.00,0.0179
3491.00,0.0180
3490.00,0.0180
3489.00,0.0180
3488.00,0.0180
3487.00,0.0180
3486.00,0.0180
3485.00,0.0180
3484.00,0.0180
3483.00,0.0180
3482.00,0.0180
3481.00,0.0180
3480.00,0.0180
3479.00,0.0180
3478.00,0.0180
3477.00,0.0180
3476.00,0.0180
3475.00,0.0180
3474.00,0.0180
3473.00,0.0180
3472.00,0.0179
3471.00,0.0179
3470.00,0.0179
3469.00,0.0179
3468.00,0.0179
3467.00,0.0179
3466.00,0.0179
3465.00,0.0180
3464.00,0.0180
3463.00,0.0180
3462.00,0.0180
3461.00,0.0180
3460.00,0.0180
3459.00,0.0180
3458.00,0.0180
3457.00,0.0180
3456.00,0.0180
3455.00,0.0179
3454.00,0.0179
3453.00,0.0179
3452.00,0.0180
3451.00,0.0180
3450.00,0.0181
3449.00,0.0181
3448.00,0.0181
3447.00,0.0181
3446.00,0.0181
3445.00,0.0182
3444.00,0.0182
3443.00,0.0182
3442.00,0.0182
3441.00,0.0182
3440.00,0.0181
3439.00,0.0181
3438.00,0.0181
3437.00,0.0181
3436.00,0.0181
3435.00,0.0181
3434.00,0.0181
3433.00,0.0181
3432.00,0.0181
3431.00,0.0182
3430.00,0.0182
3429.00,0.0182
3428.00,0.0181
3427.00,0.0181
3426.00,0.0181
3425.00,0.0182
3424.00,0.0182
3423.00,0.0182
3422.00,0.0182
3421.00,0.0182
3420.00,0.0182
3419.00,0.0182
3418.00,0.0181
3417.00,0.0181
3416.00,0.0181
3415.00,0.0181
3414.00,0.0181
3413.00,0.0180
3412.00,0.0180
3411.00,0.0181
3410.00,0.0181
3409.00,0.0181
3408.00,0.0181
3407.00,0.0181
3406.00,0.0181
3405.00,0.0181
3404.00,0.0182
3403.00,0.0182
3402.00,0.0182
3401.00,0.0182
3400.00,0.0182
3399.00,0.0182
3398.00,0.0182
3397.00,0.0182
3396.00,0.0182
3395.00,0.0182
3394.00,0.0183
3393.00,0.0182
3392.00,0.0182
3391.00,0.0182
3390.00,0.0182
3389.00,0.0182
3388.00,0.0182
3387.00,0.0182
3386.00,0.0183
3385.00,0.0183
3384.00,0.0183
3383.00,0.0183
3382.00,0.0183
3381.00,0.0182
3380.00,0.0182
3379.00,0.0183
3378.00,0.0183
3377.00,0.0184
3376.00,0.0184
3375.00,0.0184
3374.00,0.0184
3373.00,0.0183
3372.00,0.0183
3371.00,0.0183
3370.00,0.0182
3369.00,0.0182
3368.00,0.0182
3367.00,0.0182
3366.00,0.0183
3365.00,0.0184
3364.00,0.0184
3363.00,0.0184
3362.00,0.0184
3361.00,0.0184
3360.00,0.0184
3359.00,0.0184
3358.00,0.0184
3357.00,0.0184
3356.00,0.0184
3355.00,0.0184
3354.00,0.0184
3353.00,0.0184
3352.00,0.0185
3351.00,0.0185
3350.00,0.0186
3349.00,0.0185
3348.00,0.0185
3347.00,0.0184
3346.00,0.0184
3345.00,0.0183
3344.00,0.0183
3343.00,0.0183
3342.00,0.0184
3341.00,0.0184
3340.00,0.0185
3339.00,0.0185
3338.00,0.0185
3337.00,0.0185
3336.00,0.0185
3335.00,0.0185
3334.00,0.0185
3333.00,0.0185
3332.00,0.0185
3331.00,0.0184
3330.00,0.0184
3329.00,0.0184
3328.00,0.0185
3327.00,0.0185
3326.00,0.0185
3325.00,0.0185
3324.00,0.0185
3323.00,0.0185
3322.00,0.0185
3321.00,0.0185
3320.00,0.0185
3319.00,0.0185
3318.00,0.0185
3317.00,0.0185
3316.00,0.0185
3315.00,0.0185
3314.00,0.0185
3313.00,0.0185
3312.00,0.0185
3311.00,0.0185
3310.00,0.0185
3309.00,0.0185
3308.00,0.0185
3307.00,0.0186
3306.00,0.0185
3305.00,0.0185
3304.00,0.0185
3303.00,0.0185
3302.00,0.0186
3301.00,0.0186
3300.00,0.0186
3299.00,0.0186
3298.00,0.0186
3297.00,0.0186
3296.00,0.0186
3295.00,0.0186
3294.00,0.0186
3293.00,0.0187
3292.00,0.0187
3291.00,0.0187
3290.00,0.0187
3289.00,0.0187
3288.00,0.0187
3287.00,0.0187
3286.00,0.0186
3285.00,0.0186
3284.00,0.0186
3283.00,0.0186
3282.00,0.0186
3281.00,0.0186
3280.00,0.0186
3279.00,0.0187
3278.00,0.0187
3277.00,0.0188
3276.00,0.0188
3275.00,0.0188
3274.00,0.0188
3273.00,0.0188
3272.00,0.0188
3271.00,0.0188
3270.00,0.0188
3269.00,0.0187
3268.00,0.0187
3267.00,0.0187
3266.00,0.0187
3265.00,0.0187
3264.00,0.0187
3263.00,0.0187
3262.00,0.0187
3261.00,0.0187
3260.00,0.0187
3259.00,0.0187
3258.00,0.0188
3257.00,0.0188
3256.00,0.0188
3255.00,0.0188
3254.00,0.0188
3253.00,0.0188
3252.00,0.0187
3251.00,0.0187
3250.00,0.0187
3249.00,0.0187
3248.00,0.0188
3247.00,0.0188
3246.00,0.0188
3245.00,0.0189
3244.00,0.0189
3243.00,0.0188
3242.00,0.0188
3241.00,0.0188
3240.00,0.0188
3239.00,0.0188
3238.00,0.0189
3237.00,0.0189
3236.00,0.0189
3235.00,0.0189
3234.00,0.0189
3233.00,0.0188
3232.00,0.0188
3231.00,0.0188
3230.00,0.0189
3229.00,0.0189
3228.00,0.0189
3227.00,0.0189
3226.00,0.0189
3225.00,0.0189
3224.00,0.0189
3223.00,0.0189
3222.00,0.0188
3221.00,0.0188
3220.00,0.0188
3219.00,0.0188
3218.00,0.0188
3217.00,0.0188
3216.00,0.0188
3215.00,0.0188
3214.00,0.0188
3213.00,0.0188
3212.00,0.0188
3211.00,0.0188
3210.00,0.0189
3209.00,0.0189
3208.00,0.0189
3207.00,0.0189
3206.00,0.0189
3205.00,0.0189
3204.00,0.0189
3203.00,0.0189
3202.00,0.0189
3201.00,0.0188
3200.00,0.0188
3199.00,0.0189
3198.00,0.0189
3197.00,0.0188
3196.00,0.0188
3195.00,0.0188
3194.00,0.0188
3193.00,0.0188
3192.00,0.0188
3191.00,0.0188
3190.00,0.0189
3189.00,0.0189
3188.00,0.0189
3187.00,0.0189
3186.00,0.0189
3185.00,0.0189
3184.00,0.0189
3183.00,0.0188
3182.00,0.0188
3181.00,0.0188
3180.00,0.0188
3179.00,0.0188
3178.00,0.0188
3177.00,0.0188
3176.00,0.0188
3175.00,0.0188
3174.00,0.0188
3173.00,0.0188
3172.00,0.0188
3171.00,0.0188
3170.00,0.0188
3169.00,0.0188
3168.00,0.0188
3167.00,0.0188
3166.00,0.0188
3165.00,0.0188
3164.00,0.0188
3163.00,0.0188
3162.00,0.0189
3161.00,0.0189
3160.00,0.0189
3159.00,0.0189
3158.00,0.0188
3157.00,0.0188
3156.00,0.0188
3155.00,0.0188
3154.00,0.0188
3153.00,0.0188
3152.00,0.0187
3151.00,0.0188
3150.00,0.0188
3149.00,0.0188
3148.00,0.0188
3147.00,0.0188
3146.00,0.0189
3145.00,0.0189
3144.00,0.0189
3143.00,0.0189
3142.00,0.0189
3141.00,0.0189
3140.00,0.0189
3139.00,0.0189
3138.00,0.0189
3137.00,0.0190
3136.00,0.0190
3135.00,0.0189
3134.00,0.0188
3133.00,0.0188
3132.00,0.0188
3131.00,0.0188
3130.00,0.0188
3129.00,0.0188
3128.00,0.0188
3127.00,0.0188
3126.00,0.0188
3125.00,0.0188
3124.00,0.0188
3123.00,0.0188
3122.00,0.0188
3121.00,0.0188
3120.00,0.0189
3119.00,0.0189
3118.00,0.0189
3117.00,0.0189
3116.00,0.0188
3115.00,0.0188
3114.00,0.0188
3113.00,0.0188
3112.00,0.0188
3111.00,0.0188
3110.00,0.0188
3109.00,0.0188
3108.00,0.0188
3107.00,0.0188
3106.00,0.0188
3105.00,0.0188
3104.00,0.0188
3103.00,0.0188
3102.00,0.0188
3101.00,0.0188
3100.00,0.0188
3099.00,0.0188
3098.00,0.0188
3097.00,0.0187
3096.00,0.0187
3095.00,0.0187
3094.00,0.0187
3093.00,0.0187
3092.00,0.0188
3091.00,0.0188
3090.00,0.0188
3089.00,0.0188
3088.00,0.0188
3087.00,0.0188
3086.00,0.0188
3085.00,0.0188
3084.00,0.0188
3083.00,0.0188
3082.00,0.0188
3081.00,0.0188
3080.00,0.0188
3079.00,0.0188
3078.00,0.0188
3077.00,0.0188
3076.00,0.0188
3075.00,0.0187
3074.00,0.0187
3073.00,0.0187
3072.00,0.0187
3071.00,0.0187
3070.00,0.0187
3069.00,0.0187
3068.00,0.0187
3067.00,0.0187
3066.00,0.0187
3065.00,0.0187
3064.00,0.0188
3063.00,0.0188
3062.00,0.0188
3061.00,0.0188
3060.00,0.0188
3059.00,0.0188
3058.00,0.0188
3057.00,0.0188
3056.00,0.0188
3055.00,0.0187
3054.00,0.0187
3053.00,0.0187
3052.00,0.0188
3051.00,0.0188
3050.00,0.0188
3049.00,0.0188
3048.00,0.0188
3047.00,0.0188
3046.00,0.0188
3045.00,0.0188
3044.00,0.0188
3043.00,0.0188
3042.00,0.0188
3041.00,0.0187
3040.00,0.0187
3039.00,0.0187
3038.00,0.0187
3037.00,0.0187
3036.00,0.0187
3035.00,0.0187
3034.00,0.0187
3033.00,0.0187
3032.00,0.0187
3031.00,0.0187
3030.00,0.0187
3029.00,0.0187
3028.00,0.0187
3027.00,0.0187
3026.00,0.0187
3025.00,0.0187
3024.00,0.0188
3023.00,0.0188
3022.00,0.0187
3021.00,0.0187
3020.00,0.0186
3019.00,0.0187
3018.00,0.0187
3017.00,0.0187
3016.00,0.0187
3015.00,0.0187
3014.00,0.0188
3013.00,0.0188
3012.00,0.0189
3011.00,0.0188
3010.00,0.0188
3009.00,0.0188
3008.00,0.0188
3007.00,0.0188
3006.00,0.0188
3005.00,0.0188
3004.00,0.0189
3003.00,0.0189
3002.00,0.0189
3001.00,0.0190
3000.00,0.0190
2999.00,0.0190
2998.00,0.0190
2997.00,0.0190
2996.00,0.0190
2995.00,0.0190
2994.00,0.0191
2993.00,0.0191
2992.00,0.0191
2991.00,0.0191
2990.00,0.0191
2989.00,0.0190
2988.00,0.0190
2987.00,0.0191
2986.00,0.0191
2985.00,0.0192
2984.00,0.0193
2983.00,0.0193
2982.00,0.0193
2981.00,0.0193
2980.00,0.0192
2979.00,0.0192
2978.00,0.0191
2977.00,0.0191
2976.00,0.0190
2975.00,0.0190
2974.00,0.0190
2973.00,0.0190
2972.00,0.0189
2971.00,0.0189
2970.00,0.0188
2969.00,0.0188
2968.00,0.0187
2967.00,0.0186
2966.00,0.0186
2965.00,0.0186
2964.00,0.0185
2963.00,0.0184
2962.00,0.0183
2961.00,0.0183
2960.00,0.0182
2959.00,0.0182
2958.00,0.0182
2957.00,0.0182
2956.00,0.0181
2955.00,0.0181
2954.00,0.0181
2953.00,0.0181
2952.00,0.0181
2951.00,0.0181
2950.00,0.0181
2949.00,0.0181
2948.00,0.0180
2947.00,0.0180
2946.00,0.0180
2945.00,0.0180
2944.00,0.0180
2943.00,0.0179
2942.00,0.0179
2941.00,0.0178
2940.00,0.0177
2939.00,0.0177
2938.00,0.0176
2937.00,0.0175
2936.00,0.0174
2935.00,0.0174
2934.00,0.0173
2933.00,0.0172
2932.00,0.0171
2931.00,0.0170
2930.00,0.0169
2929.00,0.0167
2928.00,0.0166
2927.00,0.0166
2926.00,0.0165
2925.00,0.0164
2924.00,0.0164
2923.00,0.0164
2922.00,0.0164
2921.00,0.0164
2920.00,0.0164
2919.00,0.0164
2918.00,0.0164
2917.00,0.0164
2916.00,0.0165
2915.00,0.0166
2914.00,0.0168
2913.00,0.0170
2912.00,0.0172
2911.00,0.0173
2910.00,0.0174
2909.00,0.0175
2908.00,0.0176
2907.00,0.0177
2906.00,0.0178
2905.00,0.0179
2904.00,0.0179
2903.00,0.0180
2902.00,0.0180
2901.00,0.0180
2900.00,0.0180
2899.00,0.0181
2898.00,0.0181
2897.00,0.0181
2896.00,0.0181
2895.00,0.0181
2894.00,0.0181
2893.00,0.0182
2892.00,0.0182
2891.00,0.0182
2890.00,0.0182
2889.00,0.0183
2888.00,0.0183
2887.00,0.0183
2886.00,0.0184
2885.00,0.0184
2884.00,0.0184
2883.00,0.0184
2882.00,0.0183
2881.00,0.0183
2880.00,0.0183
2879.00,0.0183
2878.00,0.0183
2877.00,0.0183
2876.00,0.0183
2875.00,0.0182
2874.00,0.0181
2873.00,0.0181
2872.00,0.0181
2871.00,0.0181
2870.00,0.0181
2869.00,0.0180
2868.00,0.0180
2867.00,0.0179
2866.00,0.0179
2865.00,0.0178
2864.00,0.0178
2863.00,0.0178
2862.00,0.0178
2861.00,0.0178
2860.00,0.0177
2859.00,0.0176
2858.00,0.0175
2857.00,0.0174
2856.00,0.0174
2855.00,0.0173
2854.00,0.0173
2853.00,0.0173
2852.00,0.0173
2851.00,0.0173
2850.00,0.0174
2849.00,0.0174
2848.00,0.0175
2847.00,0.0176
2846.00,0.0177
2845.00,0.0178
2844.00,0.0179
2843.00,0.0180
2842.00,0.0181
2841.00,0.0182
2840.00,0.0182
2839.00,0.0182
2838.00,0.0183
2837.00,0.0183
2836.00,0.0183
2835.00,0.0183
2834.00,0.0183
2833.00,0.0183
2832.00,0.0184
2831.00,0.0184
2830.00,0.0184
2829.00,0.0184
2828.00,0.0184
2827.00,0.0184
2826.00,0.0184
2825.00,0.0184
2824.00,0.0184
2823.00,0.0184
2822.00,0.0184
2821.00,0.0184
2820.00,0.0184
2819.00,0.0184
2818.00,0.0185
2817.00,0.0185
2816.00,0.0185
2815.00,0.0185
2814.00,0.0185
2813.00,0.0185
2812.00,0.0186
2811.00,0.0185
2810.00,0.0185
2809.00,0.0185
2808.00,0.0185
2807.00,0.0184
2806.00,0.0184
2805.00,0.0184
2804.00,0.0185
2803.00,0.0185
2802.00,0.0185
2801.00,0.0185
2800.00,0.0185
2799.00,0.0185
2798.00,0.0185
2797.00,0.0185
2796.00,0.0185
2795.00,0.0185
2794.00,0.0185
2793.00,0.0185
2792.00,0.0185
2791.00,0.0185
2790.00,0.0185
2789.00,0.0185
2788.00,0.0185
2787.00,0.0185
2786.00,0.0185
2785.00,0.0185
2784.00,0.0185
2783.00,0.0184
2782.00,0.0184
2781.00,0.0185
2780.00,0.0185
2779.00,0.0185
2778.00,0.0185
2777.00,0.0185
2776.00,0.0185
2775.00,0.0185
2774.00,0.0184
2773.00,0.0184
2772.00,0.0185
2771.00,0.0185
2770.00,0.0185
2769.00,0.0185
2768.00,0.0185
2767.00,0.0185
2766.00,0.0185
2765.00,0.0184
2764.00,0.0184
2763.00,0.0185
2762.00,0.0185
2761.00,0.0185
2760.00,0.0185
2759.00,0.0185
2758.00,0.0185
2757.00,0.0185
2756.00,0.0185
2755.00,0.0184
2754.00,0.0184
2753.00,0.0184
2752.00,0.0184
2751.00,0.0185
2750.00,0.0185
2749.00,0.0185
2748.00,0.0185
2747.00,0.0185
2746.00,0.0185
2745.00,0.0185
2744.00,0.0185
2743.00,0.0185
2742.00,0.0185
2741.00,0.0185
2740.00,0.0185
2739.00,0.0185
2738.00,0.0185
2737.00,0.0185
2736.00,0.0184
2735.00,0.0184
2734.00,0.0184
2733.00,0.0184
2732.00,0.0184
2731.00,0.0184
2730.00,0.0184
2729.00,0.0184
2728.00,0.0184
2727.00,0.0184
2726.00,0.0184
2725.00,0.0184
2724.00,0.0185
2723.00,0.0185
2722.00,0.0185
2721.00,0.0185
2720.00,0.0185
2719.00,0.0185
2718.00,0.0185
2717.00,0.0185
2716.00,0.0185
2715.00,0.0185
2714.00,0.0185
2713.00,0.0185
2712.00,0.0185
2711.00,0.0185
2710.00,0.0185
2709.00,0.0185
2708.00,0.0184
2707.00,0.0184
2706.00,0.0185
2705.00,0.0184
2704.00,0.0185
2703.00,0.0185
2702.00,0.0185
2701.00,0.0185
2700.00,0.0184
2699.00,0.0185
2698.00,0.0185
2697.00,0.0185
2696.00,0.0185
2695.00,0.0185
2694.00,0.0185
2693.00,0.0185
2692.00,0.0185
2691.00,0.0185
2690.00,0.0185
2689.00,0.0185
2688.00,0.0185
2687.00,0.0185
2686.00,0.0185
2685.00,0.0185
2684.00,0.0185
2683.00,0.0185
2682.00,0.0185
2681.00,0.0185
2680.00,0.0185
2679.00,0.0185
2678.00,0.0185
2677.00,0.0185
2676.00,0.0185
2675.00,0.0185
2674.00,0.0185
2673.00,0.0185
2672.00,0.0186
2671.00,0.0186
2670.00,0.0186
2669.00,0.0185
2668.00,0.0185
2667.00,0.0186
2666.00,0.0186
2665.00,0.0187
2664.00,0.0187
2663.00,0.0187
2662.00,0.0187
2661.00,0.0187
2660.00,0.0187
2659.00,0.0187
2658.00,0.0187
2657.00,0.0187
2656.00,0.0187
2655.00,0.0188
2654.00,0.0188
2653.00,0.0189
2652.00,0.0189
2651.00,0.0188
2650.00,0.0188
2649.00,0.0188
2648.00,0.0188
2647.00,0.0188
2646.00,0.0188
2645.00,0.0188
2644.00,0.0188
2643.00,0.0188
2642.00,0.0188
2641.00,0.0188
2640.00,0.0188
2639.00,0.0188
2638.00,0.0188
2637.00,0.0187
2636.00,0.0187
2635.00,0.0187
2634.00,0.0188
2633.00,0.0188
2632.00,0.0188
2631.00,0.0187
2630.00,0.0187
2629.00,0.0188
2628.00,0.0188
2627.00,0.0188
2626.00,0.0188
2625.00,0.0188
2624.00,0.0188
2623.00,0.0188
2622.00,0.0188
2621.00,0.0188
2620.00,0.0188
2619.00,0.0188
2618.00,0.0188
2617.00,0.0188
2616.00,0.0188
2615.00,0.0188
2614.00,0.0188
2613.00,0.0188
2612.00,0.0189
2611.00,0.0189
2610.00,0.0189
2609.00,0.0189
2608.00,0.0189
2607.00,0.0189
2606.00,0.0189
2605.00,0.0190
2604.00,0.0190
2603.00,0.0190
2602.00,0.0189
2601.00,0.0189
2600.00,0.0189
2599.00,0.0189
2598.00,0.0189
2597.00,0.0188
2596.00,0.0188
2595.00,0.0188
2594.00,0.0187
2593.00,0.0188
2592.00,0.0188
2591.00,0.0189
2590.00,0.0189
2589.00,0.0189
2588.00,0.0189
2587.00,0.0188
2586.00,0.0188
2585.00,0.0189
2584.00,0.0189
2583.00,0.0189
2582.00,0.0190
2581.00,0.0190
2580.00,0.0190
2579.00,0.0190
2578.00,0.0189
2577.00,0.0189
2576.00,0.0189
2575.00,0.0189
2574.00,0.0189
2573.00,0.0190
2572.00,0.0190
2571.00,0.0190
2570.00,0.0190
2569.00,0.0190
2568.00,0.0189
2567.00,0.0189
2566.00,0.0190
2565.00,0.0190
2564.00,0.0189
2563.00,0.0189
2562.00,0.0189
2561.00,0.0188
2560.00,0.0188
2559.00,0.0188
2558.00,0.0188
2557.00,0.0188
2556.00,0.0189
2555.00,0.0189
2554.00,0.0190
2553.00,0.0190
2552.00,0.0191
2551.00,0.0191
2550.00,0.0191
2549.00,0.0190
2548.00,0.0189
2547.00,0.0189
2546.00,0.0189
2545.00,0.0189
2544.00,0.0189
2543.00,0.0188
2542.00,0.0188
2541.00,0.0188
2540.00,0.0189
2539.00,0.0190
2538.00,0.0190
2537.00,0.0190
2536.00,0.0189
2535.00,0.0189
2534.00,0.0189
2533.00,0.0189
2532.00,0.0189
2531.00,0.0189
2530.00,0.0189
2529.00,0.0189
2528.00,0.0189
2527.00,0.0189
2526.00,0.0190
2525.00,0.0190
2524.00,0.0190
2523.00,0.0190
2522.00,0.0190
2521.00,0.0189
2520.00,0.0189
2519.00,0.0189
2518.00,0.0189
2517.00,0.0190
2516.00,0.0190
2515.00,0.0190
2514.00,0.0190
2513.00,0.0190
2512.00,0.0190
2511.00,0.0190
2510.00,0.0190
2509.00,0.0189
2508.00,0.0189
2507.00,0.0189
2506.00,0.0189
2505.00,0.0189
2504.00,0.0190
2503.00,0.0190
2502.00,0.0190
2501.00,0.0190
2500.00,0.0190
2499.00,0.0190
2498.00,0.0190
2497.00,0.0191
2496.00,0.0191
2495.00,0.0191
2494.00,0.0191
2493.00,0.0191
2492.00,0.0191
2491.00,0.0191
2490.00,0.0191
2489.00,0.0190
2488.00,0.0190
2487.00,0.0190
2486.00,0.0190
2485.00,0.0190
2484.00,0.0190
2483.00,0.0190
2482.00,0.0190
2481.00,0.0190
2480.00,0.0190
2479.00,0.0190
2478.00,0.0191
2477.00,0.0191
2476.00,0.0191
2475.00,0.0190
2474.00,0.0190
2473.00,0.0191
2472.00,0.0191
2471.00,0.0191
2470.00,0.0191
2469.00,0.0191
2468.00,0.0191
2467.00,0.0191
2466.00,0.0190
2465.00,0.0190
2464.00,0.0190
2463.00,0.0191
2462.00,0.0191
2461.00,0.0191
2460.00,0.0190
2459.00,0.0191
2458.00,0.0191
2457.00,0.0191
2456.00,0.0191
2455.00,0.0192
2454.00,0.0192
2453.00,0.0193
2452.00,0.0193
2451.00,0.0193
2450.00,0.0193
2449.00,0.0192
2448.00,0.0192
2447.00,0.0192
2446.00,0.0192
2445.00,0.0192
2444.00,0.0191
2443.00,0.0191
2442.00,0.0191
2441.00,0.0191
2440.00,0.0191
2439.00,0.0191
2438.00,0.0191
2437.00,0.0191
2436.00,0.0190
2435.00,0.0190
2434.00,0.0191
2433.00,0.0191
2432.00,0.0191
2431.00,0.0190
2430.00,0.0190
2429.00,0.0190
2428.00,0.0190
2427.00,0.0191
2426.00,0.0191
2425.00,0.0192
2424.00,0.0192
2423.00,0.0191
2422.00,0.0190
2421.00,0.0190
2420.00,0.0191
2419.00,0.0192
2418.00,0.0192
2417.00,0.0191
2416.00,0.0191
2415.00,0.0191
2414.00,0.0192
2413.00,0.0192
2412.00,0.0192
2411.00,0.0191
2410.00,0.0191
2409.00,0.0191
2408.00,0.0191
2407.00,0.0190
2406.00,0.0190
2405.00,0.0190
2404.00,0.0191
2403.00,0.0191
2402.00,0.0191
2401.00,0.0191
2400.00,0.0191
2399.00,0.0191
2398.00,0.0190
2397.00,0.0190
2396.00,0.0191
2395.00,0.0191
2394.00,0.0191
2393.00,0.0191
2392.00,0.0191
2391.00,0.0191
2390.00,0.0191
2389.00,0.0191
2388.00,0.0191
2387.00,0.0191
2386.00,0.0191
2385.00,0.0191
2384.00,0.0192
2383.00,0.0192
2382.00,0.0193
2381.00,0.0193
2380.00,0.0193
2379.00,0.0192
2378.00,0.0192
2377.00,0.0191
2376.00,0.0191
2375.00,0.0190
2374.00,0.0189
2373.00,0.0188
2372.00,0.0188
2371.00,0.0189
2370.00,0.0191
2369.00,0.0190
2368.00,0.0189
2367.00,0.0188
2366.00,0.0189
2365.00,0.0191
2364.00,0.0192
2363.00,0.0191
2362.00,0.0192
2361.00,0.0194
2360.00,0.0197
2359.00,0.0198
2358.00,0.0197
2357.00,0.0196
2356.00,0.0195
2355.00,0.0194
2354.00,0.0193
2353.00,0.0192
2352.00,0.0192
2351.00,0.0192
2350.00,0.0192
2349.00,0.0191
2348.00,0.0191
2347.00,0.0192
2346.00,0.0195
2345.00,0.0196
2344.00,0.0194
2343.00,0.0192
2342.00,0.0191
2341.00,0.0191
2340.00,0.0192
2339.00,0.0193
2338.00,0.0193
2337.00,0.0193
2336.00,0.0193
2335.00,0.0193
2334.00,0.0193
2333.00,0.0193
2332.00,0.0194
2331.00,0.0194
2330.00,0.0194
2329.00,0.0195
2328.00,0.0196
2327.00,0.0198
2326.00,0.0199
2325.00,0.0200
2324.00,0.0198
2323.00,0.0197
2322.00,0.0197
2321.00,0.0197
2320.00,0.0196
2319.00,0.0195
2318.00,0.0195
2317.00,0.0195
2316.00,0.0196
2315.00,0.0196
2314.00,0.0195
2313.00,0.0195
2312.00,0.0195
2311.00,0.0195
2310.00,0.0195
2309.00,0.0195
2308.00,0.0196
2307.00,0.0196
2306.00,0.0197
2305.00,0.0197
2304.00,0.0196
2303.00,0.0195
2302.00,0.0195
2301.00,0.0195
2300.00,0.0195
2299.00,0.0195
2298.00,0.0195
2297.00,0.0195
2296.00,0.0196
2295.00,0.0196
2294.00,0.0196
2293.00,0.0197
2292.00,0.0197
2291.00,0.0197
2290.00,0.0197
2289.00,0.0197
2288.00,0.0198
2287.00,0.0198
2286.00,0.0198
2285.00,0.0197
2284.00,0.0196
2283.00,0.0196
2282.00,0.0196
2281.00,0.0196
2280.00,0.0196
2279.00,0.0196
2278.00,0.0196
2277.00,0.0195
2276.00,0.0194
2275.00,0.0194
2274.00,0.0194
2273.00,0.0194
2272.00,0.0195
2271.00,0.0195
2270.00,0.0195
2269.00,0.0195
2268.00,0.0195
2267.00,0.0195
2266.00,0.0195
2265.00,0.0195
2264.00,0.0195
2263.00,0.0196
2262.00,0.0196
2261.00,0.0196
2260.00,0.0196
2259.00,0.0196
2258.00,0.0196
2257.00,0.0196
2256.00,0.0195
2255.00,0.0194
2254.00,0.0194
2253.00,0.0194
2252.00,0.0194
2251.00,0.0194
2250.00,0.0193
2249.00,0.0194
2248.00,0.0194
2247.00,0.0194
2246.00,0.0194
2245.00,0.0194
2244.00,0.0195
2243.00,0.0195
2242.00,0.0195
2241.00,0.0195
2240.00,0.0195
2239.00,0.0195
2238.00,0.0195
2237.00,0.0195
2236.00,0.0194
2235.00,0.0193
2234.00,0.0194
2233.00,0.0195
2232.00,0.0195
2231.00,0.0195
2230.00,0.0195
2229.00,0.0195
2228.00,0.0194
2227.00,0.0193
2226.00,0.0192
2225.00,0.0193
2224.00,0.0194
2223.00,0.0195
2222.00,0.0195
2221.00,0.0195
2220.00,0.0196
2219.00,0.0196
2218.00,0.0196
2217.00,0.0194
2216.00,0.0193
2215.00,0.0193
2214.00,0.0194
2213.00,0.0195
2212.00,0.0195
2211.00,0.0195
2210.00,0.0195
2209.00,0.0195
2208.00,0.0195
2207.00,0.0194
2206.00,0.0194
2205.00,0.0194
2204.00,0.0195
2203.00,0.0195
2202.00,0.0196
2201.00,0.0197
2200.00,0.0198
2199.00,0.0200
2198.00,0.0200
2197.00,0.0199
2196.00,0.0197
2195.00,0.0195
2194.00,0.0194
2193.00,0.0193
2192.00,0.0192
2191.00,0.0193
2190.00,0.0194
2189.00,0.0196
2188.00,0.0197
2187.00,0.0199
2186.00,0.0200
2185.00,0.0200
2184.00,0.0198
2183.00,0.0195
2182.00,0.0194
2181.00,0.0196
2180.00,0.0198
2179.00,0.0199
2178.00,0.0197
2177.00,0.0195
2176.00,0.0193
2175.00,0.0195
2174.00,0.0196
2173.00,0.0197
2172.00,0.0197
2171.00,0.0197
2170.00,0.0199
2169.00,0.0201
2168.00,0.0202
2167.00,0.0201
2166.00,0.0201
2165.00,0.0202
2164.00,0.0202
2163.00,0.0201
2162.00,0.0200
2161.00,0.0198
2160.00,0.0195
2159.00,0.0192
2158.00,0.0189
2157.00,0.0188
2156.00,0.0189
2155.00,0.0188
2154.00,0.0187
2153.00,0.0187
2152.00,0.0187
2151.00,0.0188
2150.00,0.0189
2149.00,0.0189
2148.00,0.0189
2147.00,0.0189
2146.00,0.0190
2145.00,0.0189
2144.00,0.0189
2143.00,0.0189
2142.00,0.0191
2141.00,0.0192
2140.00,0.0193
2139.00,0.0193
2138.00,0.0192
2137.00,0.0191
2136.00,0.0190
2135.00,0.0189
2134.00,0.0187
2133.00,0.0187
2132.00,0.0188
2131.00,0.0190
2130.00,0.0190
2129.00,0.0190
2128.00,0.0190
2127.00,0.0191
2126.00,0.0193
2125.00,0.0194
2124.00,0.0193
2123.00,0.0193
2122.00,0.0192
2121.00,0.0193
2120.00,0.0193
2119.00,0.0194
2118.00,0.0194
2117.00,0.0195
2116.00,0.0195
2115.00,0.0195
2114.00,0.0195
2113.00,0.0195
2112.00,0.0196
2111.00,0.0197
2110.00,0.0197
2109.00,0.0197
2108.00,0.0197
2107.00,0.0198
2106.00,0.0198
2105.00,0.0197
2104.00,0.0196
2103.00,0.0195
2102.00,0.0195
2101.00,0.0195
2100.00,0.0194
2099.00,0.0194
2098.00,0.0194
2097.00,0.0194
2096.00,0.0194
2095.00,0.0193
2094.00,0.0194
2093.00,0.0195
2092.00,0.0196
2091.00,0.0197
2090.00,0.0196
2089.00,0.0196
2088.00,0.0196
2087.00,0.0196
2086.00,0.0196
2085.00,0.0196
2084.00,0.0195
2083.00,0.0196
2082.00,0.0196
2081.00,0.0195
2080.00,0.0194
2079.00,0.0194
2078.00,0.0195
2077.00,0.0196
2076.00,0.0196
2075.00,0.0195
2074.00,0.0194
2073.00,0.0194
2072.00,0.0195
2071.00,0.0195
2070.00,0.0195
2069.00,0.0195
2068.00,0.0195
2067.00,0.0194
2066.00,0.0194
2065.00,0.0194
2064.00,0.0194
2063.00,0.0195
2062.00,0.0195
2061.00,0.0194
2060.00,0.0194
2059.00,0.0194
2058.00,0.0194
2057.00,0.0194
2056.00,0.0194
2055.00,0.0194
2054.00,0.0196
2053.00,0.0199
2052.00,0.0200
2051.00,0.0200
2050.00,0.0199
2049.00,0.0197
2048.00,0.0196
2047.00,0.0195
2046.00,0.0195
2045.00,0.0195
2044.00,0.0197
2043.00,0.0197
2042.00,0.0197
2041.00,0.0197
2040.00,0.0199
2039.00,0.0202
2038.00,0.0203
2037.00,0.0204
2036.00,0.0203
2035.00,0.0202
2034.00,0.0202
2033.00,0.0201
2032.00,0.0199
2031.00,0.0196
2030.00,0.0195
2029.00,0.0196
2028.00,0.0197
2027.00,0.0197
2026.00,0.0196
2025.00,0.0195
2024.00,0.0195
2023.00,0.0195
2022.00,0.0194
2021.00,0.0194
2020.00,0.0195
2019.00,0.0197
2018.00,0.0197
2017.00,0.0195
2016.00,0.0194
2015.00,0.0194
2014.00,0.0196
2013.00,0.0198
2012.00,0.0199
2011.00,0.0199
2010.00,0.0198
2009.00,0.0197
2008.00,0.0195
2007.00,0.0194
2006.00,0.0193
2005.00,0.0194
2004.00,0.0194
2003.00,0.0194
2002.00,0.0194
2001.00,0.0195
2000.00,0.0196
1999.00,0.0197
1998.00,0.0198
1997.00,0.0198
1996.00,0.0198
1995.00,0.0199
1994.00,0.0199
1993.00,0.0199
1992.00,0.0199
1991.00,0.0201
1990.00,0.0202
1989.00,0.0201
1988.00,0.0199
1987.00,0.0197
1986.00,0.0198
1985.00,0.0201
1984.00,0.0204
1983.00,0.0205
1982.00,0.0205
1981.00,0.0204
1980.00,0.0204
1979.00,0.0203
1978.00,0.0201
1977.00,0.0198
1976.00,0.0197
1975.00,0.0197
1974.00,0.0198
1973.00,0.0198
1972.00,0.0199
1971.00,0.0200
1970.00,0.0200
1969.00,0.0199
1968.00,0.0198
1967.00,0.0197
1966.00,0.0198
1965.00,0.0199
1964.00,0.0200
1963.00,0.0199
1962.00,0.0199
1961.00,0.0199
1960.00,0.0198
1959.00,0.0196
1958.00,0.0194
1957.00,0.0193
1956.00,0.0194
1955.00,0.0196
1954.00,0.0197
1953.00,0.0198
1952.00,0.0198
1951.00,0.0198
1950.00,0.0197
1949.00,0.0196
1948.00,0.0196
1947.00,0.0197
1946.00,0.0198
1945.00,0.0199
1944.00,0.0198
1943.00,0.0198
1942.00,0.0199
1941.00,0.0200
1940.00,0.0199
1939.00,0.0198
1938.00,0.0196
1937.00,0.0196
1936.00,0.0198
1935.00,0.0199
1934.00,0.0199
1933.00,0.0198
1932.00,0.0198
1931.00,0.0198
1930.00,0.0198
1929.00,0.0197
1928.00,0.0196
1927.00,0.0196
1926.00,0.0196
1925.00,0.0197
1924.00,0.0197
1923.00,0.0197
1922.00,0.0197
1921.00,0.0198
1920.00,0.0199
1919.00,0.0199
1918.00,0.0199
1917.00,0.0199
1916.00,0.0198
1915.00,0.0197
1914.00,0.0197
1913.00,0.0197
1912.00,0.0197
1911.00,0.0197
1910.00,0.0196
1909.00,0.0196
1908.00,0.0195
1907.00,0.0195
1906.00,0.0195
1905.00,0.0195
1904.00,0.0195
1903.00,0.0196
1902.00,0.0196
1901.00,0.0196
1900.00,0.0196
1899.00,0.0197
1898.00,0.0198
1897.00,0.0198
1896.00,0.0198
1895.00,0.0196
1894.00,0.0196
1893.00,0.0196
1892.00,0.0197
1891.00,0.0196
1890.00,0.0195
1889.00,0.0194
1888.00,0.0195
1887.00,0.0196
1886.00,0.0197
1885.00,0.0197
1884.00,0.0196
1883.00,0.0196
1882.00,0.0196
1881.00,0.0197
1880.00,0.0196
1879.00,0.0196
1878.00,0.0196
1877.00,0.0196
1876.00,0.0196
1875.00,0.0196
1874.00,0.0195
1873.00,0.0195
1872.00,0.0196
1871.00,0.0196
1870.00,0.0197
1869.00,0.0197
1868.00,0.0197
1867.00,0.0197
1866.00,0.0197
1865.00,0.0197
1864.00,0.0197
1863.00,0.0197
1862.00,0.0196
1861.00,0.0195
1860.00,0.0195
1859.00,0.0195
1858.00,0.0196
1857.00,0.0197
1856.00,0.0197
1855.00,0.0196
1854.00,0.0196
1853.00,0.0196
1852.00,0.0196
1851.00,0.0196
1850.00,0.0196
1849.00,0.0196
1848.00,0.0197
1847.00,0.0197
1846.00,0.0197
1845.00,0.0197
1844.00,0.0197
1843.00,0.0196
1842.00,0.0196
1841.00,0.0196
1840.00,0.0195
1839.00,0.0195
1838.00,0.0195
1837.00,0.0195
1836.00,0.0195
1835.00,0.0195
1834.00,0.0196
1833.00,0.0197
1832.00,0.0197
1831.00,0.0196
1830.00,0.0195
1829.00,0.0193
1828.00,0.0193
1827.00,0.0192
1826.00,0.0191
1825.00,0.0192
1824.00,0.0192
1823.00,0.0194
1822.00,0.0194
1821.00,0.0195
1820.00,0.0195
1819.00,0.0194
1818.00,0.0194
1817.00,0.0193
1816.00,0.0192
1815.00,0.0192
1814.00,0.0193
1813.00,0.0193
1812.00,0.0193
1811.00,0.0192
1810.00,0.0193
1809.00,0.0194
1808.00,0.0194
1807.00,0.0193
1806.00,0.0193
1805.00,0.0193
1804.00,0.0193
1803.00,0.0193
1802.00,0.0193
1801.00,0.0193
1800.00,0.0194
1799.00,0.0194
1798.00,0.0195
1797.00,0.0195
1796.00,0.0195
1795.00,0.0195
1794.00,0.0196
1793.00,0.0196
1792.00,0.0195
1791.00,0.0193
1790.00,0.0193
1789.00,0.0194
1788.00,0.0194
1787.00,0.0194
1786.00,0.0194
1785.00,0.0194
1784.00,0.0194
1783.00,0.0193
1782.00,0.0192
1781.00,0.0191
1780.00,0.0192
1779.00,0.0192
1778.00,0.0193
1777.00,0.0193
1776.00,0.0194
1775.00,0.0195
1774.00,0.0195
1773.00,0.0195
1772.00,0.0193
1771.00,0.0193
1770.00,0.0193
1769.00,0.0194
1768.00,0.0194
1767.00,0.0194
1766.00,0.0194
1765.00,0.0193
1764.00,0.0193
1763.00,0.0192
1762.00,0.0192
1761.00,0.0192
1760.00,0.0192
1759.00,0.0192
1758.00,0.0192
1757.00,0.0192
1756.00,0.0192
1755.00,0.0192
1754.00,0.0192
1753.00,0.0193
1752.00,0.0194
1751.00,0.0195
1750.00,0.0194
1749.00,0.0193
1748.00,0.0192
1747.00,0.0191
1746.00,0.0191
1745.00,0.0191
1744.00,0.0190
1743.00,0.0189
1742.00,0.0189
1741.00,0.0191
1740.00,0.0192
1739.00,0.0193
1738.00,0.0193
1737.00,0.0193
1736.00,0.0195
1735.00,0.0199
1734.00,0.0200
1733.00,0.0199
1732.00,0.0197
1731.00,0.0195
1730.00,0.0194
1729.00,0.0194
1728.00,0.0194
1727.00,0.0195
1726.00,0.0195
1725.00,0.0196
1724.00,0.0196
1723.00,0.0196
1722.00,0.0196
1721.00,0.0196
1720.00,0.0195
1719.00,0.0194
1718.00,0.0195
1717.00,0.0198
1716.00,0.0199
1715.00,0.0198
1714.00,0.0197
1713.00,0.0196
1712.00,0.0197
1711.00,0.0197
1710.00,0.0196
1709.00,0.0196
1708.00,0.0195
1707.00,0.0195
1706.00,0.0195
1705.00,0.0195
1704.00,0.0195
1703.00,0.0196
1702.00,0.0197
1701.00,0.0199
1700.00,0.0200
1699.00,0.0200
1698.00,0.0200
1697.00,0.0200
1696.00,0.0198
1695.00,0.0197
1694.00,0.0197
1693.00,0.0198
1692.00,0.0198
1691.00,0.0198
1690.00,0.0198
1689.00,0.0197
1688.00,0.0196
1687.00,0.0195
1686.00,0.0194
1685.00,0.0192
1684.00,0.0191
1683.00,0.0192
1682.00,0.0194
1681.00,0.0195
1680.00,0.0195
1679.00,0.0195
1678.00,0.0196
1677.00,0.0197
1676.00,0.0197
1675.00,0.0197
1674.00,0.0196
1673.00,0.0196
1672.00,0.0196
1671.00,0.0196
1670.00,0.0196
1669.00,0.0195
1668.00,0.0196
1667.00,0.0196
1666.00,0.0196
1665.00,0.0196
1664.00,0.0196
1663.00,0.0196
1662.00,0.0197
1661.00,0.0197
1660.00,0.0197
1659.00,0.0198
1658.00,0.0198
1657.00,0.0197
1656.00,0.0194
1655.00,0.0191
1654.00,0.0191
1653.00,0.0192
1652.00,0.0195
1651.00,0.0197
1650.00,0.0197
1649.00,0.0197
1648.00,0.0198
1647.00,0.0200
1646.00,0.0200
1645.00,0.0200
1644.00,0.0200
1643.00,0.0200
1642.00,0.0200
1641.00,0.0199
1640.00,0.0199
1639.00,0.0198
1638.00,0.0198
1637.00,0.0198
1636.00,0.0198
1635.00,0.0198
1634.00,0.0199
1633.00,0.0200
1632.00,0.0200
1631.00,0.0199
1630.00,0.0199
1629.00,0.0198
1628.00,0.0198
1627.00,0.0198
1626.00,0.0199
1625.00,0.0200
1624.00,0.0202
1623.00,0.0203
1622.00,0.0202
1621.00,0.0202
1620.00,0.0202
1619.00,0.0203
1618.00,0.0204
1617.00,0.0204
1616.00,0.0204
1615.00,0.0204
1614.00,0.0204
1613.00,0.0205
1612.00,0.0205
1611.00,0.0205
1610.00,0.0206
1609.00,0.0206
1608.00,0.0207
1607.00,0.0207
1606.00,0.0207
1605.00,0.0207
1604.00,0.0207
1603.00,0.0208
1602.00,0.0208
1601.00,0.0207
1600.00,0.0208
1599.00,0.0208
1598.00,0.0209
1597.00,0.0208
1596.00,0.0208
1595.00,0.0208
1594.00,0.0209
1593.00,0.0209
1592.00,0.0209
1591.00,0.0209
1590.00,0.0210
1589.00,0.0210
1588.00,0.0210
1587.00,0.0210
1586.00,0.0210
1585.00,0.0210
1584.00,0.0210
1583.00,0.0211
1582.00,0.0211
1581.00,0.0211
1580.00,0.0211
1579.00,0.0211
1578.00,0.0212
1577.00,0.0212
1576.00,0.0213
1575.00,0.0214
1574.00,0.0214
1573.00,0.0213
1572.00,0.0212
1571.00,0.0213
1570.00,0.0213
1569.00,0.0213
1568.00,0.0213
1567.00,0.0214
1566.00,0.0214
1565.00,0.0215
1564.00,0.0215
1563.00,0.0214
1562.00,0.0212
1561.00,0.0209
1560.00,0.0210
1559.00,0.0213
1558.00,0.0214
1557.00,0.0216
1556.00,0.0218
1555.00,0.0219
1554.00,0.0218
1553.00,0.0217
1552.00,0.0216
1551.00,0.0216
1550.00,0.0216
1549.00,0.0216
1548.00,0.0216
1547.00,0.0216
1546.00,0.0216
1545.00,0.0217
1544.00,0.0218
1543.00,0.0218
1542.00,0.0219
1541.00,0.0219
1540.00,0.0214
1539.00,0.0210
1538.00,0.0210
1537.00,0.0211
1536.00,0.0212
1535.00,0.0212
1534.00,0.0212
1533.00,0.0211
1532.00,0.0211
1531.00,0.0212
1530.00,0.0214
1529.00,0.0214
1528.00,0.0215
1527.00,0.0216
1526.00,0.0218
1525.00,0.0219
1524.00,0.0219
1523.00,0.0218
1522.00,0.0218
1521.00,0.0217
1520.00,0.0215
1519.00,0.0214
1518.00,0.0213
1517.00,0.0213
1516.00,0.0213
1515.00,0.0214
1514.00,0.0215
1513.00,0.0216
1512.00,0.0216
1511.00,0.0215
1510.00,0.0214
1509.00,0.0214
1508.00,0.0215
1507.00,0.0214
1506.00,0.0212
1505.00,0.0214
1504.00,0.0214
1503.00,0.0214
1502.00,0.0213
1501.00,0.0213
1500.00,0.0212
1499.00,0.0211
1498.00,0.0210
1497.00,0.0211
1496.00,0.0212
1495.00,0.0212
1494.00,0.0212
1493.00,0.0213
1492.00,0.0214
1491.00,0.0214
1490.00,0.0213
1489.00,0.0210
1488.00,0.0208
1487.00,0.0208
1486.00,0.0208
1485.00,0.0209
1484.00,0.0209
1483.00,0.0209
1482.00,0.0210
1481.00,0.0210
1480.00,0.0210
1479.00,0.0209
1478.00,0.0208
1477.00,0.0209
1476.00,0.0210
1475.00,0.0212
1474.00,0.0214
1473.00,0.0216
1472.00,0.0214
1471.00,0.0211
1470.00,0.0210
1469.00,0.0208
1468.00,0.0208
1467.00,0.0207
1466.00,0.0208
1465.00,0.0208
1464.00,0.0208
1463.00,0.0208
1462.00,0.0208
1461.00,0.0206
1460.00,0.0205
1459.00,0.0206
1458.00,0.0209
1457.00,0.0212
1456.00,0.0212
1455.00,0.0210
1454.00,0.0209
1453.00,0.0209
1452.00,0.0209
1451.00,0.0210
1450.00,0.0210
1449.00,0.0210
1448.00,0.0210
1447.00,0.0210
1446.00,0.0210
1445.00,0.0210
1444.00,0.0210
1443.00,0.0211
1442.00,0.0211
1441.00,0.0211
1440.00,0.0211
1439.00,0.0211
1438.00,0.0211
1437.00,0.0212
1436.00,0.0212
1435.00,0.0212
1434.00,0.0212
1433.00,0.0212
1432.00,0.0211
1431.00,0.0211
1430.00,0.0210
1429.00,0.0210
1428.00,0.0210
1427.00,0.0210
1426.00,0.0210
1425.00,0.0210
1424.00,0.0210
1423.00,0.0211
1422.00,0.0211
1421.00,0.0210
1420.00,0.0210
1419.00,0.0211
1418.00,0.0211
1417.00,0.0211
1416.00,0.0211
1415.00,0.0211
1414.00,0.0211
1413.00,0.0212
1412.00,0.0212
1411.00,0.0212
1410.00,0.0211
1409.00,0.0211
1408.00,0.0211
1407.00,0.0211
1406.00,0.0210
1405.00,0.0210
1404.00,0.0211
1403.00,0.0212
1402.00,0.0212
1401.00,0.0212
1400.00,0.0213
1399.00,0.0214
1398.00,0.0215
1397.00,0.0214
1396.00,0.0214
1395.00,0.0214
1394.00,0.0214
1393.00,0.0215
1392.00,0.0215
1391.00,0.0215
1390.00,0.0215
1389.00,0.0216
1388.00,0.0216
1387.00,0.0216
1386.00,0.0215
1385.00,0.0216
1384.00,0.0216
1383.00,0.0216
1382.00,0.0216
1381.00,0.0216
1380.00,0.0216
1379.00,0.0216
1378.00,0.0216
1377.00,0.0215
1376.00,0.0214
1375.00,0.0214
1374.00,0.0214
1373.00,0.0215
1372.00,0.0215
1371.00,0.0216
1370.00,0.0216
1369.00,0.0216
1368.00,0.0215
1367.00,0.0215
1366.00,0.0214
1365.00,0.0214
1364.00,0.0214
1363.00,0.0213
1362.00,0.0213
1361.00,0.0213
1360.00,0.0213
1359.00,0.0214
1358.00,0.0213
1357.00,0.0213
1356.00,0.0213
1355.00,0.0214
1354.00,0.0213
1353.00,0.0213
1352.00,0.0213
1351.00,0.0213
1350.00,0.0214
1349.00,0.0214
1348.00,0.0214
1347.00,0.0214
1346.00,0.0214
1345.00,0.0214
1344.00,0.0214
1343.00,0.0213
1342.00,0.0213
1341.00,0.0214
1340.00,0.0214
1339.00,0.0214
1338.00,0.0213
1337.00,0.0213
1336.00,0.0213
1335.00,0.0213
1334.00,0.0213
1333.00,0.0213
1332.00,0.0213
1331.00,0.0213
1330.00,0.0214
1329.00,0.0214
1328.00,0.0213
1327.00,0.0213
1326.00,0.0214
1325.00,0.0214
1324.00,0.0214
1323.00,0.0214
1322.00,0.0215
1321.00,0.0216
1320.00,0.0216
1319.00,0.0216
1318.00,0.0215
1317.00,0.0216
1316.00,0.0216
1315.00,0.0217
1314.00,0.0216
1313.00,0.0215
1312.00,0.0215
1311.00,0.0216
1310.00,0.0216
1309.00,0.0216
1308.00,0.0216
1307.00,0.0216
1306.00,0.0216
1305.00,0.0216
1304.00,0.0217
1303.00,0.0217
1302.00,0.0218
1301.00,0.0218
1300.00,0.0218
1299.00,0.0217
1298.00,0.0217
1297.00,0.0218
1296.00,0.0218
1295.00,0.0218
1294.00,0.0218
1293.00,0.0218
1292.00,0.0219
1291.00,0.0219
1290.00,0.0219
1289.00,0.0219
1288.00,0.0218
1287.00,0.0219
1286.00,0.0219
1285.00,0.0218
1284.00,0.0218
1283.00,0.0219
1282.00,0.0220
1281.00,0.0221
1280.00,0.0220
1279.00,0.0220
1278.00,0.0220
1277.00,0.0221
1276.00,0.0221
1275.00,0.0221
1274.00,0.0222
1273.00,0.0222
1272.00,0.0223
1271.00,0.0223
1270.00,0.0222
1269.00,0.0222
1268.00,0.0222
1267.00,0.0223
1266.00,0.0223
1265.00,0.0223
1264.00,0.0223
1263.00,0.0223
1262.00,0.0224
1261.00,0.0224
1260.00,0.0224
1259.00,0.0224
1258.00,0.0224
1257.00,0.0225
1256.00,0.0225
1255.00,0.0225
1254.00,0.0225
1253.00,0.0225
1252.00,0.0226
1251.00,0.0226
1250.00,0.0227
1249.00,0.0228
1248.00,0.0229
1247.00,0.0230
1246.00,0.0230
1245.00,0.0229
1244.00,0.0229
1243.00,0.0230
1242.00,0.0231
1241.00,0.0231
1240.00,0.0231
1239.00,0.0232
1238.00,0.0233
1237.00,0.0234
1236.00,0.0234
1235.00,0.0234
1234.00,0.0234
1233.00,0.0234
1232.00,0.0235
1231.00,0.0236
1230.00,0.0237
1229.00,0.0238
1228.00,0.0239
1227.00,0.0239
1226.00,0.0239
1225.00,0.0239
1224.00,0.0239
1223.00,0.0240
1222.00,0.0241
1221.00,0.0241
1220.00,0.0241
1219.00,0.0242
1218.00,0.0242
1217.00,0.0242
1216.00,0.0242
1215.00,0.0242
1214.00,0.0243
1213.00,0.0245
1212.00,0.0245
1211.00,0.0245
1210.00,0.0245
1209.00,0.0245
1208.00,0.0246
1207.00,0.0246
1206.00,0.0246
1205.00,0.0248
1204.00,0.0249
1203.00,0.0250
1202.00,0.0250
1201.00,0.0249
1200.00,0.0250
1199.00,0.0250
1198.00,0.0251
1197.00,0.0251
1196.00,0.0251
1195.00,0.0251
1194.00,0.0252
1193.00,0.0252
1192.00,0.0252
1191.00,0.0251
1190.00,0.0252
1189.00,0.0253
1188.00,0.0254
1187.00,0.0254
1186.00,0.0254
1185.00,0.0254
1184.00,0.0256
1183.00,0.0256
1182.00,0.0256
1181.00,0.0257
1180.00,0.0258
1179.00,0.0259
1178.00,0.0260
1177.00,0.0260
1176.00,0.0260
1175.00,0.0261
1174.00,0.0261
1173.00,0.0261
1172.00,0.0260
1171.00,0.0261
1170.00,0.0262
1169.00,0.0263
1168.00,0.0263
1167.00,0.0263
1166.00,0.0263
1165.00,0.0263
1164.00,0.0263
1163.00,0.0263
1162.00,0.0262
1161.00,0.0263
1160.00,0.0263
1159.00,0.0264
1158.00,0.0263
1157.00,0.0263
1156.00,0.0265
1155.00,0.0266
1154.00,0.0266
1153.00,0.0265
1152.00,0.0265
1151.00,0.0265
1150.00,0.0267
1149.00,0.0267
1148.00,0.0267
1147.00,0.0266
1146.00,0.0267
1145.00,0.0269
1144.00,0.0270
1143.00,0.0270
1142.00,0.0270
1141.00,0.0271
1140.00,0.0272
1139.00,0.0272
1138.00,0.0271
1137.00,0.0270
1136.00,0.0272
1135.00,0.0273
1134.00,0.0274
1133.00,0.0273
1132.00,0.0273
1131.00,0.0273
1130.00,0.0275
1129.00,0.0275
1128.00,0.0275
1127.00,0.0274
1126.00,0.0274
1125.00,0.0275
1124.00,0.0276
1123.00,0.0276
1122.00,0.0277
1121.00,0.0279
1120.00,0.0280
1119.00,0.0281
1118.00,0.0281
1117.00,0.0282
1116.00,0.0283
1115.00,0.0284
1114.00,0.0285
1113.00,0.0284
1112.00,0.0285
1111.00,0.0287
1110.00,0.0288
1109.00,0.0289
1108.00,0.0290
1107.00,0.0291
1106.00,0.0292
1105.00,0.0291
1104.00,0.0290
1103.00,0.0291
1102.00,0.0293
1101.00,0.0295
1100.00,0.0296
1099.00,0.0295
1098.00,0.0295
1097.00,0.0297
1096.00,0.0300
1095.00,0.0301
1094.00,0.0300
1093.00,0.0301
1092.00,0.0303
1091.00,0.0306
1090.00,0.0307
1089.00,0.0306
1088.00,0.0305
1087.00,0.0307
1086.00,0.0308
1085.00,0.0308
1084.00,0.0308
1083.00,0.0309
1082.00,0.0310
1081.00,0.0312
1080.00,0.0311
1079.00,0.0310
1078.00,0.0310
1077.00,0.0312
1076.00,0.0314
1075.00,0.0316
1074.00,0.0316
1073.00,0.0316
1072.00,0.0319
1071.00,0.0320
1070.00,0.0321
1069.00,0.0321
1068.00,0.0321
1067.00,0.0322
1066.00,0.0324
1065.00,0.0324
1064.00,0.0324
1063.00,0.0324
1062.00,0.0326
1061.00,0.0327
1060.00,0.0326
1059.00,0.0326
1058.00,0.0327
1057.00,0.0328
1056.00,0.0328
1055.00,0.0328
1054.00,0.0329
1053.00,0.0330
1052.00,0.0332
1051.00,0.0333
1050.00,0.0333
1049.00,0.0334
1048.00,0.0336
1047.00,0.0337
1046.00,0.0336
1045.00,0.0334
1044.00,0.0333
1043.00,0.0334
1042.00,0.0335
1041.00,0.0335
1040.00,0.0335
1039.00,0.0336
1038.00,0.0337
1037.00,0.0337
1036.00,0.0337
1035.00,0.0337
1034.00,0.0338
1033.00,0.0339
1032.00,0.0340
1031.00,0.0339
1030.00,0.0338
1029.00,0.0339
1028.00,0.0339
1027.00,0.0339
1026.00,0.0338
1025.00,0.0337
1024.00,0.0338
1023.00,0.0339
1022.00,0.0339
1021.00,0.0338
1020.00,0.0336
1019.00,0.0336
1018.00,0.0337
1017.00,0.0338
1016.00,0.0339
1015.00,0.0339
1014.00,0.0340
1013.00,0.0341
1012.00,0.0340
1011.00,0.0339
1010.00,0.0338
1009.00,0.0338
1008.00,0.0339
1007.00,0.0339
1006.00,0.0337
1005.00,0.0335
1004.00,0.0336
1003.00,0.0337
1002.00,0.0337
1001.00,0.0335
1000.00,0.0334
999.00,0.0334
998.00,0.0334
997.00,0.0334
996.00,0.0334
995.00,0.0333
994.00,0.0334
993.00,0.0334
992.00,0.0333
991.00,0.0331
990.00,0.0331
989.00,0.0331
988.00,0.0331
987.00,0.0331
986.00,0.0330
985.00,0.0330
984.00,0.0331
983.00,0.0331
982.00,0.0331
981.00,0.0330
980.00,0.0330
979.00,0.0330
978.00,0.0329
977.00,0.0327
976.00,0.0327
975.00,0.0327
974.00,0.0327
973.00,0.0325
972.00,0.0324
971.00,0.0324
970.00,0.0325
969.00,0.0325
968.00,0.0325
967.00,0.0323
966.00,0.0323
965.00,0.0323
964.00,0.0324
963.00,0.0322
962.00,0.0321
961.00,0.0321
960.00,0.0323
959.00,0.0324
958.00,0.0322
957.00,0.0320
956.00,0.0318
955.00,0.0319
954.00,0.0320
953.00,0.0319
952.00,0.0318
951.00,0.0318
950.00,0.0319
949.00,0.0320
948.00,0.0319
947.00,0.0318
946.00,0.0318
945.00,0.0320
944.00,0.0321
943.00,0.0320
942.00,0.0318
941.00,0.0318
940.00,0.0319
939.00,0.0319
938.00,0.0318
937.00,0.0317
936.00,0.0317
935.00,0.0319
934.00,0.0319
933.00,0.0318
932.00,0.0316
931.00,0.0315
930.00,0.0314
929.00,0.0313
928.00,0.0312
927.00,0.0312
926.00,0.0313
925.00,0.0314
924.00,0.0313
923.00,0.0312
922.00,0.0312
921.00,0.0313
920.00,0.0314
919.00,0.0314
918.00,0.0314
917.00,0.0314
916.00,0.0316
915.00,0.0317
914.00,0.0316
913.00,0.0313
912.00,0.0312
911.00,0.0312
910.00,0.0313
909.00,0.0313
908.00,0.0314
907.00,0.0315
906.00,0.0317
905.00,0.0316
904.00,0.0314
903.00,0.0312
902.00,0.0312
901.00,0.0313
900.00,0.0313
899.00,0.0312
898.00,0.0311
897.00,0.0312
896.00,0.0315
895.00,0.0316
894.00,0.0314
893.00,0.0313
892.00,0.0312
891.00,0.0312
890.00,0.0312
889.00,0.0311
888.00,0.0312
887.00,0.0313
886.00,0.0313
885.00,0.0312
884.00,0.0310
883.00,0.0310
882.00,0.0313
881.00,0.0314
880.00,0.0312
879.00,0.0309
878.00,0.0309
877.00,0.0312
876.00,0.0314
875.00,0.0313
874.00,0.0310
873.00,0.0309
872.00,0.0310
871.00,0.0312
870.00,0.0312
869.00,0.0311
868.00,0.0310
867.00,0.0310
866.00,0.0308
865.00,0.0305
864.00,0.0304
863.00,0.0307
862.00,0.0311
861.00,0.0313
860.00,0.0312
859.00,0.0310
858.00,0.0310
857.00,0.0313
856.00,0.0314
855.00,0.0311
854.00,0.0308
853.00,0.0307
852.00,0.0308
851.00,0.0308
850.00,0.0307
849.00,0.0306
848.00,0.0306
847.00,0.0308
846.00,0.0308
845.00,0.0308
844.00,0.0308
843.00,0.0309
842.00,0.0309
841.00,0.0309
840.00,0.0307
839.00,0.0307
838.00,0.0309
837.00,0.0311
836.00,0.0310
835.00,0.0309
834.00,0.0309
833.00,0.0311
832.00,0.0313
831.00,0.0314
830.00,0.0313
829.00,0.0313
828.00,0.0314
827.00,0.0315
826.00,0.0315
825.00,0.0316
824.00,0.0319
823.00,0.0322
822.00,0.0321
821.00,0.0319
820.00,0.0318
819.00,0.0322
818.00,0.0326
817.00,0.0326
816.00,0.0323
815.00,0.0321
814.00,0.0322
813.00,0.0324
812.00,0.0323
811.00,0.0318
810.00,0.0315
809.00,0.0316
808.00,0.0321
807.00,0.0323
806.00,0.0322
805.00,0.0321
804.00,0.0325
803.00,0.0329
802.00,0.0330
801.00,0.0328
800.00,0.0326
799.00,0.0328
798.00,0.0330
797.00,0.0330
796.00,0.0328
795.00,0.0327
794.00,0.0328
793.00,0.0329
792.00,0.0328
791.00,0.0325
790.00,0.0325
789.00,0.0329
788.00,0.0332
787.00,0.0331
786.00,0.0328
785.00,0.0325
784.00,0.0324
783.00,0.0326
782.00,0.0326
781.00,0.0327
780.00,0.0328
779.00,0.0330
778.00,0.0331
777.00,0.0330
776.00,0.0329
775.00,0.0330
774.00,0.0332
773.00,0.0332
772.00,0.0330
771.00,0.0328
770.00,0.0328
769.00,0.0331
768.00,0.0332
767.00,0.0332
766.00,0.0332
765.00,0.0333
764.00,0.0333
763.00,0.0331
762.00,0.0328
761.00,0.0328
760.00,0.0331
759.00,0.0333
758.00,0.0333
757.00,0.0332
756.00,0.0333
755.00,0.0335
754.00,0.0334
753.00,0.0328
752.00,0.0323
751.00,0.0324
750.00,0.0330
749.00,0.0336
748.00,0.0338
747.00,0.0336
746.00,0.0336
745.00,0.0337
744.00,0.0338
743.00,0.0336
742.00,0.0334
741.00,0.0334
740.00,0.0335
739.00,0.0335
738.00,0.0333
737.00,0.0332
736.00,0.0334
735.00,0.0337
734.00,0.0337
733.00,0.0334
732.00,0.0331
731.00,0.0333
730.00,0.0337
729.00,0.0339
728.00,0.0336
727.00,0.0333
726.00,0.0332
725.00,0.0334
724.00,0.0336
723.00,0.0336
722.00,0.0336
721.00,0.0338
720.00,0.0341
719.00,0.0341
718.00,0.0337
717.00,0.0334
716.00,0.0334
715.00,0.0335
714.00,0.0335
713.00,0.0334
712.00,0.0335
711.00,0.0338
710.00,0.0341
709.00,0.0342
708.00,0.0339
707.00,0.0338
706.00,0.0339
705.00,0.0339
704.00,0.0336
703.00,0.0333
702.00,0.0334
701.00,0.0338
700.00,0.0343
699.00,0.0345
698.00,0.0346
697.00,0.0348
696.00,0.0350
695.00,0.0349
694.00,0.0344
693.00,0.0341
692.00,0.0342
691.00,0.0344
690.00,0.0343
689.00,0.0340
688.00,0.0340
687.00,0.0345
686.00,0.0352
685.00,0.0354
684.00,0.0350
683.00,0.0346
682.00,0.0347
681.00,0.0349
680.00,0.0346
679.00,0.0339
678.00,0.0337
677.00,0.0342
676.00,0.0351
675.00,0.0356
674.00,0.0355
673.00,0.0355
672.00,0.0359
671.00,0.0362
670.00,0.0358
669.00,0.0347
668.00,0.0341
667.00,0.0344
666.00,0.0348
665.00,0.0346
664.00,0.0342
663.00,0.0344
662.00,0.0354
661.00,0.0361
660.00,0.0358
659.00,0.0351
658.00,0.0349
657.00,0.0353
656.00,0.0355
655.00,0.0348
654.00,0.0341
653.00,0.0342
652.00,0.0351
651.00,0.0359
650.00,0.0359
