Created as New Dataset,Monday, April 03 2023
cm-1,A
4000.00,0.0016
3999.00,0.0016
3998.00,0.0016
3997.00,0.0016
3996.00,0.0016
3995.00,0.0016
3994.00,0.0016
3993.00,0.0016
3992.00,0.0016
3991.00,0.0016
3990.00,0.0016
3989.00,0.0015
3988.00,0.0015
3987.00,0.0015
3986.00,0.0015
3985.00,0.0015
3984.00,0.0015
3983.00,0.0015
3982.00,0.0015
3981.00,0.0015
3980.00,0.0015
3979.00,0.0016
3978.00,0.0016
3977.00,0.0016
3976.00,0.0015
3975.00,0.0015
3974.00,0.0015
3973.00,0.0015
3972.00,0.0015
3971.00,0.0015
3970.00,0.0015
3969.00,0.0014
3968.00,0.0014
3967.00,0.0015
3966.00,0.0015
3965.00,0.0015
3964.00,0.0016
3963.00,0.0016
3962.00,0.0015
3961.00,0.0015
3960.00,0.0015
3959.00,0.0015
3958.00,0.0015
3957.00,0.0015
3956.00,0.0014
3955.00,0.0014
3954.00,0.0014
3953.00,0.0014
3952.00,0.0015
3951.00,0.0015
3950.00,0.0015
3949.00,0.0015
3948.00,0.0016
3947.00,0.0016
3946.00,0.0016
3945.00,0.0015
3944.00,0.0014
3943.00,0.0014
3942.00,0.0013
3941.00,0.0013
3940.00,0.0014
3939.00,0.0014
3938.00,0.0015
3937.00,0.0015
3936.00,0.0016
3935.00,0.0017
3934.00,0.0017
3933.00,0.0017
3932.00,0.0017
3931.00,0.0016
3930.00,0.0015
3929.00,0.0015
3928.00,0.0015
3927.00,0.0014
3926.00,0.0014
3925.00,0.0013
3924.00,0.0014
3923.00,0.0014
3922.00,0.0015
3921.00,0.0016
3920.00,0.0016
3919.00,0.0016
3918.00,0.0016
3917.00,0.0015
3916.00,0.0015
3915.00,0.0014
3914.00,0.0014
3913.00,0.0013
3912.00,0.0013
3911.00,0.0013
3910.00,0.0014
3909.00,0.0014
3908.00,0.0015
3907.00,0.0016
3906.00,0.0017
3905.00,0.0018
3904.00,0.0019
3903.00,0.0019
3902.00,0.0019
3901.00,0.0018
3900.00,0.0016
3899.00,0.0015
3898.00,0.0015
3897.00,0.0015
3896.00,0.0016
3895.00,0.0017
3894.00,0.0017
3893.00,0.0016
3892.00,0.0015
3891.00,0.0015
3890.00,0.0015
3889.00,0.0016
3888.00,0.0017
3887.00,0.0017
3886.00,0.0017
3885.00,0.0016
3884.00,0.0016
3883.00,0.0016
3882.00,0.0014
3881.00,0.0013
3880.00,0.0012
3879.00,0.0013
3878.00,0.0014
3877.00,0.0015
3876.00,0.0015
3875.00,0.0015
3874.00,0.0014
3873.00,0.0015
3872.00,0.0016
3871.00,0.0016
3870.00,0.0015
3869.00,0.0015
3868.00,0.0016
3867.00,0.0018
3866.00,0.0019
3865.00,0.0018
3864.00,0.0016
3863.00,0.0015
3862.00,0.0015
3861.00,0.0016
3860.00,0.0017
3859.00,0.0017
3858.00,0.0016
3857.00,0.0016
3856.00,0.0017
3855.00,0.0018
3854.00,0.0018
3853.00,0.0017
3852.00,0.0016
3851.00,0.0015
3850.00,0.0015
3849.00,0.0015
3848.00,0.0015
3847.00,0.0015
3846.00,0.0016
3845.00,0.0016
3844.00,0.0016
3843.00,0.0016
3842.00,0.0017
3841.00,0.0017
3840.00,0.0017
3839.00,0.0017
3838.00,0.0016
3837.00,0.0016
3836.00,0.0015
3835.00,0.0015
3834.00,0.0015
3833.00,0.0015
3832.00,0.0016
3831.00,0.0016
3830.00,0.0016
3829.00,0.0016
3828.00,0.0016
3827.00,0.0015
3826.00,0.0015
3825.00,0.0016
3824.00,0.0017
3823.00,0.0019
3822.00,0.0018
3821.00,0.0017
3820.00,0.0016
3819.00,0.0017
3818.00,0.0016
3817.00,0.0016
3816.00,0.0014
3815.00,0.0013
3814.00,0.0013
3813.00,0.0013
3812.00,0.0014
3811.00,0.0014
3810.00,0.0014
3809.00,0.0014
3808.00,0.0015
3807.00,0.0015
3806.00,0.0016
3805.00,0.0016
3804.00,0.0017
3803.00,0.0017
3802.00,0.0016
3801.00,0.0015
3800.00,0.0015
3799.00,0.0015
3798.00,0.0014
3797.00,0.0014
3796.00,0.0013
3795.00,0.0013
3794.00,0.0013
3793.00,0.0013
3792.00,0.0012
3791.00,0.0012
3790.00,0.0012
3789.00,0.0012
3788.00,0.0013
3787.00,0.0013
3786.00,0.0013
3785.00,0.0012
3784.00,0.0012
3783.00,0.0012
3782.00,0.0012
3781.00,0.0012
3780.00,0.0011
3779.00,0.0011
3778.00,0.0011
3777.00,0.0011
3776.00,0.0012
3775.00,0.0012
3774.00,0.0012
3773.00,0.0013
3772.00,0.0014
3771.00,0.0015
3770.00,0.0015
3769.00,0.0015
3768.00,0.0014
3767.00,0.0014
3766.00,0.0014
3765.00,0.0014
3764.00,0.0014
3763.00,0.0015
3762.00,0.0016
3761.00,0.0016
3760.00,0.0016
3759.00,0.0015
3758.00,0.0016
3757.00,0.0016
3756.00,0.0017
3755.00,0.0019
3754.00,0.0022
3753.00,0.0025
3752.00,0.0026
3751.00,0.0026
3750.00,0.0026
3749.00,0.0024
3748.00,0.0022
3747.00,0.0021
3746.00,0.0019
3745.00,0.0019
3744.00,0.0019
3743.00,0.0020
3742.00,0.0021
3741.00,0.0022
3740.00,0.0023
3739.00,0.0024
3738.00,0.0025
3737.00,0.0025
3736.00,0.0024
3735.00,0.0023
3734.00,0.0022
3733.00,0.0022
3732.00,0.0022
3731.00,0.0022
3730.00,0.0022
3729.00,0.0022
3728.00,0.0023
3727.00,0.0023
3726.00,0.0023
3725.00,0.0023
3724.00,0.0022
3723.00,0.0022
3722.00,0.0023
3721.00,0.0023
3720.00,0.0023
3719.00,0.0024
3718.00,0.0026
3717.00,0.0028
3716.00,0.0030
3715.00,0.0033
3714.00,0.0035
3713.00,0.0038
3712.00,0.0041
3711.00,0.0043
3710.00,0.0045
3709.00,0.0048
3708.00,0.0050
3707.00,0.0053
3706.00,0.0055
3705.00,0.0057
3704.00,0.0059
3703.00,0.0062
3702.00,0.0065
3701.00,0.0069
3700.00,0.0073
3699.00,0.0076
3698.00,0.0078
3697.00,0.0080
3696.00,0.0080
3695.00,0.0081
3694.00,0.0081
3693.00,0.0081
3692.00,0.0081
3691.00,0.0081
3690.00,0.0082
3689.00,0.0082
3688.00,0.0082
3687.00,0.0081
3686.00,0.0079
3685.00,0.0077
3684.00,0.0075
3683.00,0.0073
3682.00,0.0071
3681.00,0.0069
3680.00,0.0068
3679.00,0.0066
3678.00,0.0066
3677.00,0.0067
3676.00,0.0068
3675.00,0.0068
3674.00,0.0069
3673.00,0.0070
3672.00,0.0071
3671.00,0.0071
3670.00,0.0070
3669.00,0.0069
3668.00,0.0069
3667.00,0.0070
3666.00,0.0070
3665.00,0.0070
3664.00,0.0071
3663.00,0.0071
3662.00,0.0072
3661.00,0.0073
3660.00,0.0074
3659.00,0.0076
3658.00,0.0080
3657.00,0.0083
3656.00,0.0087
3655.00,0.0088
3654.00,0.0088
3653.00,0.0087
3652.00,0.0088
3651.00,0.0092
3650.00,0.0097
3649.00,0.0100
3648.00,0.0099
3647.00,0.0098
3646.00,0.0096
3645.00,0.0095
3644.00,0.0093
3643.00,0.0091
3642.00,0.0090
3641.00,0.0088
3640.00,0.0088
3639.00,0.0087
3638.00,0.0086
3637.00,0.0086
3636.00,0.0086
3635.00,0.0087
3634.00,0.0088
3633.00,0.0088
3632.00,0.0088
3631.00,0.0091
3630.00,0.0095
3629.00,0.0100
3628.00,0.0105
3627.00,0.0108
3626.00,0.0110
3625.00,0.0112
3624.00,0.0114
3623.00,0.0116
3622.00,0.0119
3621.00,0.0121
3620.00,0.0122
3619.00,0.0122
3618.00,0.0120
3617.00,0.0117
3616.00,0.0113
3615.00,0.0109
3614.00,0.0107
3613.00,0.0105
3612.00,0.0105
3611.00,0.0105
3610.00,0.0105
3609.00,0.0103
3608.00,0.0102
3607.00,0.0100
3606.00,0.0099
3605.00,0.0098
3604.00,0.0097
3603.00,0.0096
3602.00,0.0096
3601.00,0.0096
3600.00,0.0096
3599.00,0.0095
3598.00,0.0095
3597.00,0.0095
3596.00,0.0095
3595.00,0.0096
3594.00,0.0096
3593.00,0.0097
3592.00,0.0098
3591.00,0.0098
3590.00,0.0098
3589.00,0.0098
3588.00,0.0098
3587.00,0.0098
3586.00,0.0098
3585.00,0.0099
3584.00,0.0099
3583.00,0.0098
3582.00,0.0098
3581.00,0.0097
3580.00,0.0097
3579.00,0.0097
3578.00,0.0097
3577.00,0.0097
3576.00,0.0097
3575.00,0.0098
3574.00,0.0098
3573.00,0.0099
3572.00,0.0099
3571.00,0.0099
3570.00,0.0099
3569.00,0.0101
3568.00,0.0103
3567.00,0.0105
3566.00,0.0106
3565.00,0.0106
3564.00,0.0106
3563.00,0.0105
3562.00,0.0104
3561.00,0.0104
3560.00,0.0104
3559.00,0.0104
3558.00,0.0104
3557.00,0.0104
3556.00,0.0105
3555.00,0.0105
3554.00,0.0105
3553.00,0.0106
3552.00,0.0107
3551.00,0.0108
3550.00,0.0108
3549.00,0.0109
3548.00,0.0110
3547.00,0.0110
3546.00,0.0111
3545.00,0.0111
3544.00,0.0111
3543.00,0.0111
3542.00,0.0111
3541.00,0.0111
3540.00,0.0111
3539.00,0.0111
3538.00,0.0112
3537.00,0.0113
3536.00,0.0113
3535.00,0.0114
3534.00,0.0114
3533.00,0.0114
3532.00,0.0114
3531.00,0.0114
3530.00,0.0114
3529.00,0.0115
3528.00,0.0116
3527.00,0.0117
3526.00,0.0119
3525.00,0.0119
3524.00,0.0119
3523.00,0.0119
3522.00,0.0119
3521.00,0.0119
3520.00,0.0119
3519.00,0.0119
3518.00,0.0119
3517.00,0.0119
3516.00,0.0120
3515.00,0.0120
3514.00,0.0120
3513.00,0.0120
3512.00,0.0121
3511.00,0.0121
3510.00,0.0122
3509.00,0.0123
3508.00,0.0124
3507.00,0.0124
3506.00,0.0124
3505.00,0.0124
3504.00,0.0125
3503.00,0.0125
3502.00,0.0126
3501.00,0.0127
3500.00,0.0127
3499.00,0.0127
3498.00,0.0127
3497.00,0.0128
3496.00,0.0128
3495.00,0.0129
3494.00,0.0129
3493.00,0.0129
3492.00,0.0129
3491.00,0.0130
3490.00,0.0130
3489.00,0.0131
3488.00,0.0131
3487.00,0.0132
3486.00,0.0132
3485.00,0.0133
3484.00,0.0133
3483.00,0.0133
3482.00,0.0133
3481.00,0.0133
3480.00,0.0134
3479.00,0.0134
3478.00,0.0135
3477.00,0.0135
3476.00,0.0136
3475.00,0.0136
3474.00,0.0136
3473.00,0.0136
3472.00,0.0136
3471.00,0.0136
3470.00,0.0137
3469.00,0.0137
3468.00,0.0138
3467.00,0.0138
3466.00,0.0139
3465.00,0.0140
3464.00,0.0140
3463.00,0.0140
3462.00,0.0141
3461.00,0.0141
3460.00,0.0141
3459.00,0.0141
3458.00,0.0142
3457.00,0.0142
3456.00,0.0142
3455.00,0.0142
3454.00,0.0142
3453.00,0.0143
3452.00,0.0143
3451.00,0.0144
3450.00,0.0145
3449.00,0.0145
3448.00,0.0145
3447.00,0.0146
3446.00,0.0146
3445.00,0.0147
3444.00,0.0147
3443.00,0.0147
3442.00,0.0147
3441.00,0.0147
3440.00,0.0147
3439.00,0.0147
3438.00,0.0148
3437.00,0.0148
3436.00,0.0149
3435.00,0.0149
3434.00,0.0149
3433.00,0.0150
3432.00,0.0150
3431.00,0.0150
3430.00,0.0150
3429.00,0.0150
3428.00,0.0150
3427.00,0.0150
3426.00,0.0150
3425.00,0.0151
3424.00,0.0151
3423.00,0.0151
3422.00,0.0152
3421.00,0.0152
3420.00,0.0153
3419.00,0.0153
3418.00,0.0153
3417.00,0.0153
3416.00,0.0153
3415.00,0.0153
3414.00,0.0153
3413.00,0.0153
3412.00,0.0153
3411.00,0.0153
3410.00,0.0153
3409.00,0.0153
3408.00,0.0153
3407.00,0.0154
3406.00,0.0154
3405.00,0.0154
3404.00,0.0155
3403.00,0.0155
3402.00,0.0156
3401.00,0.0156
3400.00,0.0156
3399.00,0.0155
3398.00,0.0155
3397.00,0.0155
3396.00,0.0155
3395.00,0.0156
3394.00,0.0157
3393.00,0.0157
3392.00,0.0158
3391.00,0.0158
3390.00,0.0158
3389.00,0.0158
3388.00,0.0158
3387.00,0.0158
3386.00,0.0158
3385.00,0.0158
3384.00,0.0158
3383.00,0.0158
3382.00,0.0158
3381.00,0.0158
3380.00,0.0158
3379.00,0.0158
3378.00,0.0159
3377.00,0.0159
3376.00,0.0159
3375.00,0.0159
3374.00,0.0159
3373.00,0.0159
3372.00,0.0159
3371.00,0.0159
3370.00,0.0159
3369.00,0.0160
3368.00,0.0160
3367.00,0.0160
3366.00,0.0160
3365.00,0.0161
3364.00,0.0161
3363.00,0.0161
3362.00,0.0161
3361.00,0.0161
3360.00,0.0161
3359.00,0.0161
3358.00,0.0161
3357.00,0.0161
3356.00,0.0161
3355.00,0.0161
3354.00,0.0161
3353.00,0.0162
3352.00,0.0162
3351.00,0.0162
3350.00,0.0162
3349.00,0.0162
3348.00,0.0162
3347.00,0.0162
3346.00,0.0161
3345.00,0.0161
3344.00,0.0161
3343.00,0.0161
3342.00,0.0161
3341.00,0.0162
3340.00,0.0162
3339.00,0.0162
3338.00,0.0162
3337.00,0.0162
3336.00,0.0161
3335.00,0.0161
3334.00,0.0161
3333.00,0.0161
3332.00,0.0161
3331.00,0.0161
3330.00,0.0161
3329.00,0.0161
3328.00,0.0161
3327.00,0.0161
3326.00,0.0161
3325.00,0.0161
3324.00,0.0160
3323.00,0.0160
3322.00,0.0160
3321.00,0.0160
3320.00,0.0161
3319.00,0.0161
3318.00,0.0161
3317.00,0.0161
3316.00,0.0161
3315.00,0.0161
3314.00,0.0161
3313.00,0.0161
3312.00,0.0161
3311.00,0.0161
3310.00,0.0161
3309.00,0.0161
3308.00,0.0161
3307.00,0.0161
3306.00,0.0161
3305.00,0.0160
3304.00,0.0160
3303.00,0.0160
3302.00,0.0160
3301.00,0.0160
3300.00,0.0161
3299.00,0.0161
3298.00,0.0161
3297.00,0.0161
3296.00,0.0160
3295.00,0.0160
3294.00,0.0160
3293.00,0.0160
3292.00,0.0161
3291.00,0.0160
3290.00,0.0160
3289.00,0.0160
3288.00,0.0160
3287.00,0.0160
3286.00,0.0160
3285.00,0.0160
3284.00,0.0160
3283.00,0.0159
3282.00,0.0159
3281.00,0.0159
3280.00,0.0159
3279.00,0.0159
3278.00,0.0159
3277.00,0.0159
3276.00,0.0159
3275.00,0.0160
3274.00,0.0160
3273.00,0.0160
3272.00,0.0159
3271.00,0.0159
3270.00,0.0159
3269.00,0.0158
3268.00,0.0158
3267.00,0.0158
3266.00,0.0158
3265.00,0.0158
3264.00,0.0157
3263.00,0.0156
3262.00,0.0156
3261.00,0.0156
3260.00,0.0156
3259.00,0.0156
3258.00,0.0156
3257.00,0.0157
3256.00,0.0157
3255.00,0.0157
3254.00,0.0157
3253.00,0.0157
3252.00,0.0156
3251.00,0.0156
3250.00,0.0156
3249.00,0.0156
3248.00,0.0157
3247.00,0.0157
3246.00,0.0157
3245.00,0.0157
3244.00,0.0156
3243.00,0.0156
3242.00,0.0156
3241.00,0.0156
3240.00,0.0156
3239.00,0.0156
3238.00,0.0156
3237.00,0.0156
3236.00,0.0155
3235.00,0.0155
3234.00,0.0154
3233.00,0.0154
3232.00,0.0154
3231.00,0.0154
3230.00,0.0154
3229.00,0.0153
3228.00,0.0153
3227.00,0.0153
3226.00,0.0153
3225.00,0.0153
3224.00,0.0153
3223.00,0.0153
3222.00,0.0152
3221.00,0.0152
3220.00,0.0152
3219.00,0.0152
3218.00,0.0152
3217.00,0.0152
3216.00,0.0152
3215.00,0.0152
3214.00,0.0152
3213.00,0.0152
3212.00,0.0152
3211.00,0.0151
3210.00,0.0151
3209.00,0.0151
3208.00,0.0151
3207.00,0.0151
3206.00,0.0150
3205.00,0.0150
3204.00,0.0150
3203.00,0.0150
3202.00,0.0150
3201.00,0.0150
3200.00,0.0149
3199.00,0.0149
3198.00,0.0149
3197.00,0.0149
3196.00,0.0149
3195.00,0.0148
3194.00,0.0148
3193.00,0.0148
3192.00,0.0148
3191.00,0.0148
3190.00,0.0148
3189.00,0.0148
3188.00,0.0148
3187.00,0.0148
3186.00,0.0148
3185.00,0.0147
3184.00,0.0147
3183.00,0.0147
3182.00,0.0146
3181.00,0.0146
3180.00,0.0145
3179.00,0.0145
3178.00,0.0144
3177.00,0.0144
3176.00,0.0144
3175.00,0.0144
3174.00,0.0144
3173.00,0.0144
3172.00,0.0144
3171.00,0.0144
3170.00,0.0144
3169.00,0.0144
3168.00,0.0144
3167.00,0.0143
3166.00,0.0143
3165.00,0.0142
3164.00,0.0142
3163.00,0.0142
3162.00,0.0142
3161.00,0.0142
3160.00,0.0141
3159.00,0.0141
3158.00,0.0141
3157.00,0.0141
3156.00,0.0141
3155.00,0.0140
3154.00,0.0140
3153.00,0.0139
3152.00,0.0139
3151.00,0.0139
3150.00,0.0139
3149.00,0.0138
3148.00,0.0138
3147.00,0.0138
3146.00,0.0138
3145.00,0.0138
3144.00,0.0138
3143.00,0.0137
3142.00,0.0137
3141.00,0.0137
3140.00,0.0137
3139.00,0.0137
3138.00,0.0137
3137.00,0.0137
3136.00,0.0137
3135.00,0.0136
3134.00,0.0136
3133.00,0.0135
3132.00,0.0135
3131.00,0.0135
3130.00,0.0135
3129.00,0.0135
3128.00,0.0135
3127.00,0.0134
3126.00,0.0134
3125.00,0.0134
3124.00,0.0134
3123.00,0.0133
3122.00,0.0133
3121.00,0.0133
3120.00,0.0134
3119.00,0.0134
3118.00,0.0134
3117.00,0.0134
3116.00,0.0133
3115.00,0.0133
3114.00,0.0132
3113.00,0.0132
3112.00,0.0131
3111.00,0.0131
3110.00,0.0131
3109.00,0.0131
3108.00,0.0131
3107.00,0.0131
3106.00,0.0131
3105.00,0.0130
3104.00,0.0130
3103.00,0.0130
3102.00,0.0130
3101.00,0.0130
3100.00,0.0130
3099.00,0.0129
3098.00,0.0129
3097.00,0.0128
3096.00,0.0128
3095.00,0.0128
3094.00,0.0128
3093.00,0.0128
3092.00,0.0128
3091.00,0.0128
3090.00,0.0128
3089.00,0.0128
3088.00,0.0128
3087.00,0.0128
3086.00,0.0127
3085.00,0.0127
3084.00,0.0127
3083.00,0.0127
3082.00,0.0127
3081.00,0.0126
3080.00,0.0126
3079.00,0.0126
3078.00,0.0126
3077.00,0.0126
3076.00,0.0126
3075.00,0.0126
3074.00,0.0125
3073.00,0.0125
3072.00,0.0125
3071.00,0.0124
3070.00,0.0124
3069.00,0.0124
3068.00,0.0124
3067.00,0.0124
3066.00,0.0124
3065.00,0.0124
3064.00,0.0124
3063.00,0.0124
3062.00,0.0123
3061.00,0.0123
3060.00,0.0123
3059.00,0.0123
3058.00,0.0122
3057.00,0.0122
3056.00,0.0122
3055.00,0.0122
3054.00,0.0121
3053.00,0.0121
3052.00,0.0121
3051.00,0.0120
3050.00,0.0120
3049.00,0.0120
3048.00,0.0120
3047.00,0.0120
3046.00,0.0120
3045.00,0.0120
3044.00,0.0120
3043.00,0.0119
3042.00,0.0119
3041.00,0.0119
3040.00,0.0118
3039.00,0.0118
3038.00,0.0118
3037.00,0.0117
3036.00,0.0117
3035.00,0.0117
3034.00,0.0117
3033.00,0.0117
3032.00,0.0116
3031.00,0.0116
3030.00,0.0116
3029.00,0.0115
3028.00,0.0115
3027.00,0.0115
3026.00,0.0115
3025.00,0.0115
3024.00,0.0115
3023.00,0.0115
3022.00,0.0114
3021.00,0.0114
3020.00,0.0113
3019.00,0.0113
3018.00,0.0113
3017.00,0.0113
3016.00,0.0113
3015.00,0.0114
3014.00,0.0114
3013.00,0.0114
3012.00,0.0113
3011.00,0.0113
3010.00,0.0112
3009.00,0.0112
3008.00,0.0111
3007.00,0.0111
3006.00,0.0111
3005.00,0.0112
3004.00,0.0112
3003.00,0.0112
3002.00,0.0112
3001.00,0.0112
3000.00,0.0112
2999.00,0.0111
2998.00,0.0111
2997.00,0.0111
2996.00,0.0111
2995.00,0.0110
2994.00,0.0111
2993.00,0.0111
2992.00,0.0110
2991.00,0.0110
2990.00,0.0110
2989.00,0.0109
2988.00,0.0109
2987.00,0.0109
2986.00,0.0109
2985.00,0.0109
2984.00,0.0109
2983.00,0.0109
2982.00,0.0109
2981.00,0.0108
2980.00,0.0108
2979.00,0.0108
2978.00,0.0108
2977.00,0.0109
2976.00,0.0109
2975.00,0.0109
2974.00,0.0109
2973.00,0.0108
2972.00,0.0108
2971.00,0.0108
2970.00,0.0107
2969.00,0.0107
2968.00,0.0107
2967.00,0.0107
2966.00,0.0106
2965.00,0.0106
2964.00,0.0106
2963.00,0.0106
2962.00,0.0105
2961.00,0.0105
2960.00,0.0105
2959.00,0.0105
2958.00,0.0105
2957.00,0.0105
2956.00,0.0105
2955.00,0.0105
2954.00,0.0105
2953.00,0.0105
2952.00,0.0106
2951.00,0.0106
2950.00,0.0106
2949.00,0.0106
2948.00,0.0106
2947.00,0.0106
2946.00,0.0106
2945.00,0.0107
2944.00,0.0107
2943.00,0.0106
2942.00,0.0106
2941.00,0.0106
2940.00,0.0106
2939.00,0.0106
2938.00,0.0105
2937.00,0.0105
2936.00,0.0105
2935.00,0.0104
2934.00,0.0104
2933.00,0.0103
2932.00,0.0102
2931.00,0.0102
2930.00,0.0101
2929.00,0.0101
2928.00,0.0100
2927.00,0.0100
2926.00,0.0099
2925.00,0.0099
2924.00,0.0098
2923.00,0.0098
2922.00,0.0098
2921.00,0.0098
2920.00,0.0098
2919.00,0.0098
2918.00,0.0097
2917.00,0.0097
2916.00,0.0096
2915.00,0.0096
2914.00,0.0097
2913.00,0.0097
2912.00,0.0098
2911.00,0.0098
2910.00,0.0098
2909.00,0.0099
2908.00,0.0099
2907.00,0.0099
2906.00,0.0099
2905.00,0.0100
2904.00,0.0100
2903.00,0.0100
2902.00,0.0100
2901.00,0.0100
2900.00,0.0099
2899.00,0.0099
2898.00,0.0099
2897.00,0.0099
2896.00,0.0099
2895.00,0.0099
2894.00,0.0099
2893.00,0.0099
2892.00,0.0098
2891.00,0.0098
2890.00,0.0098
2889.00,0.0098
2888.00,0.0098
2887.00,0.0098
2886.00,0.0098
2885.00,0.0098
2884.00,0.0098
2883.00,0.0098
2882.00,0.0098
2881.00,0.0097
2880.00,0.0097
2879.00,0.0097
2878.00,0.0097
2877.00,0.0096
2876.00,0.0096
2875.00,0.0096
2874.00,0.0096
2873.00,0.0095
2872.00,0.0095
2871.00,0.0094
2870.00,0.0093
2869.00,0.0093
2868.00,0.0093
2867.00,0.0093
2866.00,0.0092
2865.00,0.0092
2864.00,0.0091
2863.00,0.0091
2862.00,0.0092
2861.00,0.0091
2860.00,0.0091
2859.00,0.0090
2858.00,0.0089
2857.00,0.0089
2856.00,0.0088
2855.00,0.0087
2854.00,0.0087
2853.00,0.0087
2852.00,0.0087
2851.00,0.0087
2850.00,0.0087
2849.00,0.0087
2848.00,0.0087
2847.00,0.0087
2846.00,0.0087
2845.00,0.0087
2844.00,0.0087
2843.00,0.0087
2842.00,0.0087
2841.00,0.0087
2840.00,0.0087
2839.00,0.0087
2838.00,0.0087
2837.00,0.0087
2836.00,0.0087
2835.00,0.0087
2834.00,0.0086
2833.00,0.0086
2832.00,0.0085
2831.00,0.0085
2830.00,0.0085
2829.00,0.0085
2828.00,0.0084
2827.00,0.0084
2826.00,0.0084
2825.00,0.0084
2824.00,0.0084
2823.00,0.0084
2822.00,0.0084
2821.00,0.0084
2820.00,0.0084
2819.00,0.0083
2818.00,0.0083
2817.00,0.0083
2816.00,0.0083
2815.00,0.0083
2814.00,0.0083
2813.00,0.0083
2812.00,0.0082
2811.00,0.0082
2810.00,0.0081
2809.00,0.0081
2808.00,0.0081
2807.00,0.0080
2806.00,0.0080
2805.00,0.0080
2804.00,0.0080
2803.00,0.0080
2802.00,0.0080
2801.00,0.0080
2800.00,0.0080
2799.00,0.0080
2798.00,0.0079
2797.00,0.0079
2796.00,0.0079
2795.00,0.0079
2794.00,0.0079
2793.00,0.0078
2792.00,0.0078
2791.00,0.0078
2790.00,0.0077
2789.00,0.0078
2788.00,0.0078
2787.00,0.0078
2786.00,0.0077
2785.00,0.0077
2784.00,0.0077
2783.00,0.0077
2782.00,0.0077
2781.00,0.0076
2780.00,0.0076
2779.00,0.0076
2778.00,0.0076
2777.00,0.0075
2776.00,0.0075
2775.00,0.0075
2774.00,0.0075
2773.00,0.0075
2772.00,0.0074
2771.00,0.0074
2770.00,0.0074
2769.00,0.0074
2768.00,0.0074
2767.00,0.0074
2766.00,0.0074
2765.00,0.0074
2764.00,0.0073
2763.00,0.0073
2762.00,0.0073
2761.00,0.0073
2760.00,0.0073
2759.00,0.0073
2758.00,0.0073
2757.00,0.0072
2756.00,0.0072
2755.00,0.0072
2754.00,0.0072
2753.00,0.0072
2752.00,0.0071
2751.00,0.0071
2750.00,0.0071
2749.00,0.0071
2748.00,0.0071
2747.00,0.0070
2746.00,0.0070
2745.00,0.0070
2744.00,0.0070
2743.00,0.0070
2742.00,0.0070
2741.00,0.0070
2740.00,0.0070
2739.00,0.0070
2738.00,0.0069
2737.00,0.0069
2736.00,0.0069
2735.00,0.0069
2734.00,0.0069
2733.00,0.0068
2732.00,0.0068
2731.00,0.0068
2730.00,0.0068
2729.00,0.0068
2728.00,0.0068
2727.00,0.0068
2726.00,0.0068
2725.00,0.0067
2724.00,0.0067
2723.00,0.0067
2722.00,0.0067
2721.00,0.0067
2720.00,0.0067
2719.00,0.0067
2718.00,0.0067
2717.00,0.0067
2716.00,0.0067
2715.00,0.0067
2714.00,0.0066
2713.00,0.0066
2712.00,0.0066
2711.00,0.0065
2710.00,0.0065
2709.00,0.0065
2708.00,0.0065
2707.00,0.0064
2706.00,0.0064
2705.00,0.0064
2704.00,0.0064
2703.00,0.0064
2702.00,0.0064
2701.00,0.0064
2700.00,0.0064
2699.00,0.0064
2698.00,0.0063
2697.00,0.0064
2696.00,0.0064
2695.00,0.0064
2694.00,0.0064
2693.00,0.0063
2692.00,0.0063
2691.00,0.0063
2690.00,0.0063
2689.00,0.0063
2688.00,0.0063
2687.00,0.0063
2686.00,0.0063
2685.00,0.0062
2684.00,0.0062
2683.00,0.0062
2682.00,0.0062
2681.00,0.0062
2680.00,0.0062
2679.00,0.0062
2678.00,0.0062
2677.00,0.0061
2676.00,0.0061
2675.00,0.0061
2674.00,0.0061
2673.00,0.0061
2672.00,0.0061
2671.00,0.0061
2670.00,0.0061
2669.00,0.0061
2668.00,0.0060
2667.00,0.0060
2666.00,0.0061
2665.00,0.0061
2664.00,0.0061
2663.00,0.0061
2662.00,0.0061
2661.00,0.0061
2660.00,0.0061
2659.00,0.0061
2658.00,0.0061
2657.00,0.0061
2656.00,0.0061
2655.00,0.0062
2654.00,0.0062
2653.00,0.0062
2652.00,0.0062
2651.00,0.0062
2650.00,0.0061
2649.00,0.0061
2648.00,0.0060
2647.00,0.0060
2646.00,0.0060
2645.00,0.0060
2644.00,0.0060
2643.00,0.0061
2642.00,0.0061
2641.00,0.0060
2640.00,0.0060
2639.00,0.0060
2638.00,0.0060
2637.00,0.0060
2636.00,0.0060
2635.00,0.0060
2634.00,0.0060
2633.00,0.0060
2632.00,0.0060
2631.00,0.0059
2630.00,0.0059
2629.00,0.0059
2628.00,0.0060
2627.00,0.0060
2626.00,0.0060
2625.00,0.0060
2624.00,0.0059
2623.00,0.0059
2622.00,0.0059
2621.00,0.0059
2620.00,0.0059
2619.00,0.0059
2618.00,0.0059
2617.00,0.0059
2616.00,0.0059
2615.00,0.0059
2614.00,0.0059
2613.00,0.0059
2612.00,0.0059
2611.00,0.0059
2610.00,0.0059
2609.00,0.0059
2608.00,0.0059
2607.00,0.0059
2606.00,0.0059
2605.00,0.0059
2604.00,0.0059
2603.00,0.0059
2602.00,0.0058
2601.00,0.0058
2600.00,0.0058
2599.00,0.0057
2598.00,0.0057
2597.00,0.0057
2596.00,0.0057
2595.00,0.0057
2594.00,0.0057
2593.00,0.0057
2592.00,0.0058
2591.00,0.0058
2590.00,0.0058
2589.00,0.0057
2588.00,0.0057
2587.00,0.0057
2586.00,0.0057
2585.00,0.0057
2584.00,0.0057
2583.00,0.0057
2582.00,0.0057
2581.00,0.0057
2580.00,0.0058
2579.00,0.0058
2578.00,0.0057
2577.00,0.0057
2576.00,0.0057
2575.00,0.0057
2574.00,0.0057
2573.00,0.0057
2572.00,0.0057
2571.00,0.0056
2570.00,0.0056
2569.00,0.0056
2568.00,0.0056
2567.00,0.0056
2566.00,0.0057
2565.00,0.0056
2564.00,0.0056
2563.00,0.0056
2562.00,0.0055
2561.00,0.0054
2560.00,0.0054
2559.00,0.0054
2558.00,0.0054
2557.00,0.0054
2556.00,0.0055
2555.00,0.0055
2554.00,0.0056
2553.00,0.0056
2552.00,0.0056
2551.00,0.0056
2550.00,0.0055
2549.00,0.0055
2548.00,0.0054
2547.00,0.0054
2546.00,0.0054
2545.00,0.0054
2544.00,0.0054
2543.00,0.0054
2542.00,0.0054
2541.00,0.0054
2540.00,0.0054
2539.00,0.0054
2538.00,0.0055
2537.00,0.0055
2536.00,0.0054
2535.00,0.0054
2534.00,0.0054
2533.00,0.0054
2532.00,0.0053
2531.00,0.0053
2530.00,0.0053
2529.00,0.0053
2528.00,0.0053
2527.00,0.0053
2526.00,0.0054
2525.00,0.0054
2524.00,0.0054
2523.00,0.0054
2522.00,0.0054
2521.00,0.0054
2520.00,0.0054
2519.00,0.0053
2518.00,0.0053
2517.00,0.0053
2516.00,0.0053
2515.00,0.0053
2514.00,0.0053
2513.00,0.0053
2512.00,0.0053
2511.00,0.0053
2510.00,0.0053
2509.00,0.0052
2508.00,0.0052
2507.00,0.0052
2506.00,0.0052
2505.00,0.0052
2504.00,0.0052
2503.00,0.0052
2502.00,0.0052
2501.00,0.0052
2500.00,0.0052
2499.00,0.0052
2498.00,0.0052
2497.00,0.0053
2496.00,0.0053
2495.00,0.0053
2494.00,0.0053
2493.00,0.0053
2492.00,0.0052
2491.00,0.0052
2490.00,0.0052
2489.00,0.0052
2488.00,0.0052
2487.00,0.0052
2486.00,0.0052
2485.00,0.0052
2484.00,0.0052
2483.00,0.0051
2482.00,0.0051
2481.00,0.0051
2480.00,0.0051
2479.00,0.0051
2478.00,0.0052
2477.00,0.0052
2476.00,0.0052
2475.00,0.0052
2474.00,0.0051
2473.00,0.0051
2472.00,0.0051
2471.00,0.0051
2470.00,0.0051
2469.00,0.0051
2468.00,0.0051
2467.00,0.0051
2466.00,0.0051
2465.00,0.0052
2464.00,0.0052
2463.00,0.0052
2462.00,0.0052
2461.00,0.0052
2460.00,0.0052
2459.00,0.0052
2458.00,0.0051
2457.00,0.0051
2456.00,0.0051
2455.00,0.0050
2454.00,0.0051
2453.00,0.0051
2452.00,0.0051
2451.00,0.0052
2450.00,0.0052
2449.00,0.0052
2448.00,0.0052
2447.00,0.0052
2446.00,0.0051
2445.00,0.0051
2444.00,0.0051
2443.00,0.0050
2442.00,0.0050
2441.00,0.0050
2440.00,0.0050
2439.00,0.0050
2438.00,0.0050
2437.00,0.0049
2436.00,0.0049
2435.00,0.0049
2434.00,0.0049
2433.00,0.0049
2432.00,0.0049
2431.00,0.0049
2430.00,0.0049
2429.00,0.0049
2428.00,0.0049
2427.00,0.0049
2426.00,0.0049
2425.00,0.0049
2424.00,0.0049
2423.00,0.0048
2422.00,0.0048
2421.00,0.0048
2420.00,0.0048
2419.00,0.0048
2418.00,0.0048
2417.00,0.0048
2416.00,0.0048
2415.00,0.0049
2414.00,0.0049
2413.00,0.0049
2412.00,0.0049
2411.00,0.0048
2410.00,0.0048
2409.00,0.0047
2408.00,0.0047
2407.00,0.0047
2406.00,0.0047
2405.00,0.0047
2404.00,0.0047
2403.00,0.0047
2402.00,0.0047
2401.00,0.0047
2400.00,0.0046
2399.00,0.0046
2398.00,0.0046
2397.00,0.0046
2396.00,0.0046
2395.00,0.0046
2394.00,0.0046
2393.00,0.0045
2392.00,0.0045
2391.00,0.0045
2390.00,0.0045
2389.00,0.0045
2388.00,0.0045
2387.00,0.0045
2386.00,0.0045
2385.00,0.0045
2384.00,0.0045
2383.00,0.0046
2382.00,0.0046
2381.00,0.0046
2380.00,0.0045
2379.00,0.0044
2378.00,0.0043
2377.00,0.0043
2376.00,0.0042
2375.00,0.0041
2374.00,0.0040
2373.00,0.0040
2372.00,0.0040
2371.00,0.0040
2370.00,0.0041
2369.00,0.0041
2368.00,0.0042
2367.00,0.0041
2366.00,0.0041
2365.00,0.0040
2364.00,0.0039
2363.00,0.0039
2362.00,0.0040
2361.00,0.0042
2360.00,0.0043
2359.00,0.0043
2358.00,0.0042
2357.00,0.0041
2356.00,0.0041
2355.00,0.0041
2354.00,0.0041
2353.00,0.0041
2352.00,0.0041
2351.00,0.0040
2350.00,0.0039
2349.00,0.0039
2348.00,0.0039
2347.00,0.0040
2346.00,0.0042
2345.00,0.0042
2344.00,0.0041
2343.00,0.0040
2342.00,0.0040
2341.00,0.0040
2340.00,0.0040
2339.00,0.0040
2338.00,0.0040
2337.00,0.0040
2336.00,0.0039
2335.00,0.0039
2334.00,0.0039
2333.00,0.0040
2332.00,0.0041
2331.00,0.0041
2330.00,0.0041
2329.00,0.0042
2328.00,0.0042
2327.00,0.0044
2326.00,0.0045
2325.00,0.0045
2324.00,0.0046
2323.00,0.0045
2322.00,0.0045
2321.00,0.0044
2320.00,0.0043
2319.00,0.0043
2318.00,0.0042
2317.00,0.0042
2316.00,0.0042
2315.00,0.0042
2314.00,0.0042
2313.00,0.0042
2312.00,0.0041
2311.00,0.0042
2310.00,0.0042
2309.00,0.0043
2308.00,0.0043
2307.00,0.0043
2306.00,0.0043
2305.00,0.0043
2304.00,0.0043
2303.00,0.0043
2302.00,0.0043
2301.00,0.0043
2300.00,0.0042
2299.00,0.0042
2298.00,0.0043
2297.00,0.0043
2296.00,0.0043
2295.00,0.0043
2294.00,0.0044
2293.00,0.0044
2292.00,0.0045
2291.00,0.0045
2290.00,0.0046
2289.00,0.0046
2288.00,0.0046
2287.00,0.0046
2286.00,0.0046
2285.00,0.0046
2284.00,0.0046
2283.00,0.0045
2282.00,0.0045
2281.00,0.0045
2280.00,0.0045
2279.00,0.0045
2278.00,0.0044
2277.00,0.0044
2276.00,0.0044
2275.00,0.0043
2274.00,0.0043
2273.00,0.0043
2272.00,0.0043
2271.00,0.0043
2270.00,0.0043
2269.00,0.0043
2268.00,0.0043
2267.00,0.0043
2266.00,0.0043
2265.00,0.0044
2264.00,0.0044
2263.00,0.0044
2262.00,0.0044
2261.00,0.0044
2260.00,0.0044
2259.00,0.0045
2258.00,0.0044
2257.00,0.0043
2256.00,0.0042
2255.00,0.0041
2254.00,0.0041
2253.00,0.0041
2252.00,0.0042
2251.00,0.0043
2250.00,0.0043
2249.00,0.0043
2248.00,0.0042
2247.00,0.0041
2246.00,0.0040
2245.00,0.0040
2244.00,0.0040
2243.00,0.0041
2242.00,0.0041
2241.00,0.0042
2240.00,0.0042
2239.00,0.0042
2238.00,0.0042
2237.00,0.0042
2236.00,0.0043
2235.00,0.0043
2234.00,0.0044
2233.00,0.0045
2232.00,0.0046
2231.00,0.0046
2230.00,0.0045
2229.00,0.0044
2228.00,0.0044
2227.00,0.0044
2226.00,0.0043
2225.00,0.0043
2224.00,0.0043
2223.00,0.0042
2222.00,0.0042
2221.00,0.0042
2220.00,0.0043
2219.00,0.0043
2218.00,0.0043
2217.00,0.0043
2216.00,0.0043
2215.00,0.0043
2214.00,0.0043
2213.00,0.0044
2212.00,0.0044
2211.00,0.0044
2210.00,0.0044
2209.00,0.0043
2208.00,0.0043
2207.00,0.0042
2206.00,0.0040
2205.00,0.0039
2204.00,0.0039
2203.00,0.0039
2202.00,0.0040
2201.00,0.0041
2200.00,0.0042
2199.00,0.0043
2198.00,0.0044
2197.00,0.0045
2196.00,0.0044
2195.00,0.0042
2194.00,0.0041
2193.00,0.0040
2192.00,0.0040
2191.00,0.0040
2190.00,0.0041
2189.00,0.0043
2188.00,0.0044
2187.00,0.0046
2186.00,0.0047
2185.00,0.0047
2184.00,0.0046
2183.00,0.0044
2182.00,0.0043
2181.00,0.0042
2180.00,0.0042
2179.00,0.0041
2178.00,0.0039
2177.00,0.0038
2176.00,0.0037
2175.00,0.0037
2174.00,0.0039
2173.00,0.0041
2172.00,0.0043
2171.00,0.0044
2170.00,0.0045
2169.00,0.0046
2168.00,0.0047
2167.00,0.0047
2166.00,0.0048
2165.00,0.0049
2164.00,0.0049
2163.00,0.0050
2162.00,0.0048
2161.00,0.0044
2160.00,0.0039
2159.00,0.0035
2158.00,0.0033
2157.00,0.0033
2156.00,0.0033
2155.00,0.0032
2154.00,0.0032
2153.00,0.0031
2152.00,0.0031
2151.00,0.0031
2150.00,0.0030
2149.00,0.0030
2148.00,0.0029
2147.00,0.0029
2146.00,0.0029
2145.00,0.0029
2144.00,0.0029
2143.00,0.0030
2142.00,0.0030
2141.00,0.0031
2140.00,0.0031
2139.00,0.0032
2138.00,0.0032
2137.00,0.0031
2136.00,0.0029
2135.00,0.0027
2134.00,0.0026
2133.00,0.0027
2132.00,0.0028
2131.00,0.0028
2130.00,0.0028
2129.00,0.0029
2128.00,0.0029
2127.00,0.0030
2126.00,0.0031
2125.00,0.0032
2124.00,0.0032
2123.00,0.0031
2122.00,0.0031
2121.00,0.0031
2120.00,0.0032
2119.00,0.0032
2118.00,0.0033
2117.00,0.0034
2116.00,0.0035
2115.00,0.0035
2114.00,0.0035
2113.00,0.0034
2112.00,0.0034
2111.00,0.0035
2110.00,0.0035
2109.00,0.0035
2108.00,0.0035
2107.00,0.0035
2106.00,0.0035
2105.00,0.0035
2104.00,0.0034
2103.00,0.0034
2102.00,0.0034
2101.00,0.0034
2100.00,0.0034
2099.00,0.0033
2098.00,0.0033
2097.00,0.0033
2096.00,0.0032
2095.00,0.0032
2094.00,0.0031
2093.00,0.0032
2092.00,0.0032
2091.00,0.0033
2090.00,0.0032
2089.00,0.0032
2088.00,0.0031
2087.00,0.0030
2086.00,0.0031
2085.00,0.0031
2084.00,0.0032
2083.00,0.0032
2082.00,0.0031
2081.00,0.0031
2080.00,0.0031
2079.00,0.0032
2078.00,0.0032
2077.00,0.0033
2076.00,0.0034
2075.00,0.0034
2074.00,0.0034
2073.00,0.0034
2072.00,0.0034
2071.00,0.0034
2070.00,0.0033
2069.00,0.0032
2068.00,0.0032
2067.00,0.0030
2066.00,0.0030
2065.00,0.0029
2064.00,0.0029
2063.00,0.0029
2062.00,0.0029
2061.00,0.0029
2060.00,0.0029
2059.00,0.0029
2058.00,0.0030
2057.00,0.0030
2056.00,0.0031
2055.00,0.0031
2054.00,0.0032
2053.00,0.0033
2052.00,0.0033
2051.00,0.0033
2050.00,0.0033
2049.00,0.0032
2048.00,0.0031
2047.00,0.0031
2046.00,0.0031
2045.00,0.0032
2044.00,0.0032
2043.00,0.0033
2042.00,0.0034
2041.00,0.0034
2040.00,0.0034
2039.00,0.0035
2038.00,0.0037
2037.00,0.0038
2036.00,0.0038
2035.00,0.0037
2034.00,0.0034
2033.00,0.0032
2032.00,0.0031
2031.00,0.0031
2030.00,0.0031
2029.00,0.0031
2028.00,0.0031
2027.00,0.0030
2026.00,0.0029
2025.00,0.0029
2024.00,0.0029
2023.00,0.0030
2022.00,0.0032
2021.00,0.0033
2020.00,0.0033
2019.00,0.0032
2018.00,0.0032
2017.00,0.0031
2016.00,0.0031
2015.00,0.0031
2014.00,0.0032
2013.00,0.0032
2012.00,0.0033
2011.00,0.0032
2010.00,0.0031
2009.00,0.0031
2008.00,0.0031
2007.00,0.0030
2006.00,0.0030
2005.00,0.0030
2004.00,0.0030
2003.00,0.0030
2002.00,0.0029
2001.00,0.0028
2000.00,0.0028
1999.00,0.0029
1998.00,0.0030
1997.00,0.0032
1996.00,0.0033
1995.00,0.0033
1994.00,0.0033
1993.00,0.0032
1992.00,0.0032
1991.00,0.0032
1990.00,0.0032
1989.00,0.0033
1988.00,0.0032
1987.00,0.0030
1986.00,0.0029
1985.00,0.0030
1984.00,0.0033
1983.00,0.0036
1982.00,0.0039
1981.00,0.0040
1980.00,0.0039
1979.00,0.0037
1978.00,0.0033
1977.00,0.0031
1976.00,0.0029
1975.00,0.0027
1974.00,0.0026
1973.00,0.0026
1972.00,0.0027
1971.00,0.0028
1970.00,0.0030
1969.00,0.0032
1968.00,0.0032
1967.00,0.0031
1966.00,0.0029
1965.00,0.0029
1964.00,0.0029
1963.00,0.0029
1962.00,0.0028
1961.00,0.0026
1960.00,0.0026
1959.00,0.0025
1958.00,0.0025
1957.00,0.0025
1956.00,0.0024
1955.00,0.0023
1954.00,0.0023
1953.00,0.0023
1952.00,0.0023
1951.00,0.0023
1950.00,0.0023
1949.00,0.0024
1948.00,0.0025
1947.00,0.0025
1946.00,0.0026
1945.00,0.0026
1944.00,0.0026
1943.00,0.0026
1942.00,0.0025
1941.00,0.0024
1940.00,0.0022
1939.00,0.0021
1938.00,0.0020
1937.00,0.0021
1936.00,0.0022
1935.00,0.0023
1934.00,0.0024
1933.00,0.0025
1932.00,0.0025
1931.00,0.0024
1930.00,0.0023
1929.00,0.0023
1928.00,0.0022
1927.00,0.0022
1926.00,0.0022
1925.00,0.0022
1924.00,0.0022
1923.00,0.0022
1922.00,0.0022
1921.00,0.0023
1920.00,0.0025
1919.00,0.0025
1918.00,0.0024
1917.00,0.0022
1916.00,0.0021
1915.00,0.0021
1914.00,0.0021
1913.00,0.0021
1912.00,0.0021
1911.00,0.0020
1910.00,0.0020
1909.00,0.0020
1908.00,0.0021
1907.00,0.0021
1906.00,0.0021
1905.00,0.0021
1904.00,0.0021
1903.00,0.0020
1902.00,0.0020
1901.00,0.0020
1900.00,0.0020
1899.00,0.0021
1898.00,0.0021
1897.00,0.0021
1896.00,0.0021
1895.00,0.0020
1894.00,0.0020
1893.00,0.0020
1892.00,0.0020
1891.00,0.0019
1890.00,0.0019
1889.00,0.0018
1888.00,0.0018
1887.00,0.0019
1886.00,0.0019
1885.00,0.0019
1884.00,0.0018
1883.00,0.0018
1882.00,0.0018
1881.00,0.0018
1880.00,0.0018
1879.00,0.0018
1878.00,0.0017
1877.00,0.0017
1876.00,0.0017
1875.00,0.0017
1874.00,0.0018
1873.00,0.0018
1872.00,0.0019
1871.00,0.0020
1870.00,0.0020
1869.00,0.0019
1868.00,0.0017
1867.00,0.0016
1866.00,0.0016
1865.00,0.0017
1864.00,0.0017
1863.00,0.0017
1862.00,0.0016
1861.00,0.0016
1860.00,0.0015
1859.00,0.0015
1858.00,0.0015
1857.00,0.0016
1856.00,0.0015
1855.00,0.0015
1854.00,0.0015
1853.00,0.0015
1852.00,0.0016
1851.00,0.0016
1850.00,0.0016
1849.00,0.0016
1848.00,0.0017
1847.00,0.0017
1846.00,0.0018
1845.00,0.0017
1844.00,0.0015
1843.00,0.0014
1842.00,0.0013
1841.00,0.0014
1840.00,0.0015
1839.00,0.0015
1838.00,0.0014
1837.00,0.0014
1836.00,0.0014
1835.00,0.0014
1834.00,0.0015
1833.00,0.0016
1832.00,0.0017
1831.00,0.0016
1830.00,0.0013
1829.00,0.0012
1828.00,0.0011
1827.00,0.0011
1826.00,0.0011
1825.00,0.0011
1824.00,0.0011
1823.00,0.0011
1822.00,0.0012
1821.00,0.0013
1820.00,0.0013
1819.00,0.0012
1818.00,0.0012
1817.00,0.0012
1816.00,0.0012
1815.00,0.0012
1814.00,0.0012
1813.00,0.0012
1812.00,0.0012
1811.00,0.0011
1810.00,0.0011
1809.00,0.0012
1808.00,0.0013
1807.00,0.0013
1806.00,0.0013
1805.00,0.0014
1804.00,0.0014
1803.00,0.0015
1802.00,0.0015
1801.00,0.0014
1800.00,0.0014
1799.00,0.0015
1798.00,0.0016
1797.00,0.0018
1796.00,0.0019
1795.00,0.0021
1794.00,0.0022
1793.00,0.0022
1792.00,0.0020
1791.00,0.0017
1790.00,0.0017
1789.00,0.0018
1788.00,0.0020
1787.00,0.0021
1786.00,0.0022
1785.00,0.0022
1784.00,0.0022
1783.00,0.0023
1782.00,0.0023
1781.00,0.0023
1780.00,0.0023
1779.00,0.0024
1778.00,0.0026
1777.00,0.0028
1776.00,0.0030
1775.00,0.0031
1774.00,0.0033
1773.00,0.0033
1772.00,0.0032
1771.00,0.0031
1770.00,0.0031
1769.00,0.0033
1768.00,0.0034
1767.00,0.0034
1766.00,0.0035
1765.00,0.0037
1764.00,0.0038
1763.00,0.0038
1762.00,0.0038
1761.00,0.0038
1760.00,0.0039
1759.00,0.0041
1758.00,0.0042
1757.00,0.0043
1756.00,0.0044
1755.00,0.0045
1754.00,0.0047
1753.00,0.0050
1752.00,0.0052
1751.00,0.0054
1750.00,0.0054
1749.00,0.0053
1748.00,0.0054
1747.00,0.0055
1746.00,0.0056
1745.00,0.0057
1744.00,0.0058
1743.00,0.0059
1742.00,0.0061
1741.00,0.0064
1740.00,0.0066
1739.00,0.0068
1738.00,0.0070
1737.00,0.0074
1736.00,0.0078
1735.00,0.0082
1734.00,0.0083
1733.00,0.0082
1732.00,0.0081
1731.00,0.0081
1730.00,0.0082
1729.00,0.0084
1728.00,0.0087
1727.00,0.0090
1726.00,0.0091
1725.00,0.0093
1724.00,0.0095
1723.00,0.0096
1722.00,0.0097
1721.00,0.0097
1720.00,0.0097
1719.00,0.0098
1718.00,0.0100
1717.00,0.0102
1716.00,0.0102
1715.00,0.0101
1714.00,0.0101
1713.00,0.0101
1712.00,0.0103
1711.00,0.0104
1710.00,0.0105
1709.00,0.0106
1708.00,0.0107
1707.00,0.0108
1706.00,0.0108
1705.00,0.0109
1704.00,0.0111
1703.00,0.0113
1702.00,0.0116
1701.00,0.0120
1700.00,0.0123
1699.00,0.0123
1698.00,0.0124
1697.00,0.0124
1696.00,0.0123
1695.00,0.0123
1694.00,0.0124
1693.00,0.0126
1692.00,0.0127
1691.00,0.0129
1690.00,0.0130
1689.00,0.0132
1688.00,0.0133
1687.00,0.0133
1686.00,0.0133
1685.00,0.0134
1684.00,0.0134
1683.00,0.0136
1682.00,0.0139
1681.00,0.0142
1680.00,0.0144
1679.00,0.0146
1678.00,0.0148
1677.00,0.0150
1676.00,0.0153
1675.00,0.0156
1674.00,0.0157
1673.00,0.0158
1672.00,0.0160
1671.00,0.0162
1670.00,0.0164
1669.00,0.0165
1668.00,0.0166
1667.00,0.0167
1666.00,0.0169
1665.00,0.0171
1664.00,0.0173
1663.00,0.0175
1662.00,0.0177
1661.00,0.0178
1660.00,0.0179
1659.00,0.0181
1658.00,0.0182
1657.00,0.0182
1656.00,0.0182
1655.00,0.0182
1654.00,0.0184
1653.00,0.0189
1652.00,0.0192
1651.00,0.0194
1650.00,0.0194
1649.00,0.0195
1648.00,0.0197
1647.00,0.0201
1646.00,0.0202
1645.00,0.0203
1644.00,0.0204
1643.00,0.0205
1642.00,0.0206
1641.00,0.0206
1640.00,0.0207
1639.00,0.0207
1638.00,0.0207
1637.00,0.0208
1636.00,0.0211
1635.00,0.0213
1634.00,0.0214
1633.00,0.0215
1632.00,0.0216
1631.00,0.0216
1630.00,0.0217
1629.00,0.0217
1628.00,0.0218
1627.00,0.0219
1626.00,0.0221
1625.00,0.0222
1624.00,0.0224
1623.00,0.0225
1622.00,0.0226
1621.00,0.0226
1620.00,0.0225
1619.00,0.0226
1618.00,0.0227
1617.00,0.0229
1616.00,0.0230
1615.00,0.0230
1614.00,0.0229
1613.00,0.0228
1612.00,0.0229
1611.00,0.0230
1610.00,0.0230
1609.00,0.0231
1608.00,0.0232
1607.00,0.0232
1606.00,0.0232
1605.00,0.0231
1604.00,0.0231
1603.00,0.0232
1602.00,0.0232
1601.00,0.0232
1600.00,0.0232
1599.00,0.0232
1598.00,0.0232
1597.00,0.0232
1596.00,0.0232
1595.00,0.0232
1594.00,0.0232
1593.00,0.0232
1592.00,0.0232
1591.00,0.0232
1590.00,0.0232
1589.00,0.0232
1588.00,0.0232
1587.00,0.0232
1586.00,0.0232
1585.00,0.0231
1584.00,0.0230
1583.00,0.0231
1582.00,0.0231
1581.00,0.0230
1580.00,0.0230
1579.00,0.0229
1578.00,0.0229
1577.00,0.0229
1576.00,0.0230
1575.00,0.0230
1574.00,0.0229
1573.00,0.0227
1572.00,0.0226
1571.00,0.0226
1570.00,0.0226
1569.00,0.0226
1568.00,0.0226
1567.00,0.0226
1566.00,0.0225
1565.00,0.0225
1564.00,0.0224
1563.00,0.0223
1562.00,0.0220
1561.00,0.0216
1560.00,0.0215
1559.00,0.0221
1558.00,0.0223
1557.00,0.0223
1556.00,0.0222
1555.00,0.0221
1554.00,0.0219
1553.00,0.0217
1552.00,0.0215
1551.00,0.0213
1550.00,0.0211
1549.00,0.0210
1548.00,0.0210
1547.00,0.0210
1546.00,0.0209
1545.00,0.0210
1544.00,0.0210
1543.00,0.0210
1542.00,0.0210
1541.00,0.0208
1540.00,0.0202
1539.00,0.0197
1538.00,0.0196
1537.00,0.0196
1536.00,0.0195
1535.00,0.0194
1534.00,0.0192
1533.00,0.0189
1532.00,0.0188
1531.00,0.0187
1530.00,0.0187
1529.00,0.0187
1528.00,0.0186
1527.00,0.0185
1526.00,0.0185
1525.00,0.0185
1524.00,0.0184
1523.00,0.0183
1522.00,0.0182
1521.00,0.0179
1520.00,0.0176
1519.00,0.0173
1518.00,0.0171
1517.00,0.0169
1516.00,0.0168
1515.00,0.0168
1514.00,0.0168
1513.00,0.0169
1512.00,0.0168
1511.00,0.0167
1510.00,0.0165
1509.00,0.0164
1508.00,0.0164
1507.00,0.0160
1506.00,0.0157
1505.00,0.0157
1504.00,0.0158
1503.00,0.0157
1502.00,0.0156
1501.00,0.0155
1500.00,0.0154
1499.00,0.0153
1498.00,0.0152
1497.00,0.0152
1496.00,0.0152
1495.00,0.0151
1494.00,0.0151
1493.00,0.0152
1492.00,0.0153
1491.00,0.0153
1490.00,0.0152
1489.00,0.0150
1488.00,0.0148
1487.00,0.0147
1486.00,0.0148
1485.00,0.0148
1484.00,0.0149
1483.00,0.0149
1482.00,0.0150
1481.00,0.0151
1480.00,0.0152
1479.00,0.0152
1478.00,0.0152
1477.00,0.0153
1476.00,0.0155
1475.00,0.0158
1474.00,0.0162
1473.00,0.0164
1472.00,0.0163
1471.00,0.0161
1470.00,0.0160
1469.00,0.0160
1468.00,0.0161
1467.00,0.0161
1466.00,0.0162
1465.00,0.0164
1464.00,0.0165
1463.00,0.0165
1462.00,0.0165
1461.00,0.0165
1460.00,0.0165
1459.00,0.0167
1458.00,0.0170
1457.00,0.0173
1456.00,0.0173
1455.00,0.0171
1454.00,0.0171
1453.00,0.0171
1452.00,0.0171
1451.00,0.0171
1450.00,0.0172
1449.00,0.0173
1448.00,0.0173
1447.00,0.0173
1446.00,0.0173
1445.00,0.0173
1444.00,0.0174
1443.00,0.0174
1442.00,0.0175
1441.00,0.0176
1440.00,0.0177
1439.00,0.0177
1438.00,0.0178
1437.00,0.0180
1436.00,0.0181
1435.00,0.0181
1434.00,0.0181
1433.00,0.0181
1432.00,0.0182
1431.00,0.0182
1430.00,0.0182
1429.00,0.0183
1428.00,0.0184
1427.00,0.0185
1426.00,0.0185
1425.00,0.0185
1424.00,0.0186
1423.00,0.0186
1422.00,0.0186
1421.00,0.0186
1420.00,0.0187
1419.00,0.0188
1418.00,0.0188
1417.00,0.0188
1416.00,0.0189
1415.00,0.0190
1414.00,0.0190
1413.00,0.0190
1412.00,0.0190
1411.00,0.0190
1410.00,0.0191
1409.00,0.0191
1408.00,0.0191
1407.00,0.0191
1406.00,0.0191
1405.00,0.0192
1404.00,0.0193
1403.00,0.0194
1402.00,0.0194
1401.00,0.0194
1400.00,0.0195
1399.00,0.0195
1398.00,0.0196
1397.00,0.0196
1396.00,0.0197
1395.00,0.0197
1394.00,0.0198
1393.00,0.0198
1392.00,0.0198
1391.00,0.0199
1390.00,0.0199
1389.00,0.0199
1388.00,0.0200
1387.00,0.0201
1386.00,0.0201
1385.00,0.0201
1384.00,0.0202
1383.00,0.0203
1382.00,0.0203
1381.00,0.0204
1380.00,0.0205
1379.00,0.0205
1378.00,0.0205
1377.00,0.0205
1376.00,0.0204
1375.00,0.0204
1374.00,0.0204
1373.00,0.0204
1372.00,0.0205
1371.00,0.0205
1370.00,0.0205
1369.00,0.0204
1368.00,0.0204
1367.00,0.0203
1366.00,0.0203
1365.00,0.0202
1364.00,0.0202
1363.00,0.0201
1362.00,0.0201
1361.00,0.0201
1360.00,0.0200
1359.00,0.0200
1358.00,0.0200
1357.00,0.0199
1356.00,0.0199
1355.00,0.0198
1354.00,0.0198
1353.00,0.0197
1352.00,0.0196
1351.00,0.0196
1350.00,0.0195
1349.00,0.0195
1348.00,0.0195
1347.00,0.0194
1346.00,0.0194
1345.00,0.0194
1344.00,0.0193
1343.00,0.0193
1342.00,0.0192
1341.00,0.0192
1340.00,0.0192
1339.00,0.0191
1338.00,0.0191
1337.00,0.0190
1336.00,0.0190
1335.00,0.0190
1334.00,0.0190
1333.00,0.0189
1332.00,0.0189
1331.00,0.0189
1330.00,0.0188
1329.00,0.0188
1328.00,0.0188
1327.00,0.0187
1326.00,0.0186
1325.00,0.0186
1324.00,0.0186
1323.00,0.0186
1322.00,0.0187
1321.00,0.0187
1320.00,0.0188
1319.00,0.0188
1318.00,0.0188
1317.00,0.0187
1316.00,0.0187
1315.00,0.0187
1314.00,0.0187
1313.00,0.0187
1312.00,0.0187
1311.00,0.0187
1310.00,0.0186
1309.00,0.0186
1308.00,0.0186
1307.00,0.0187
1306.00,0.0187
1305.00,0.0187
1304.00,0.0187
1303.00,0.0187
1302.00,0.0187
1301.00,0.0187
1300.00,0.0187
1299.00,0.0186
1298.00,0.0187
1297.00,0.0187
1296.00,0.0188
1295.00,0.0188
1294.00,0.0188
1293.00,0.0188
1292.00,0.0188
1291.00,0.0189
1290.00,0.0189
1289.00,0.0189
1288.00,0.0190
1287.00,0.0190
1286.00,0.0190
1285.00,0.0189
1284.00,0.0189
1283.00,0.0190
1282.00,0.0190
1281.00,0.0190
1280.00,0.0191
1279.00,0.0191
1278.00,0.0192
1277.00,0.0192
1276.00,0.0193
1275.00,0.0193
1274.00,0.0193
1273.00,0.0194
1272.00,0.0194
1271.00,0.0195
1270.00,0.0195
1269.00,0.0196
1268.00,0.0196
1267.00,0.0196
1266.00,0.0197
1265.00,0.0197
1264.00,0.0198
1263.00,0.0199
1262.00,0.0200
1261.00,0.0201
1260.00,0.0202
1259.00,0.0203
1258.00,0.0203
1257.00,0.0204
1256.00,0.0205
1255.00,0.0205
1254.00,0.0205
1253.00,0.0206
1252.00,0.0206
1251.00,0.0207
1250.00,0.0208
1249.00,0.0209
1248.00,0.0210
1247.00,0.0211
1246.00,0.0212
1245.00,0.0213
1244.00,0.0214
1243.00,0.0215
1242.00,0.0215
1241.00,0.0216
1240.00,0.0217
1239.00,0.0218
1238.00,0.0218
1237.00,0.0218
1236.00,0.0219
1235.00,0.0220
1234.00,0.0220
1233.00,0.0221
1232.00,0.0221
1231.00,0.0222
1230.00,0.0222
1229.00,0.0222
1228.00,0.0222
1227.00,0.0223
1226.00,0.0223
1225.00,0.0223
1224.00,0.0223
1223.00,0.0224
1222.00,0.0224
1221.00,0.0225
1220.00,0.0225
1219.00,0.0225
1218.00,0.0225
1217.00,0.0225
1216.00,0.0225
1215.00,0.0226
1214.00,0.0226
1213.00,0.0227
1212.00,0.0228
1211.00,0.0228
1210.00,0.0229
1209.00,0.0230
1208.00,0.0230
1207.00,0.0231
1206.00,0.0232
1205.00,0.0233
1204.00,0.0233
1203.00,0.0234
1202.00,0.0234
1201.00,0.0235
1200.00,0.0236
1199.00,0.0237
1198.00,0.0237
1197.00,0.0238
1196.00,0.0239
1195.00,0.0239
1194.00,0.0240
1193.00,0.0240
1192.00,0.0241
1191.00,0.0242
1190.00,0.0242
1189.00,0.0243
1188.00,0.0244
1187.00,0.0245
1186.00,0.0247
1185.00,0.0248
1184.00,0.0250
1183.00,0.0251
1182.00,0.0252
1181.00,0.0253
1180.00,0.0255
1179.00,0.0256
1178.00,0.0258
1177.00,0.0260
1176.00,0.0261
1175.00,0.0262
1174.00,0.0264
1173.00,0.0265
1172.00,0.0266
1171.00,0.0268
1170.00,0.0269
1169.00,0.0272
1168.00,0.0274
1167.00,0.0276
1166.00,0.0278
1165.00,0.0280
1164.00,0.0281
1163.00,0.0283
1162.00,0.0283
1161.00,0.0283
1160.00,0.0283
1159.00,0.0283
1158.00,0.0284
1157.00,0.0285
1156.00,0.0286
1155.00,0.0288
1154.00,0.0289
1153.00,0.0289
1152.00,0.0290
1151.00,0.0291
1150.00,0.0292
1149.00,0.0293
1148.00,0.0294
1147.00,0.0296
1146.00,0.0297
1145.00,0.0299
1144.00,0.0301
1143.00,0.0303
1142.00,0.0304
1141.00,0.0306
1140.00,0.0308
1139.00,0.0310
1138.00,0.0311
1137.00,0.0313
1136.00,0.0316
1135.00,0.0319
1134.00,0.0321
1133.00,0.0323
1132.00,0.0326
1131.00,0.0328
1130.00,0.0331
1129.00,0.0335
1128.00,0.0340
1127.00,0.0345
1126.00,0.0351
1125.00,0.0356
1124.00,0.0362
1123.00,0.0368
1122.00,0.0375
1121.00,0.0383
1120.00,0.0390
1119.00,0.0397
1118.00,0.0402
1117.00,0.0406
1116.00,0.0409
1115.00,0.0411
1114.00,0.0413
1113.00,0.0414
1112.00,0.0415
1111.00,0.0417
1110.00,0.0418
1109.00,0.0421
1108.00,0.0424
1107.00,0.0427
1106.00,0.0430
1105.00,0.0434
1104.00,0.0437
1103.00,0.0441
1102.00,0.0445
1101.00,0.0449
1100.00,0.0452
1099.00,0.0455
1098.00,0.0458
1097.00,0.0460
1096.00,0.0463
1095.00,0.0466
1094.00,0.0469
1093.00,0.0472
1092.00,0.0476
1091.00,0.0479
1090.00,0.0481
1089.00,0.0483
1088.00,0.0485
1087.00,0.0487
1086.00,0.0489
1085.00,0.0492
1084.00,0.0495
1083.00,0.0497
1082.00,0.0498
1081.00,0.0500
1080.00,0.0502
1079.00,0.0505
1078.00,0.0507
1077.00,0.0508
1076.00,0.0511
1075.00,0.0513
1074.00,0.0515
1073.00,0.0516
1072.00,0.0518
1071.00,0.0521
1070.00,0.0524
1069.00,0.0527
1068.00,0.0530
1067.00,0.0533
1066.00,0.0535
1065.00,0.0537
1064.00,0.0540
1063.00,0.0543
1062.00,0.0546
1061.00,0.0548
1060.00,0.0551
1059.00,0.0554
1058.00,0.0556
1057.00,0.0559
1056.00,0.0563
1055.00,0.0567
1054.00,0.0570
1053.00,0.0574
1052.00,0.0579
1051.00,0.0584
1050.00,0.0590
1049.00,0.0595
1048.00,0.0600
1047.00,0.0604
1046.00,0.0607
1045.00,0.0611
1044.00,0.0615
1043.00,0.0620
1042.00,0.0626
1041.00,0.0633
1040.00,0.0640
1039.00,0.0647
1038.00,0.0654
1037.00,0.0661
1036.00,0.0667
1035.00,0.0673
1034.00,0.0677
1033.00,0.0680
1032.00,0.0683
1031.00,0.0684
1030.00,0.0684
1029.00,0.0682
1028.00,0.0679
1027.00,0.0674
1026.00,0.0667
1025.00,0.0661
1024.00,0.0656
1023.00,0.0652
1022.00,0.0649
1021.00,0.0646
1020.00,0.0643
1019.00,0.0641
1018.00,0.0640
1017.00,0.0640
1016.00,0.0640
1015.00,0.0642
1014.00,0.0644
1013.00,0.0647
1012.00,0.0651
1011.00,0.0654
1010.00,0.0658
1009.00,0.0660
1008.00,0.0663
1007.00,0.0665
1006.00,0.0666
1005.00,0.0666
1004.00,0.0666
1003.00,0.0665
1002.00,0.0662
1001.00,0.0659
1000.00,0.0655
999.00,0.0649
998.00,0.0642
997.00,0.0634
996.00,0.0626
995.00,0.0618
994.00,0.0610
993.00,0.0603
992.00,0.0596
991.00,0.0589
990.00,0.0581
989.00,0.0573
988.00,0.0566
987.00,0.0559
986.00,0.0553
985.00,0.0548
984.00,0.0543
983.00,0.0537
982.00,0.0531
981.00,0.0526
980.00,0.0521
979.00,0.0516
978.00,0.0512
977.00,0.0507
976.00,0.0503
975.00,0.0499
974.00,0.0495
973.00,0.0490
972.00,0.0486
971.00,0.0482
970.00,0.0478
969.00,0.0475
968.00,0.0472
967.00,0.0469
966.00,0.0466
965.00,0.0463
964.00,0.0460
963.00,0.0457
962.00,0.0454
961.00,0.0452
960.00,0.0450
959.00,0.0447
958.00,0.0445
957.00,0.0442
956.00,0.0441
955.00,0.0440
954.00,0.0439
953.00,0.0438
952.00,0.0437
951.00,0.0437
950.00,0.0437
949.00,0.0437
948.00,0.0438
947.00,0.0439
946.00,0.0441
945.00,0.0443
944.00,0.0444
943.00,0.0446
942.00,0.0446
941.00,0.0448
940.00,0.0449
939.00,0.0451
938.00,0.0452
937.00,0.0453
936.00,0.0452
935.00,0.0452
934.00,0.0450
933.00,0.0449
932.00,0.0447
931.00,0.0445
930.00,0.0443
929.00,0.0442
928.00,0.0442
927.00,0.0442
926.00,0.0444
925.00,0.0445
924.00,0.0448
923.00,0.0450
922.00,0.0453
921.00,0.0456
920.00,0.0461
919.00,0.0467
918.00,0.0475
917.00,0.0482
916.00,0.0488
915.00,0.0492
914.00,0.0493
913.00,0.0494
912.00,0.0493
911.00,0.0491
910.00,0.0487
909.00,0.0483
908.00,0.0479
907.00,0.0475
906.00,0.0470
905.00,0.0464
904.00,0.0459
903.00,0.0453
902.00,0.0446
901.00,0.0441
900.00,0.0436
899.00,0.0432
898.00,0.0427
897.00,0.0423
896.00,0.0419
895.00,0.0415
894.00,0.0410
893.00,0.0405
892.00,0.0401
891.00,0.0398
890.00,0.0395
889.00,0.0393
888.00,0.0390
887.00,0.0387
886.00,0.0383
885.00,0.0379
884.00,0.0375
883.00,0.0372
882.00,0.0369
881.00,0.0367
880.00,0.0366
879.00,0.0365
878.00,0.0364
877.00,0.0363
876.00,0.0361
875.00,0.0358
874.00,0.0353
873.00,0.0350
872.00,0.0348
871.00,0.0347
870.00,0.0346
869.00,0.0345
868.00,0.0344
867.00,0.0342
866.00,0.0339
865.00,0.0337
864.00,0.0337
863.00,0.0337
862.00,0.0336
861.00,0.0335
860.00,0.0334
859.00,0.0333
858.00,0.0331
857.00,0.0330
856.00,0.0330
855.00,0.0328
854.00,0.0327
853.00,0.0326
852.00,0.0325
851.00,0.0324
850.00,0.0324
849.00,0.0324
848.00,0.0323
847.00,0.0323
846.00,0.0323
845.00,0.0324
844.00,0.0325
843.00,0.0327
842.00,0.0327
841.00,0.0328
840.00,0.0329
839.00,0.0330
838.00,0.0330
837.00,0.0330
836.00,0.0329
835.00,0.0328
834.00,0.0328
833.00,0.0329
832.00,0.0332
831.00,0.0335
830.00,0.0337
829.00,0.0339
828.00,0.0340
827.00,0.0341
826.00,0.0341
825.00,0.0341
824.00,0.0342
823.00,0.0344
822.00,0.0346
821.00,0.0349
820.00,0.0350
819.00,0.0351
818.00,0.0352
817.00,0.0354
816.00,0.0356
815.00,0.0357
814.00,0.0358
813.00,0.0359
812.00,0.0361
811.00,0.0363
810.00,0.0365
809.00,0.0367
808.00,0.0372
807.00,0.0378
806.00,0.0385
805.00,0.0393
804.00,0.0400
803.00,0.0406
802.00,0.0412
801.00,0.0416
800.00,0.0420
799.00,0.0424
798.00,0.0427
797.00,0.0429
796.00,0.0430
795.00,0.0430
794.00,0.0429
793.00,0.0428
792.00,0.0427
791.00,0.0426
790.00,0.0425
789.00,0.0424
788.00,0.0424
787.00,0.0423
786.00,0.0423
785.00,0.0423
784.00,0.0424
783.00,0.0425
782.00,0.0427
781.00,0.0428
780.00,0.0430
779.00,0.0430
778.00,0.0430
777.00,0.0429
776.00,0.0428
775.00,0.0427
774.00,0.0427
773.00,0.0426
772.00,0.0424
771.00,0.0422
770.00,0.0421
769.00,0.0420
768.00,0.0420
767.00,0.0421
766.00,0.0423
765.00,0.0424
764.00,0.0425
763.00,0.0425
762.00,0.0425
761.00,0.0427
760.00,0.0429
759.00,0.0432
758.00,0.0434
757.00,0.0435
756.00,0.0436
755.00,0.0435
754.00,0.0434
753.00,0.0433
752.00,0.0433
751.00,0.0434
750.00,0.0435
749.00,0.0437
748.00,0.0439
747.00,0.0439
746.00,0.0438
745.00,0.0437
744.00,0.0435
743.00,0.0434
742.00,0.0433
741.00,0.0431
740.00,0.0430
739.00,0.0428
738.00,0.0426
737.00,0.0425
736.00,0.0423
735.00,0.0422
734.00,0.0420
733.00,0.0419
732.00,0.0420
731.00,0.0421
730.00,0.0421
729.00,0.0420
728.00,0.0419
727.00,0.0418
726.00,0.0417
725.00,0.0417
724.00,0.0417
723.00,0.0417
722.00,0.0418
721.00,0.0419
720.00,0.0420
719.00,0.0421
718.00,0.0421
717.00,0.0422
716.00,0.0424
715.00,0.0427
714.00,0.0430
713.00,0.0432
712.00,0.0433
711.00,0.0434
710.00,0.0436
709.00,0.0440
708.00,0.0444
707.00,0.0448
706.00,0.0453
705.00,0.0458
704.00,0.0464
703.00,0.0469
702.00,0.0473
701.00,0.0477
700.00,0.0481
699.00,0.0485
698.00,0.0490
697.00,0.0496
696.00,0.0501
695.00,0.0507
694.00,0.0511
693.00,0.0513
692.00,0.0514
691.00,0.0512
690.00,0.0511
689.00,0.0511
688.00,0.0514
687.00,0.0517
686.00,0.0520
685.00,0.0522
684.00,0.0522
683.00,0.0519
682.00,0.0514
681.00,0.0510
680.00,0.0509
679.00,0.0509
678.00,0.0509
677.00,0.0511
676.00,0.0514
675.00,0.0516
674.00,0.0518
673.00,0.0520
672.00,0.0522
671.00,0.0522
670.00,0.0520
669.00,0.0517
668.00,0.0516
667.00,0.0518
666.00,0.0521
665.00,0.0524
664.00,0.0525
663.00,0.0525
662.00,0.0526
661.00,0.0526
660.00,0.0527
659.00,0.0530
658.00,0.0532
657.00,0.0533
656.00,0.0533
655.00,0.0531
654.00,0.0528
653.00,0.0526
652.00,0.0526
651.00,0.0528
650.00,0.0531
