Created as New Dataset,Monday, April 03 2023
cm-1,A
4000.00,0.0148
3999.00,0.0148
3998.00,0.0148
3997.00,0.0148
3996.00,0.0147
3995.00,0.0147
3994.00,0.0147
3993.00,0.0147
3992.00,0.0147
3991.00,0.0148
3990.00,0.0148
3989.00,0.0148
3988.00,0.0148
3987.00,0.0148
3986.00,0.0148
3985.00,0.0148
3984.00,0.0147
3983.00,0.0147
3982.00,0.0147
3981.00,0.0148
3980.00,0.0148
3979.00,0.0148
3978.00,0.0149
3977.00,0.0148
3976.00,0.0148
3975.00,0.0148
3974.00,0.0148
3973.00,0.0148
3972.00,0.0148
3971.00,0.0148
3970.00,0.0148
3969.00,0.0148
3968.00,0.0148
3967.00,0.0148
3966.00,0.0149
3965.00,0.0149
3964.00,0.0149
3963.00,0.0149
3962.00,0.0149
3961.00,0.0149
3960.00,0.0149
3959.00,0.0148
3958.00,0.0148
3957.00,0.0148
3956.00,0.0148
3955.00,0.0148
3954.00,0.0148
3953.00,0.0148
3952.00,0.0149
3951.00,0.0149
3950.00,0.0150
3949.00,0.0150
3948.00,0.0151
3947.00,0.0151
3946.00,0.0150
3945.00,0.0150
3944.00,0.0149
3943.00,0.0149
3942.00,0.0148
3941.00,0.0148
3940.00,0.0148
3939.00,0.0149
3938.00,0.0149
3937.00,0.0149
3936.00,0.0150
3935.00,0.0151
3934.00,0.0152
3933.00,0.0152
3932.00,0.0151
3931.00,0.0151
3930.00,0.0151
3929.00,0.0150
3928.00,0.0150
3927.00,0.0150
3926.00,0.0149
3925.00,0.0149
3924.00,0.0149
3923.00,0.0149
3922.00,0.0150
3921.00,0.0150
3920.00,0.0151
3919.00,0.0151
3918.00,0.0152
3917.00,0.0151
3916.00,0.0151
3915.00,0.0150
3914.00,0.0150
3913.00,0.0149
3912.00,0.0149
3911.00,0.0149
3910.00,0.0149
3909.00,0.0149
3908.00,0.0150
3907.00,0.0151
3906.00,0.0152
3905.00,0.0153
3904.00,0.0155
3903.00,0.0155
3902.00,0.0155
3901.00,0.0155
3900.00,0.0154
3899.00,0.0153
3898.00,0.0153
3897.00,0.0153
3896.00,0.0153
3895.00,0.0153
3894.00,0.0152
3893.00,0.0152
3892.00,0.0152
3891.00,0.0152
3890.00,0.0152
3889.00,0.0153
3888.00,0.0153
3887.00,0.0154
3886.00,0.0154
3885.00,0.0154
3884.00,0.0153
3883.00,0.0153
3882.00,0.0152
3881.00,0.0151
3880.00,0.0151
3879.00,0.0151
3878.00,0.0152
3877.00,0.0152
3876.00,0.0152
3875.00,0.0151
3874.00,0.0151
3873.00,0.0152
3872.00,0.0153
3871.00,0.0154
3870.00,0.0154
3869.00,0.0154
3868.00,0.0154
3867.00,0.0155
3866.00,0.0156
3865.00,0.0155
3864.00,0.0154
3863.00,0.0153
3862.00,0.0154
3861.00,0.0155
3860.00,0.0155
3859.00,0.0154
3858.00,0.0154
3857.00,0.0153
3856.00,0.0154
3855.00,0.0155
3854.00,0.0156
3853.00,0.0154
3852.00,0.0153
3851.00,0.0153
3850.00,0.0154
3849.00,0.0155
3848.00,0.0155
3847.00,0.0154
3846.00,0.0154
3845.00,0.0154
3844.00,0.0154
3843.00,0.0155
3842.00,0.0155
3841.00,0.0155
3840.00,0.0156
3839.00,0.0155
3838.00,0.0155
3837.00,0.0154
3836.00,0.0154
3835.00,0.0153
3834.00,0.0153
3833.00,0.0154
3832.00,0.0154
3831.00,0.0155
3830.00,0.0155
3829.00,0.0155
3828.00,0.0155
3827.00,0.0154
3826.00,0.0154
3825.00,0.0155
3824.00,0.0156
3823.00,0.0157
3822.00,0.0157
3821.00,0.0156
3820.00,0.0156
3819.00,0.0156
3818.00,0.0156
3817.00,0.0156
3816.00,0.0155
3815.00,0.0153
3814.00,0.0153
3813.00,0.0154
3812.00,0.0154
3811.00,0.0154
3810.00,0.0153
3809.00,0.0154
3808.00,0.0155
3807.00,0.0155
3806.00,0.0155
3805.00,0.0155
3804.00,0.0156
3803.00,0.0156
3802.00,0.0155
3801.00,0.0155
3800.00,0.0154
3799.00,0.0155
3798.00,0.0155
3797.00,0.0154
3796.00,0.0154
3795.00,0.0153
3794.00,0.0154
3793.00,0.0153
3792.00,0.0153
3791.00,0.0153
3790.00,0.0153
3789.00,0.0153
3788.00,0.0154
3787.00,0.0154
3786.00,0.0154
3785.00,0.0154
3784.00,0.0154
3783.00,0.0154
3782.00,0.0155
3781.00,0.0155
3780.00,0.0154
3779.00,0.0153
3778.00,0.0153
3777.00,0.0154
3776.00,0.0154
3775.00,0.0154
3774.00,0.0154
3773.00,0.0155
3772.00,0.0156
3771.00,0.0157
3770.00,0.0157
3769.00,0.0157
3768.00,0.0156
3767.00,0.0156
3766.00,0.0156
3765.00,0.0156
3764.00,0.0156
3763.00,0.0157
3762.00,0.0157
3761.00,0.0158
3760.00,0.0157
3759.00,0.0157
3758.00,0.0157
3757.00,0.0158
3756.00,0.0158
3755.00,0.0159
3754.00,0.0160
3753.00,0.0162
3752.00,0.0163
3751.00,0.0164
3750.00,0.0165
3749.00,0.0164
3748.00,0.0163
3747.00,0.0161
3746.00,0.0161
3745.00,0.0161
3744.00,0.0161
3743.00,0.0160
3742.00,0.0160
3741.00,0.0161
3740.00,0.0162
3739.00,0.0162
3738.00,0.0162
3737.00,0.0162
3736.00,0.0162
3735.00,0.0161
3734.00,0.0161
3733.00,0.0161
3732.00,0.0161
3731.00,0.0160
3730.00,0.0160
3729.00,0.0160
3728.00,0.0160
3727.00,0.0160
3726.00,0.0160
3725.00,0.0159
3724.00,0.0159
3723.00,0.0158
3722.00,0.0158
3721.00,0.0157
3720.00,0.0157
3719.00,0.0158
3718.00,0.0158
3717.00,0.0159
3716.00,0.0159
3715.00,0.0159
3714.00,0.0159
3713.00,0.0158
3712.00,0.0158
3711.00,0.0157
3710.00,0.0157
3709.00,0.0157
3708.00,0.0157
3707.00,0.0157
3706.00,0.0156
3705.00,0.0155
3704.00,0.0155
3703.00,0.0154
3702.00,0.0154
3701.00,0.0155
3700.00,0.0156
3699.00,0.0157
3698.00,0.0157
3697.00,0.0157
3696.00,0.0157
3695.00,0.0157
3694.00,0.0157
3693.00,0.0157
3692.00,0.0156
3691.00,0.0157
3690.00,0.0157
3689.00,0.0158
3688.00,0.0159
3687.00,0.0159
3686.00,0.0158
3685.00,0.0158
3684.00,0.0158
3683.00,0.0158
3682.00,0.0157
3681.00,0.0157
3680.00,0.0157
3679.00,0.0156
3678.00,0.0157
3677.00,0.0158
3676.00,0.0159
3675.00,0.0160
3674.00,0.0161
3673.00,0.0162
3672.00,0.0162
3671.00,0.0161
3670.00,0.0159
3669.00,0.0157
3668.00,0.0157
3667.00,0.0158
3666.00,0.0158
3665.00,0.0157
3664.00,0.0157
3663.00,0.0157
3662.00,0.0157
3661.00,0.0157
3660.00,0.0157
3659.00,0.0157
3658.00,0.0159
3657.00,0.0160
3656.00,0.0160
3655.00,0.0160
3654.00,0.0159
3653.00,0.0159
3652.00,0.0159
3651.00,0.0160
3650.00,0.0161
3649.00,0.0161
3648.00,0.0160
3647.00,0.0160
3646.00,0.0160
3645.00,0.0160
3644.00,0.0160
3643.00,0.0160
3642.00,0.0159
3641.00,0.0159
3640.00,0.0158
3639.00,0.0158
3638.00,0.0158
3637.00,0.0157
3636.00,0.0158
3635.00,0.0158
3634.00,0.0159
3633.00,0.0160
3632.00,0.0161
3631.00,0.0162
3630.00,0.0164
3629.00,0.0164
3628.00,0.0164
3627.00,0.0163
3626.00,0.0163
3625.00,0.0163
3624.00,0.0162
3623.00,0.0162
3622.00,0.0162
3621.00,0.0162
3620.00,0.0163
3619.00,0.0164
3618.00,0.0164
3617.00,0.0164
3616.00,0.0165
3615.00,0.0165
3614.00,0.0164
3613.00,0.0165
3612.00,0.0165
3611.00,0.0166
3610.00,0.0166
3609.00,0.0165
3608.00,0.0163
3607.00,0.0162
3606.00,0.0162
3605.00,0.0162
3604.00,0.0161
3603.00,0.0161
3602.00,0.0161
3601.00,0.0160
3600.00,0.0160
3599.00,0.0160
3598.00,0.0160
3597.00,0.0160
3596.00,0.0160
3595.00,0.0161
3594.00,0.0161
3593.00,0.0162
3592.00,0.0163
3591.00,0.0163
3590.00,0.0164
3589.00,0.0163
3588.00,0.0162
3587.00,0.0161
3586.00,0.0161
3585.00,0.0161
3584.00,0.0162
3583.00,0.0161
3582.00,0.0161
3581.00,0.0161
3580.00,0.0160
3579.00,0.0160
3578.00,0.0160
3577.00,0.0160
3576.00,0.0160
3575.00,0.0160
3574.00,0.0160
3573.00,0.0161
3572.00,0.0161
3571.00,0.0161
3570.00,0.0162
3569.00,0.0162
3568.00,0.0163
3567.00,0.0163
3566.00,0.0163
3565.00,0.0162
3564.00,0.0162
3563.00,0.0161
3562.00,0.0161
3561.00,0.0160
3560.00,0.0160
3559.00,0.0160
3558.00,0.0160
3557.00,0.0160
3556.00,0.0161
3555.00,0.0161
3554.00,0.0161
3553.00,0.0161
3552.00,0.0161
3551.00,0.0161
3550.00,0.0162
3549.00,0.0162
3548.00,0.0163
3547.00,0.0164
3546.00,0.0164
3545.00,0.0164
3544.00,0.0163
3543.00,0.0162
3542.00,0.0162
3541.00,0.0161
3540.00,0.0161
3539.00,0.0160
3538.00,0.0161
3537.00,0.0161
3536.00,0.0161
3535.00,0.0161
3534.00,0.0161
3533.00,0.0162
3532.00,0.0162
3531.00,0.0162
3530.00,0.0162
3529.00,0.0162
3528.00,0.0162
3527.00,0.0163
3526.00,0.0163
3525.00,0.0163
3524.00,0.0163
3523.00,0.0163
3522.00,0.0162
3521.00,0.0162
3520.00,0.0162
3519.00,0.0161
3518.00,0.0161
3517.00,0.0161
3516.00,0.0161
3515.00,0.0161
3514.00,0.0161
3513.00,0.0161
3512.00,0.0160
3511.00,0.0161
3510.00,0.0161
3509.00,0.0161
3508.00,0.0162
3507.00,0.0162
3506.00,0.0161
3505.00,0.0161
3504.00,0.0162
3503.00,0.0162
3502.00,0.0162
3501.00,0.0162
3500.00,0.0162
3499.00,0.0162
3498.00,0.0162
3497.00,0.0162
3496.00,0.0163
3495.00,0.0163
3494.00,0.0163
3493.00,0.0163
3492.00,0.0163
3491.00,0.0163
3490.00,0.0163
3489.00,0.0162
3488.00,0.0162
3487.00,0.0162
3486.00,0.0162
3485.00,0.0162
3484.00,0.0162
3483.00,0.0162
3482.00,0.0162
3481.00,0.0162
3480.00,0.0163
3479.00,0.0163
3478.00,0.0163
3477.00,0.0162
3476.00,0.0162
3475.00,0.0162
3474.00,0.0162
3473.00,0.0162
3472.00,0.0162
3471.00,0.0162
3470.00,0.0162
3469.00,0.0162
3468.00,0.0162
3467.00,0.0163
3466.00,0.0163
3465.00,0.0162
3464.00,0.0162
3463.00,0.0162
3462.00,0.0162
3461.00,0.0162
3460.00,0.0162
3459.00,0.0162
3458.00,0.0162
3457.00,0.0162
3456.00,0.0162
3455.00,0.0162
3454.00,0.0162
3453.00,0.0162
3452.00,0.0162
3451.00,0.0163
3450.00,0.0163
3449.00,0.0163
3448.00,0.0163
3447.00,0.0163
3446.00,0.0163
3445.00,0.0163
3444.00,0.0163
3443.00,0.0163
3442.00,0.0163
3441.00,0.0163
3440.00,0.0163
3439.00,0.0163
3438.00,0.0163
3437.00,0.0163
3436.00,0.0164
3435.00,0.0164
3434.00,0.0164
3433.00,0.0163
3432.00,0.0163
3431.00,0.0163
3430.00,0.0163
3429.00,0.0163
3428.00,0.0163
3427.00,0.0163
3426.00,0.0164
3425.00,0.0163
3424.00,0.0163
3423.00,0.0164
3422.00,0.0164
3421.00,0.0164
3420.00,0.0164
3419.00,0.0164
3418.00,0.0164
3417.00,0.0163
3416.00,0.0163
3415.00,0.0163
3414.00,0.0163
3413.00,0.0163
3412.00,0.0163
3411.00,0.0163
3410.00,0.0163
3409.00,0.0163
3408.00,0.0163
3407.00,0.0163
3406.00,0.0163
3405.00,0.0163
3404.00,0.0163
3403.00,0.0163
3402.00,0.0164
3401.00,0.0164
3400.00,0.0164
3399.00,0.0164
3398.00,0.0164
3397.00,0.0164
3396.00,0.0164
3395.00,0.0164
3394.00,0.0164
3393.00,0.0164
3392.00,0.0164
3391.00,0.0164
3390.00,0.0164
3389.00,0.0164
3388.00,0.0164
3387.00,0.0164
3386.00,0.0164
3385.00,0.0164
3384.00,0.0164
3383.00,0.0163
3382.00,0.0163
3381.00,0.0163
3380.00,0.0163
3379.00,0.0163
3378.00,0.0164
3377.00,0.0164
3376.00,0.0165
3375.00,0.0165
3374.00,0.0165
3373.00,0.0164
3372.00,0.0164
3371.00,0.0164
3370.00,0.0164
3369.00,0.0164
3368.00,0.0164
3367.00,0.0164
3366.00,0.0164
3365.00,0.0165
3364.00,0.0165
3363.00,0.0165
3362.00,0.0165
3361.00,0.0165
3360.00,0.0165
3359.00,0.0165
3358.00,0.0164
3357.00,0.0164
3356.00,0.0164
3355.00,0.0164
3354.00,0.0165
3353.00,0.0165
3352.00,0.0165
3351.00,0.0166
3350.00,0.0166
3349.00,0.0166
3348.00,0.0165
3347.00,0.0165
3346.00,0.0164
3345.00,0.0164
3344.00,0.0164
3343.00,0.0164
3342.00,0.0165
3341.00,0.0165
3340.00,0.0165
3339.00,0.0165
3338.00,0.0165
3337.00,0.0165
3336.00,0.0165
3335.00,0.0165
3334.00,0.0165
3333.00,0.0165
3332.00,0.0164
3331.00,0.0165
3330.00,0.0165
3329.00,0.0165
3328.00,0.0165
3327.00,0.0165
3326.00,0.0166
3325.00,0.0166
3324.00,0.0166
3323.00,0.0166
3322.00,0.0166
3321.00,0.0165
3320.00,0.0165
3319.00,0.0165
3318.00,0.0166
3317.00,0.0166
3316.00,0.0165
3315.00,0.0165
3314.00,0.0165
3313.00,0.0166
3312.00,0.0166
3311.00,0.0166
3310.00,0.0166
3309.00,0.0166
3308.00,0.0165
3307.00,0.0165
3306.00,0.0165
3305.00,0.0165
3304.00,0.0165
3303.00,0.0165
3302.00,0.0166
3301.00,0.0166
3300.00,0.0167
3299.00,0.0167
3298.00,0.0167
3297.00,0.0167
3296.00,0.0167
3295.00,0.0166
3294.00,0.0166
3293.00,0.0167
3292.00,0.0167
3291.00,0.0167
3290.00,0.0166
3289.00,0.0166
3288.00,0.0166
3287.00,0.0166
3286.00,0.0166
3285.00,0.0166
3284.00,0.0166
3283.00,0.0166
3282.00,0.0166
3281.00,0.0166
3280.00,0.0166
3279.00,0.0167
3278.00,0.0167
3277.00,0.0167
3276.00,0.0168
3275.00,0.0168
3274.00,0.0168
3273.00,0.0168
3272.00,0.0168
3271.00,0.0167
3270.00,0.0167
3269.00,0.0167
3268.00,0.0167
3267.00,0.0166
3266.00,0.0166
3265.00,0.0166
3264.00,0.0166
3263.00,0.0166
3262.00,0.0165
3261.00,0.0166
3260.00,0.0166
3259.00,0.0166
3258.00,0.0166
3257.00,0.0166
3256.00,0.0166
3255.00,0.0166
3254.00,0.0166
3253.00,0.0166
3252.00,0.0167
3251.00,0.0167
3250.00,0.0167
3249.00,0.0167
3248.00,0.0168
3247.00,0.0168
3246.00,0.0168
3245.00,0.0168
3244.00,0.0167
3243.00,0.0167
3242.00,0.0167
3241.00,0.0167
3240.00,0.0167
3239.00,0.0167
3238.00,0.0168
3237.00,0.0168
3236.00,0.0168
3235.00,0.0168
3234.00,0.0168
3233.00,0.0168
3232.00,0.0168
3231.00,0.0168
3230.00,0.0168
3229.00,0.0168
3228.00,0.0168
3227.00,0.0168
3226.00,0.0168
3225.00,0.0167
3224.00,0.0167
3223.00,0.0167
3222.00,0.0167
3221.00,0.0167
3220.00,0.0168
3219.00,0.0168
3218.00,0.0168
3217.00,0.0167
3216.00,0.0167
3215.00,0.0167
3214.00,0.0167
3213.00,0.0167
3212.00,0.0167
3211.00,0.0167
3210.00,0.0168
3209.00,0.0168
3208.00,0.0168
3207.00,0.0168
3206.00,0.0168
3205.00,0.0167
3204.00,0.0167
3203.00,0.0168
3202.00,0.0168
3201.00,0.0168
3200.00,0.0168
3199.00,0.0168
3198.00,0.0168
3197.00,0.0168
3196.00,0.0168
3195.00,0.0168
3194.00,0.0168
3193.00,0.0168
3192.00,0.0168
3191.00,0.0168
3190.00,0.0167
3189.00,0.0167
3188.00,0.0167
3187.00,0.0168
3186.00,0.0168
3185.00,0.0168
3184.00,0.0168
3183.00,0.0168
3182.00,0.0167
3181.00,0.0167
3180.00,0.0167
3179.00,0.0167
3178.00,0.0167
3177.00,0.0167
3176.00,0.0167
3175.00,0.0167
3174.00,0.0167
3173.00,0.0168
3172.00,0.0168
3171.00,0.0168
3170.00,0.0168
3169.00,0.0168
3168.00,0.0168
3167.00,0.0168
3166.00,0.0168
3165.00,0.0168
3164.00,0.0167
3163.00,0.0167
3162.00,0.0167
3161.00,0.0167
3160.00,0.0167
3159.00,0.0167
3158.00,0.0167
3157.00,0.0167
3156.00,0.0167
3155.00,0.0166
3154.00,0.0166
3153.00,0.0166
3152.00,0.0166
3151.00,0.0167
3150.00,0.0167
3149.00,0.0167
3148.00,0.0167
3147.00,0.0167
3146.00,0.0167
3145.00,0.0167
3144.00,0.0167
3143.00,0.0167
3142.00,0.0167
3141.00,0.0167
3140.00,0.0167
3139.00,0.0167
3138.00,0.0168
3137.00,0.0168
3136.00,0.0168
3135.00,0.0168
3134.00,0.0167
3133.00,0.0167
3132.00,0.0167
3131.00,0.0167
3130.00,0.0167
3129.00,0.0167
3128.00,0.0167
3127.00,0.0167
3126.00,0.0167
3125.00,0.0167
3124.00,0.0167
3123.00,0.0166
3122.00,0.0167
3121.00,0.0167
3120.00,0.0167
3119.00,0.0167
3118.00,0.0168
3117.00,0.0168
3116.00,0.0167
3115.00,0.0167
3114.00,0.0166
3113.00,0.0166
3112.00,0.0166
3111.00,0.0166
3110.00,0.0166
3109.00,0.0166
3108.00,0.0166
3107.00,0.0166
3106.00,0.0166
3105.00,0.0166
3104.00,0.0166
3103.00,0.0166
3102.00,0.0166
3101.00,0.0166
3100.00,0.0166
3099.00,0.0166
3098.00,0.0166
3097.00,0.0166
3096.00,0.0166
3095.00,0.0166
3094.00,0.0166
3093.00,0.0167
3092.00,0.0167
3091.00,0.0167
3090.00,0.0167
3089.00,0.0167
3088.00,0.0166
3087.00,0.0166
3086.00,0.0166
3085.00,0.0166
3084.00,0.0167
3083.00,0.0166
3082.00,0.0166
3081.00,0.0166
3080.00,0.0166
3079.00,0.0166
3078.00,0.0166
3077.00,0.0166
3076.00,0.0166
3075.00,0.0166
3074.00,0.0166
3073.00,0.0166
3072.00,0.0165
3071.00,0.0165
3070.00,0.0165
3069.00,0.0165
3068.00,0.0166
3067.00,0.0166
3066.00,0.0166
3065.00,0.0166
3064.00,0.0166
3063.00,0.0166
3062.00,0.0166
3061.00,0.0166
3060.00,0.0166
3059.00,0.0166
3058.00,0.0166
3057.00,0.0166
3056.00,0.0166
3055.00,0.0166
3054.00,0.0166
3053.00,0.0166
3052.00,0.0166
3051.00,0.0166
3050.00,0.0166
3049.00,0.0165
3048.00,0.0165
3047.00,0.0165
3046.00,0.0165
3045.00,0.0165
3044.00,0.0165
3043.00,0.0165
3042.00,0.0165
3041.00,0.0165
3040.00,0.0164
3039.00,0.0164
3038.00,0.0164
3037.00,0.0165
3036.00,0.0165
3035.00,0.0165
3034.00,0.0165
3033.00,0.0165
3032.00,0.0164
3031.00,0.0164
3030.00,0.0163
3029.00,0.0163
3028.00,0.0163
3027.00,0.0163
3026.00,0.0163
3025.00,0.0163
3024.00,0.0163
3023.00,0.0163
3022.00,0.0163
3021.00,0.0163
3020.00,0.0162
3019.00,0.0162
3018.00,0.0163
3017.00,0.0163
3016.00,0.0163
3015.00,0.0163
3014.00,0.0163
3013.00,0.0163
3012.00,0.0163
3011.00,0.0162
3010.00,0.0161
3009.00,0.0160
3008.00,0.0160
3007.00,0.0159
3006.00,0.0159
3005.00,0.0159
3004.00,0.0159
3003.00,0.0159
3002.00,0.0158
3001.00,0.0158
3000.00,0.0158
2999.00,0.0157
2998.00,0.0157
2997.00,0.0156
2996.00,0.0156
2995.00,0.0156
2994.00,0.0156
2993.00,0.0156
2992.00,0.0156
2991.00,0.0155
2990.00,0.0155
2989.00,0.0154
2988.00,0.0153
2987.00,0.0153
2986.00,0.0153
2985.00,0.0152
2984.00,0.0151
2983.00,0.0150
2982.00,0.0149
2981.00,0.0149
2980.00,0.0149
2979.00,0.0149
2978.00,0.0149
2977.00,0.0150
2976.00,0.0150
2975.00,0.0151
2974.00,0.0150
2973.00,0.0150
2972.00,0.0150
2971.00,0.0149
2970.00,0.0149
2969.00,0.0148
2968.00,0.0148
2967.00,0.0147
2966.00,0.0147
2965.00,0.0147
2964.00,0.0147
2963.00,0.0147
2962.00,0.0146
2961.00,0.0146
2960.00,0.0146
2959.00,0.0145
2958.00,0.0145
2957.00,0.0145
2956.00,0.0146
2955.00,0.0146
2954.00,0.0146
2953.00,0.0146
2952.00,0.0146
2951.00,0.0146
2950.00,0.0147
2949.00,0.0147
2948.00,0.0147
2947.00,0.0147
2946.00,0.0147
2945.00,0.0147
2944.00,0.0147
2943.00,0.0146
2942.00,0.0145
2941.00,0.0144
2940.00,0.0143
2939.00,0.0142
2938.00,0.0141
2937.00,0.0141
2936.00,0.0139
2935.00,0.0138
2934.00,0.0137
2933.00,0.0136
2932.00,0.0135
2931.00,0.0134
2930.00,0.0133
2929.00,0.0131
2928.00,0.0130
2927.00,0.0129
2926.00,0.0128
2925.00,0.0128
2924.00,0.0128
2923.00,0.0128
2922.00,0.0128
2921.00,0.0129
2920.00,0.0129
2919.00,0.0129
2918.00,0.0129
2917.00,0.0130
2916.00,0.0131
2915.00,0.0132
2914.00,0.0134
2913.00,0.0136
2912.00,0.0138
2911.00,0.0139
2910.00,0.0140
2909.00,0.0141
2908.00,0.0141
2907.00,0.0142
2906.00,0.0143
2905.00,0.0144
2904.00,0.0144
2903.00,0.0145
2902.00,0.0145
2901.00,0.0145
2900.00,0.0146
2899.00,0.0146
2898.00,0.0146
2897.00,0.0147
2896.00,0.0147
2895.00,0.0147
2894.00,0.0148
2893.00,0.0147
2892.00,0.0147
2891.00,0.0147
2890.00,0.0148
2889.00,0.0148
2888.00,0.0148
2887.00,0.0149
2886.00,0.0149
2885.00,0.0149
2884.00,0.0149
2883.00,0.0149
2882.00,0.0149
2881.00,0.0149
2880.00,0.0149
2879.00,0.0149
2878.00,0.0150
2877.00,0.0150
2876.00,0.0150
2875.00,0.0149
2874.00,0.0149
2873.00,0.0148
2872.00,0.0148
2871.00,0.0148
2870.00,0.0147
2869.00,0.0147
2868.00,0.0148
2867.00,0.0148
2866.00,0.0148
2865.00,0.0147
2864.00,0.0146
2863.00,0.0146
2862.00,0.0145
2861.00,0.0145
2860.00,0.0144
2859.00,0.0143
2858.00,0.0142
2857.00,0.0141
2856.00,0.0141
2855.00,0.0140
2854.00,0.0140
2853.00,0.0140
2852.00,0.0140
2851.00,0.0140
2850.00,0.0141
2849.00,0.0142
2848.00,0.0144
2847.00,0.0145
2846.00,0.0146
2845.00,0.0148
2844.00,0.0149
2843.00,0.0150
2842.00,0.0151
2841.00,0.0151
2840.00,0.0152
2839.00,0.0153
2838.00,0.0153
2837.00,0.0153
2836.00,0.0153
2835.00,0.0154
2834.00,0.0154
2833.00,0.0154
2832.00,0.0154
2831.00,0.0154
2830.00,0.0154
2829.00,0.0154
2828.00,0.0154
2827.00,0.0153
2826.00,0.0154
2825.00,0.0154
2824.00,0.0154
2823.00,0.0154
2822.00,0.0154
2821.00,0.0155
2820.00,0.0155
2819.00,0.0155
2818.00,0.0155
2817.00,0.0155
2816.00,0.0155
2815.00,0.0155
2814.00,0.0155
2813.00,0.0156
2812.00,0.0156
2811.00,0.0156
2810.00,0.0156
2809.00,0.0156
2808.00,0.0155
2807.00,0.0155
2806.00,0.0155
2805.00,0.0155
2804.00,0.0155
2803.00,0.0155
2802.00,0.0155
2801.00,0.0155
2800.00,0.0155
2799.00,0.0155
2798.00,0.0155
2797.00,0.0155
2796.00,0.0155
2795.00,0.0155
2794.00,0.0155
2793.00,0.0155
2792.00,0.0155
2791.00,0.0155
2790.00,0.0155
2789.00,0.0155
2788.00,0.0155
2787.00,0.0155
2786.00,0.0155
2785.00,0.0155
2784.00,0.0155
2783.00,0.0155
2782.00,0.0155
2781.00,0.0155
2780.00,0.0155
2779.00,0.0154
2778.00,0.0154
2777.00,0.0154
2776.00,0.0154
2775.00,0.0154
2774.00,0.0155
2773.00,0.0155
2772.00,0.0155
2771.00,0.0155
2770.00,0.0155
2769.00,0.0155
2768.00,0.0155
2767.00,0.0155
2766.00,0.0154
2765.00,0.0154
2764.00,0.0154
2763.00,0.0154
2762.00,0.0154
2761.00,0.0154
2760.00,0.0154
2759.00,0.0154
2758.00,0.0154
2757.00,0.0154
2756.00,0.0154
2755.00,0.0154
2754.00,0.0155
2753.00,0.0155
2752.00,0.0155
2751.00,0.0154
2750.00,0.0154
2749.00,0.0154
2748.00,0.0154
2747.00,0.0154
2746.00,0.0154
2745.00,0.0154
2744.00,0.0154
2743.00,0.0154
2742.00,0.0154
2741.00,0.0154
2740.00,0.0154
2739.00,0.0154
2738.00,0.0154
2737.00,0.0154
2736.00,0.0154
2735.00,0.0154
2734.00,0.0154
2733.00,0.0154
2732.00,0.0154
2731.00,0.0154
2730.00,0.0154
2729.00,0.0154
2728.00,0.0154
2727.00,0.0154
2726.00,0.0154
2725.00,0.0154
2724.00,0.0154
2723.00,0.0154
2722.00,0.0154
2721.00,0.0154
2720.00,0.0154
2719.00,0.0154
2718.00,0.0154
2717.00,0.0154
2716.00,0.0154
2715.00,0.0154
2714.00,0.0154
2713.00,0.0154
2712.00,0.0154
2711.00,0.0154
2710.00,0.0154
2709.00,0.0154
2708.00,0.0154
2707.00,0.0154
2706.00,0.0154
2705.00,0.0154
2704.00,0.0154
2703.00,0.0153
2702.00,0.0153
2701.00,0.0153
2700.00,0.0153
2699.00,0.0154
2698.00,0.0154
2697.00,0.0154
2696.00,0.0154
2695.00,0.0154
2694.00,0.0154
2693.00,0.0154
2692.00,0.0154
2691.00,0.0154
2690.00,0.0154
2689.00,0.0154
2688.00,0.0154
2687.00,0.0154
2686.00,0.0154
2685.00,0.0154
2684.00,0.0154
2683.00,0.0154
2682.00,0.0154
2681.00,0.0154
2680.00,0.0154
2679.00,0.0154
2678.00,0.0154
2677.00,0.0154
2676.00,0.0154
2675.00,0.0154
2674.00,0.0154
2673.00,0.0154
2672.00,0.0154
2671.00,0.0154
2670.00,0.0154
2669.00,0.0154
2668.00,0.0154
2667.00,0.0154
2666.00,0.0155
2665.00,0.0155
2664.00,0.0155
2663.00,0.0155
2662.00,0.0155
2661.00,0.0155
2660.00,0.0155
2659.00,0.0155
2658.00,0.0156
2657.00,0.0156
2656.00,0.0156
2655.00,0.0156
2654.00,0.0156
2653.00,0.0157
2652.00,0.0157
2651.00,0.0156
2650.00,0.0156
2649.00,0.0156
2648.00,0.0156
2647.00,0.0156
2646.00,0.0156
2645.00,0.0156
2644.00,0.0156
2643.00,0.0156
2642.00,0.0156
2641.00,0.0156
2640.00,0.0156
2639.00,0.0156
2638.00,0.0156
2637.00,0.0156
2636.00,0.0156
2635.00,0.0157
2634.00,0.0157
2633.00,0.0157
2632.00,0.0156
2631.00,0.0156
2630.00,0.0157
2629.00,0.0157
2628.00,0.0157
2627.00,0.0157
2626.00,0.0157
2625.00,0.0157
2624.00,0.0156
2623.00,0.0156
2622.00,0.0157
2621.00,0.0157
2620.00,0.0157
2619.00,0.0157
2618.00,0.0157
2617.00,0.0157
2616.00,0.0157
2615.00,0.0157
2614.00,0.0157
2613.00,0.0157
2612.00,0.0158
2611.00,0.0158
2610.00,0.0158
2609.00,0.0158
2608.00,0.0158
2607.00,0.0158
2606.00,0.0158
2605.00,0.0158
2604.00,0.0158
2603.00,0.0158
2602.00,0.0157
2601.00,0.0157
2600.00,0.0157
2599.00,0.0157
2598.00,0.0157
2597.00,0.0157
2596.00,0.0157
2595.00,0.0157
2594.00,0.0157
2593.00,0.0157
2592.00,0.0157
2591.00,0.0158
2590.00,0.0158
2589.00,0.0158
2588.00,0.0158
2587.00,0.0158
2586.00,0.0158
2585.00,0.0158
2584.00,0.0158
2583.00,0.0158
2582.00,0.0158
2581.00,0.0158
2580.00,0.0158
2579.00,0.0159
2578.00,0.0159
2577.00,0.0158
2576.00,0.0158
2575.00,0.0158
2574.00,0.0158
2573.00,0.0158
2572.00,0.0158
2571.00,0.0158
2570.00,0.0158
2569.00,0.0158
2568.00,0.0158
2567.00,0.0158
2566.00,0.0158
2565.00,0.0158
2564.00,0.0158
2563.00,0.0158
2562.00,0.0157
2561.00,0.0157
2560.00,0.0157
2559.00,0.0157
2558.00,0.0157
2557.00,0.0157
2556.00,0.0157
2555.00,0.0157
2554.00,0.0157
2553.00,0.0158
2552.00,0.0158
2551.00,0.0158
2550.00,0.0158
2549.00,0.0158
2548.00,0.0158
2547.00,0.0158
2546.00,0.0157
2545.00,0.0157
2544.00,0.0157
2543.00,0.0157
2542.00,0.0157
2541.00,0.0158
2540.00,0.0158
2539.00,0.0158
2538.00,0.0159
2537.00,0.0158
2536.00,0.0157
2535.00,0.0157
2534.00,0.0156
2533.00,0.0157
2532.00,0.0157
2531.00,0.0157
2530.00,0.0157
2529.00,0.0157
2528.00,0.0158
2527.00,0.0158
2526.00,0.0158
2525.00,0.0158
2524.00,0.0158
2523.00,0.0158
2522.00,0.0158
2521.00,0.0158
2520.00,0.0158
2519.00,0.0157
2518.00,0.0157
2517.00,0.0157
2516.00,0.0157
2515.00,0.0157
2514.00,0.0157
2513.00,0.0158
2512.00,0.0157
2511.00,0.0157
2510.00,0.0157
2509.00,0.0156
2508.00,0.0156
2507.00,0.0156
2506.00,0.0157
2505.00,0.0157
2504.00,0.0158
2503.00,0.0158
2502.00,0.0158
2501.00,0.0158
2500.00,0.0158
2499.00,0.0157
2498.00,0.0157
2497.00,0.0158
2496.00,0.0158
2495.00,0.0158
2494.00,0.0158
2493.00,0.0158
2492.00,0.0158
2491.00,0.0158
2490.00,0.0158
2489.00,0.0158
2488.00,0.0157
2487.00,0.0157
2486.00,0.0157
2485.00,0.0157
2484.00,0.0158
2483.00,0.0158
2482.00,0.0157
2481.00,0.0157
2480.00,0.0158
2479.00,0.0158
2478.00,0.0158
2477.00,0.0158
2476.00,0.0158
2475.00,0.0158
2474.00,0.0158
2473.00,0.0158
2472.00,0.0157
2471.00,0.0157
2470.00,0.0157
2469.00,0.0157
2468.00,0.0157
2467.00,0.0158
2466.00,0.0158
2465.00,0.0158
2464.00,0.0158
2463.00,0.0158
2462.00,0.0158
2461.00,0.0158
2460.00,0.0158
2459.00,0.0158
2458.00,0.0158
2457.00,0.0158
2456.00,0.0159
2455.00,0.0159
2454.00,0.0159
2453.00,0.0159
2452.00,0.0159
2451.00,0.0159
2450.00,0.0159
2449.00,0.0159
2448.00,0.0159
2447.00,0.0159
2446.00,0.0159
2445.00,0.0158
2444.00,0.0158
2443.00,0.0158
2442.00,0.0157
2441.00,0.0157
2440.00,0.0157
2439.00,0.0157
2438.00,0.0157
2437.00,0.0157
2436.00,0.0157
2435.00,0.0157
2434.00,0.0157
2433.00,0.0157
2432.00,0.0156
2431.00,0.0156
2430.00,0.0156
2429.00,0.0156
2428.00,0.0156
2427.00,0.0157
2426.00,0.0158
2425.00,0.0158
2424.00,0.0158
2423.00,0.0158
2422.00,0.0157
2421.00,0.0157
2420.00,0.0157
2419.00,0.0157
2418.00,0.0157
2417.00,0.0157
2416.00,0.0157
2415.00,0.0157
2414.00,0.0157
2413.00,0.0157
2412.00,0.0157
2411.00,0.0157
2410.00,0.0157
2409.00,0.0157
2408.00,0.0157
2407.00,0.0156
2406.00,0.0156
2405.00,0.0156
2404.00,0.0156
2403.00,0.0156
2402.00,0.0156
2401.00,0.0156
2400.00,0.0156
2399.00,0.0156
2398.00,0.0155
2397.00,0.0155
2396.00,0.0156
2395.00,0.0156
2394.00,0.0156
2393.00,0.0156
2392.00,0.0156
2391.00,0.0156
2390.00,0.0156
2389.00,0.0156
2388.00,0.0156
2387.00,0.0155
2386.00,0.0155
2385.00,0.0155
2384.00,0.0155
2383.00,0.0155
2382.00,0.0155
2381.00,0.0155
2380.00,0.0154
2379.00,0.0154
2378.00,0.0153
2377.00,0.0153
2376.00,0.0153
2375.00,0.0153
2374.00,0.0153
2373.00,0.0154
2372.00,0.0155
2371.00,0.0157
2370.00,0.0158
2369.00,0.0158
2368.00,0.0157
2367.00,0.0155
2366.00,0.0155
2365.00,0.0155
2364.00,0.0156
2363.00,0.0157
2362.00,0.0150
2361.00,0.0151
2360.00,0.0152
2359.00,0.0154
2358.00,0.0155
2357.00,0.0156
2356.00,0.0158
2355.00,0.0160
2354.00,0.0162
2353.00,0.0164
2352.00,0.0165
2351.00,0.0164
2350.00,0.0162
2349.00,0.0157
2348.00,0.0152
2347.00,0.0148
2346.00,0.0143
2345.00,0.0147
2344.00,0.0152
2343.00,0.0156
2342.00,0.0158
2341.00,0.0160
2340.00,0.0161
2339.00,0.0161
2338.00,0.0161
2337.00,0.0161
2336.00,0.0160
2335.00,0.0160
2334.00,0.0158
2333.00,0.0159
2332.00,0.0160
2331.00,0.0162
2330.00,0.0164
2329.00,0.0166
2328.00,0.0167
2327.00,0.0167
2326.00,0.0167
2325.00,0.0167
2324.00,0.0167
2323.00,0.0167
2322.00,0.0167
2321.00,0.0167
2320.00,0.0167
2319.00,0.0167
2318.00,0.0166
2317.00,0.0166
2316.00,0.0164
2315.00,0.0163
2314.00,0.0163
2313.00,0.0163
2312.00,0.0163
2311.00,0.0163
2310.00,0.0162
2309.00,0.0163
2308.00,0.0163
2307.00,0.0163
2306.00,0.0163
2305.00,0.0163
2304.00,0.0162
2303.00,0.0162
2302.00,0.0161
2301.00,0.0160
2300.00,0.0160
2299.00,0.0160
2298.00,0.0159
2297.00,0.0159
2296.00,0.0159
2295.00,0.0159
2294.00,0.0159
2293.00,0.0160
2292.00,0.0160
2291.00,0.0161
2290.00,0.0161
2289.00,0.0161
2288.00,0.0162
2287.00,0.0162
2286.00,0.0162
2285.00,0.0161
2284.00,0.0161
2283.00,0.0160
2282.00,0.0160
2281.00,0.0160
2280.00,0.0159
2279.00,0.0159
2278.00,0.0158
2277.00,0.0158
2276.00,0.0158
2275.00,0.0158
2274.00,0.0158
2273.00,0.0159
2272.00,0.0159
2271.00,0.0159
2270.00,0.0159
2269.00,0.0158
2268.00,0.0157
2267.00,0.0157
2266.00,0.0157
2265.00,0.0158
2264.00,0.0159
2263.00,0.0159
2262.00,0.0159
2261.00,0.0159
2260.00,0.0159
2259.00,0.0159
2258.00,0.0159
2257.00,0.0158
2256.00,0.0157
2255.00,0.0156
2254.00,0.0156
2253.00,0.0157
2252.00,0.0158
2251.00,0.0158
2250.00,0.0158
2249.00,0.0158
2248.00,0.0158
2247.00,0.0157
2246.00,0.0157
2245.00,0.0156
2244.00,0.0156
2243.00,0.0157
2242.00,0.0157
2241.00,0.0158
2240.00,0.0158
2239.00,0.0158
2238.00,0.0158
2237.00,0.0158
2236.00,0.0158
2235.00,0.0158
2234.00,0.0159
2233.00,0.0159
2232.00,0.0160
2231.00,0.0160
2230.00,0.0160
2229.00,0.0160
2228.00,0.0160
2227.00,0.0160
2226.00,0.0159
2225.00,0.0159
2224.00,0.0159
2223.00,0.0159
2222.00,0.0160
2221.00,0.0160
2220.00,0.0159
2219.00,0.0159
2218.00,0.0158
2217.00,0.0157
2216.00,0.0157
2215.00,0.0158
2214.00,0.0159
2213.00,0.0160
2212.00,0.0160
2211.00,0.0160
2210.00,0.0160
2209.00,0.0159
2208.00,0.0157
2207.00,0.0156
2206.00,0.0156
2205.00,0.0156
2204.00,0.0158
2203.00,0.0159
2202.00,0.0161
2201.00,0.0162
2200.00,0.0163
2199.00,0.0164
2198.00,0.0164
2197.00,0.0163
2196.00,0.0162
2195.00,0.0161
2194.00,0.0161
2193.00,0.0161
2192.00,0.0160
2191.00,0.0159
2190.00,0.0159
2189.00,0.0160
2188.00,0.0161
2187.00,0.0163
2186.00,0.0164
2185.00,0.0164
2184.00,0.0162
2183.00,0.0160
2182.00,0.0159
2181.00,0.0158
2180.00,0.0158
2179.00,0.0158
2178.00,0.0159
2177.00,0.0159
2176.00,0.0159
2175.00,0.0159
2174.00,0.0160
2173.00,0.0161
2172.00,0.0161
2171.00,0.0161
2170.00,0.0161
2169.00,0.0162
2168.00,0.0162
2167.00,0.0162
2166.00,0.0163
2165.00,0.0165
2164.00,0.0166
2163.00,0.0167
2162.00,0.0166
2161.00,0.0162
2160.00,0.0156
2159.00,0.0151
2158.00,0.0149
2157.00,0.0150
2156.00,0.0152
2155.00,0.0152
2154.00,0.0152
2153.00,0.0152
2152.00,0.0153
2151.00,0.0153
2150.00,0.0152
2149.00,0.0150
2148.00,0.0149
2147.00,0.0149
2146.00,0.0149
2145.00,0.0149
2144.00,0.0150
2143.00,0.0150
2142.00,0.0151
2141.00,0.0152
2140.00,0.0153
2139.00,0.0153
2138.00,0.0152
2137.00,0.0150
2136.00,0.0148
2135.00,0.0146
2134.00,0.0145
2133.00,0.0146
2132.00,0.0147
2131.00,0.0148
2130.00,0.0148
2129.00,0.0149
2128.00,0.0149
2127.00,0.0150
2126.00,0.0151
2125.00,0.0151
2124.00,0.0151
2123.00,0.0151
2122.00,0.0151
2121.00,0.0152
2120.00,0.0153
2119.00,0.0154
2118.00,0.0155
2117.00,0.0156
2116.00,0.0156
2115.00,0.0156
2114.00,0.0156
2113.00,0.0156
2112.00,0.0155
2111.00,0.0155
2110.00,0.0155
2109.00,0.0155
2108.00,0.0155
2107.00,0.0155
2106.00,0.0155
2105.00,0.0155
2104.00,0.0155
2103.00,0.0155
2102.00,0.0155
2101.00,0.0155
2100.00,0.0154
2099.00,0.0154
2098.00,0.0154
2097.00,0.0154
2096.00,0.0154
2095.00,0.0153
2094.00,0.0153
2093.00,0.0153
2092.00,0.0152
2091.00,0.0152
2090.00,0.0152
2089.00,0.0152
2088.00,0.0151
2087.00,0.0151
2086.00,0.0152
2085.00,0.0153
2084.00,0.0153
2083.00,0.0153
2082.00,0.0153
2081.00,0.0152
2080.00,0.0152
2079.00,0.0153
2078.00,0.0154
2077.00,0.0155
2076.00,0.0155
2075.00,0.0154
2074.00,0.0154
2073.00,0.0154
2072.00,0.0154
2071.00,0.0154
2070.00,0.0154
2069.00,0.0154
2068.00,0.0153
2067.00,0.0153
2066.00,0.0153
2065.00,0.0154
2064.00,0.0154
2063.00,0.0153
2062.00,0.0153
2061.00,0.0153
2060.00,0.0153
2059.00,0.0154
2058.00,0.0155
2057.00,0.0155
2056.00,0.0155
2055.00,0.0155
2054.00,0.0154
2053.00,0.0155
2052.00,0.0155
2051.00,0.0156
2050.00,0.0157
2049.00,0.0156
2048.00,0.0155
2047.00,0.0155
2046.00,0.0155
2045.00,0.0156
2044.00,0.0156
2043.00,0.0156
2042.00,0.0156
2041.00,0.0155
2040.00,0.0154
2039.00,0.0155
2038.00,0.0157
2037.00,0.0159
2036.00,0.0160
2035.00,0.0160
2034.00,0.0158
2033.00,0.0157
2032.00,0.0155
2031.00,0.0154
2030.00,0.0154
2029.00,0.0154
2028.00,0.0154
2027.00,0.0153
2026.00,0.0152
2025.00,0.0152
2024.00,0.0152
2023.00,0.0151
2022.00,0.0151
2021.00,0.0151
2020.00,0.0152
2019.00,0.0153
2018.00,0.0155
2017.00,0.0155
2016.00,0.0154
2015.00,0.0153
2014.00,0.0153
2013.00,0.0154
2012.00,0.0156
2011.00,0.0156
2010.00,0.0156
2009.00,0.0155
2008.00,0.0154
2007.00,0.0152
2006.00,0.0151
2005.00,0.0150
2004.00,0.0151
2003.00,0.0152
2002.00,0.0153
2001.00,0.0154
2000.00,0.0154
1999.00,0.0153
1998.00,0.0153
1997.00,0.0154
1996.00,0.0154
1995.00,0.0154
1994.00,0.0153
1993.00,0.0153
1992.00,0.0153
1991.00,0.0154
1990.00,0.0155
1989.00,0.0156
1988.00,0.0155
1987.00,0.0155
1986.00,0.0155
1985.00,0.0157
1984.00,0.0158
1983.00,0.0160
1982.00,0.0161
1981.00,0.0161
1980.00,0.0161
1979.00,0.0159
1978.00,0.0157
1977.00,0.0154
1976.00,0.0152
1975.00,0.0151
1974.00,0.0151
1973.00,0.0152
1972.00,0.0152
1971.00,0.0151
1970.00,0.0150
1969.00,0.0150
1968.00,0.0150
1967.00,0.0150
1966.00,0.0151
1965.00,0.0152
1964.00,0.0153
1963.00,0.0153
1962.00,0.0152
1961.00,0.0151
1960.00,0.0150
1959.00,0.0150
1958.00,0.0150
1957.00,0.0150
1956.00,0.0149
1955.00,0.0149
1954.00,0.0148
1953.00,0.0148
1952.00,0.0148
1951.00,0.0148
1950.00,0.0148
1949.00,0.0148
1948.00,0.0149
1947.00,0.0150
1946.00,0.0150
1945.00,0.0150
1944.00,0.0150
1943.00,0.0149
1942.00,0.0149
1941.00,0.0148
1940.00,0.0148
1939.00,0.0147
1938.00,0.0146
1937.00,0.0146
1936.00,0.0146
1935.00,0.0147
1934.00,0.0147
1933.00,0.0148
1932.00,0.0147
1931.00,0.0147
1930.00,0.0146
1929.00,0.0146
1928.00,0.0146
1927.00,0.0146
1926.00,0.0146
1925.00,0.0146
1924.00,0.0147
1923.00,0.0147
1922.00,0.0148
1921.00,0.0148
1920.00,0.0148
1919.00,0.0147
1918.00,0.0147
1917.00,0.0146
1916.00,0.0147
1915.00,0.0147
1914.00,0.0148
1913.00,0.0148
1912.00,0.0147
1911.00,0.0147
1910.00,0.0146
1909.00,0.0146
1908.00,0.0146
1907.00,0.0146
1906.00,0.0146
1905.00,0.0146
1904.00,0.0146
1903.00,0.0146
1902.00,0.0146
1901.00,0.0146
1900.00,0.0146
1899.00,0.0147
1898.00,0.0147
1897.00,0.0147
1896.00,0.0146
1895.00,0.0146
1894.00,0.0145
1893.00,0.0145
1892.00,0.0144
1891.00,0.0144
1890.00,0.0144
1889.00,0.0144
1888.00,0.0144
1887.00,0.0145
1886.00,0.0146
1885.00,0.0146
1884.00,0.0145
1883.00,0.0145
1882.00,0.0145
1881.00,0.0145
1880.00,0.0145
1879.00,0.0144
1878.00,0.0144
1877.00,0.0143
1876.00,0.0143
1875.00,0.0144
1874.00,0.0144
1873.00,0.0144
1872.00,0.0144
1871.00,0.0144
1870.00,0.0144
1869.00,0.0144
1868.00,0.0144
1867.00,0.0143
1866.00,0.0144
1865.00,0.0144
1864.00,0.0144
1863.00,0.0144
1862.00,0.0143
1861.00,0.0142
1860.00,0.0142
1859.00,0.0142
1858.00,0.0142
1857.00,0.0142
1856.00,0.0142
1855.00,0.0142
1854.00,0.0141
1853.00,0.0141
1852.00,0.0142
1851.00,0.0141
1850.00,0.0141
1849.00,0.0141
1848.00,0.0141
1847.00,0.0142
1846.00,0.0142
1845.00,0.0143
1844.00,0.0142
1843.00,0.0142
1842.00,0.0141
1841.00,0.0141
1840.00,0.0141
1839.00,0.0141
1838.00,0.0141
1837.00,0.0140
1836.00,0.0140
1835.00,0.0140
1834.00,0.0141
1833.00,0.0141
1832.00,0.0141
1831.00,0.0140
1830.00,0.0139
1829.00,0.0138
1828.00,0.0138
1827.00,0.0138
1826.00,0.0138
1825.00,0.0138
1824.00,0.0139
1823.00,0.0139
1822.00,0.0139
1821.00,0.0139
1820.00,0.0139
1819.00,0.0138
1818.00,0.0138
1817.00,0.0138
1816.00,0.0137
1815.00,0.0137
1814.00,0.0137
1813.00,0.0137
1812.00,0.0137
1811.00,0.0136
1810.00,0.0136
1809.00,0.0137
1808.00,0.0137
1807.00,0.0138
1806.00,0.0138
1805.00,0.0138
1804.00,0.0137
1803.00,0.0137
1802.00,0.0137
1801.00,0.0137
1800.00,0.0137
1799.00,0.0137
1798.00,0.0138
1797.00,0.0139
1796.00,0.0139
1795.00,0.0138
1794.00,0.0138
1793.00,0.0138
1792.00,0.0137
1791.00,0.0136
1790.00,0.0136
1789.00,0.0136
1788.00,0.0136
1787.00,0.0136
1786.00,0.0136
1785.00,0.0136
1784.00,0.0136
1783.00,0.0135
1782.00,0.0135
1781.00,0.0135
1780.00,0.0135
1779.00,0.0135
1778.00,0.0135
1777.00,0.0136
1776.00,0.0136
1775.00,0.0136
1774.00,0.0137
1773.00,0.0137
1772.00,0.0136
1771.00,0.0135
1770.00,0.0136
1769.00,0.0136
1768.00,0.0137
1767.00,0.0137
1766.00,0.0137
1765.00,0.0136
1764.00,0.0136
1763.00,0.0135
1762.00,0.0135
1761.00,0.0135
1760.00,0.0135
1759.00,0.0135
1758.00,0.0134
1757.00,0.0134
1756.00,0.0133
1755.00,0.0133
1754.00,0.0133
1753.00,0.0134
1752.00,0.0134
1751.00,0.0134
1750.00,0.0133
1749.00,0.0133
1748.00,0.0132
1747.00,0.0132
1746.00,0.0132
1745.00,0.0131
1744.00,0.0131
1743.00,0.0131
1742.00,0.0131
1741.00,0.0132
1740.00,0.0133
1739.00,0.0133
1738.00,0.0133
1737.00,0.0134
1736.00,0.0136
1735.00,0.0138
1734.00,0.0138
1733.00,0.0137
1732.00,0.0135
1731.00,0.0134
1730.00,0.0134
1729.00,0.0134
1728.00,0.0135
1727.00,0.0136
1726.00,0.0136
1725.00,0.0136
1724.00,0.0136
1723.00,0.0136
1722.00,0.0136
1721.00,0.0136
1720.00,0.0135
1719.00,0.0134
1718.00,0.0136
1717.00,0.0138
1716.00,0.0138
1715.00,0.0138
1714.00,0.0137
1713.00,0.0137
1712.00,0.0138
1711.00,0.0137
1710.00,0.0137
1709.00,0.0138
1708.00,0.0138
1707.00,0.0138
1706.00,0.0137
1705.00,0.0138
1704.00,0.0138
1703.00,0.0138
1702.00,0.0140
1701.00,0.0142
1700.00,0.0144
1699.00,0.0144
1698.00,0.0144
1697.00,0.0144
1696.00,0.0142
1695.00,0.0141
1694.00,0.0140
1693.00,0.0140
1692.00,0.0141
1691.00,0.0141
1690.00,0.0141
1689.00,0.0141
1688.00,0.0141
1687.00,0.0141
1686.00,0.0139
1685.00,0.0137
1684.00,0.0136
1683.00,0.0136
1682.00,0.0138
1681.00,0.0139
1680.00,0.0140
1679.00,0.0140
1678.00,0.0141
1677.00,0.0142
1676.00,0.0143
1675.00,0.0143
1674.00,0.0143
1673.00,0.0142
1672.00,0.0142
1671.00,0.0142
1670.00,0.0141
1669.00,0.0141
1668.00,0.0141
1667.00,0.0141
1666.00,0.0141
1665.00,0.0142
1664.00,0.0142
1663.00,0.0142
1662.00,0.0142
1661.00,0.0143
1660.00,0.0143
1659.00,0.0144
1658.00,0.0144
1657.00,0.0144
1656.00,0.0143
1655.00,0.0142
1654.00,0.0142
1653.00,0.0143
1652.00,0.0145
1651.00,0.0145
1650.00,0.0146
1649.00,0.0146
1648.00,0.0148
1647.00,0.0150
1646.00,0.0151
1645.00,0.0151
1644.00,0.0151
1643.00,0.0151
1642.00,0.0151
1641.00,0.0151
1640.00,0.0151
1639.00,0.0151
1638.00,0.0151
1637.00,0.0151
1636.00,0.0152
1635.00,0.0152
1634.00,0.0153
1633.00,0.0155
1632.00,0.0156
1631.00,0.0156
1630.00,0.0156
1629.00,0.0155
1628.00,0.0155
1627.00,0.0156
1626.00,0.0157
1625.00,0.0158
1624.00,0.0159
1623.00,0.0160
1622.00,0.0161
1621.00,0.0161
1620.00,0.0161
1619.00,0.0162
1618.00,0.0163
1617.00,0.0164
1616.00,0.0164
1615.00,0.0164
1614.00,0.0165
1613.00,0.0165
1612.00,0.0166
1611.00,0.0167
1610.00,0.0168
1609.00,0.0169
1608.00,0.0169
1607.00,0.0170
1606.00,0.0170
1605.00,0.0170
1604.00,0.0170
1603.00,0.0170
1602.00,0.0170
1601.00,0.0171
1600.00,0.0171
1599.00,0.0171
1598.00,0.0171
1597.00,0.0171
1596.00,0.0172
1595.00,0.0172
1594.00,0.0172
1593.00,0.0173
1592.00,0.0173
1591.00,0.0173
1590.00,0.0173
1589.00,0.0174
1588.00,0.0174
1587.00,0.0174
1586.00,0.0174
1585.00,0.0174
1584.00,0.0174
1583.00,0.0175
1582.00,0.0175
1581.00,0.0176
1580.00,0.0176
1579.00,0.0175
1578.00,0.0175
1577.00,0.0175
1576.00,0.0175
1575.00,0.0175
1574.00,0.0175
1573.00,0.0175
1572.00,0.0175
1571.00,0.0175
1570.00,0.0176
1569.00,0.0176
1568.00,0.0176
1567.00,0.0176
1566.00,0.0176
1565.00,0.0176
1564.00,0.0176
1563.00,0.0176
1562.00,0.0175
1561.00,0.0172
1560.00,0.0172
1559.00,0.0176
1558.00,0.0177
1557.00,0.0178
1556.00,0.0178
1555.00,0.0178
1554.00,0.0177
1553.00,0.0176
1552.00,0.0175
1551.00,0.0174
1550.00,0.0174
1549.00,0.0174
1548.00,0.0174
1547.00,0.0174
1546.00,0.0174
1545.00,0.0175
1544.00,0.0176
1543.00,0.0177
1542.00,0.0178
1541.00,0.0176
1540.00,0.0172
1539.00,0.0168
1538.00,0.0168
1537.00,0.0169
1536.00,0.0169
1535.00,0.0170
1534.00,0.0169
1533.00,0.0169
1532.00,0.0168
1531.00,0.0169
1530.00,0.0170
1529.00,0.0170
1528.00,0.0170
1527.00,0.0171
1526.00,0.0172
1525.00,0.0172
1524.00,0.0173
1523.00,0.0172
1522.00,0.0172
1521.00,0.0171
1520.00,0.0169
1519.00,0.0167
1518.00,0.0167
1517.00,0.0167
1516.00,0.0167
1515.00,0.0167
1514.00,0.0168
1513.00,0.0169
1512.00,0.0169
1511.00,0.0169
1510.00,0.0168
1509.00,0.0167
1508.00,0.0167
1507.00,0.0166
1506.00,0.0164
1505.00,0.0165
1504.00,0.0166
1503.00,0.0166
1502.00,0.0165
1501.00,0.0165
1500.00,0.0164
1499.00,0.0163
1498.00,0.0163
1497.00,0.0164
1496.00,0.0164
1495.00,0.0164
1494.00,0.0164
1493.00,0.0165
1492.00,0.0165
1491.00,0.0166
1490.00,0.0165
1489.00,0.0164
1488.00,0.0162
1487.00,0.0161
1486.00,0.0161
1485.00,0.0161
1484.00,0.0161
1483.00,0.0161
1482.00,0.0162
1481.00,0.0162
1480.00,0.0162
1479.00,0.0161
1478.00,0.0160
1477.00,0.0160
1476.00,0.0160
1475.00,0.0162
1474.00,0.0163
1473.00,0.0164
1472.00,0.0162
1471.00,0.0160
1470.00,0.0159
1469.00,0.0158
1468.00,0.0158
1467.00,0.0157
1466.00,0.0157
1465.00,0.0158
1464.00,0.0158
1463.00,0.0158
1462.00,0.0157
1461.00,0.0157
1460.00,0.0157
1459.00,0.0157
1458.00,0.0159
1457.00,0.0160
1456.00,0.0160
1455.00,0.0159
1454.00,0.0159
1453.00,0.0159
1452.00,0.0159
1451.00,0.0160
1450.00,0.0160
1449.00,0.0160
1448.00,0.0161
1447.00,0.0161
1446.00,0.0161
1445.00,0.0161
1444.00,0.0161
1443.00,0.0161
1442.00,0.0161
1441.00,0.0162
1440.00,0.0163
1439.00,0.0163
1438.00,0.0163
1437.00,0.0164
1436.00,0.0164
1435.00,0.0163
1434.00,0.0163
1433.00,0.0163
1432.00,0.0163
1431.00,0.0163
1430.00,0.0163
1429.00,0.0163
1428.00,0.0163
1427.00,0.0163
1426.00,0.0163
1425.00,0.0163
1424.00,0.0163
1423.00,0.0163
1422.00,0.0163
1421.00,0.0162
1420.00,0.0162
1419.00,0.0163
1418.00,0.0163
1417.00,0.0163
1416.00,0.0164
1415.00,0.0164
1414.00,0.0164
1413.00,0.0163
1412.00,0.0163
1411.00,0.0163
1410.00,0.0162
1409.00,0.0162
1408.00,0.0162
1407.00,0.0162
1406.00,0.0162
1405.00,0.0162
1404.00,0.0163
1403.00,0.0163
1402.00,0.0163
1401.00,0.0163
1400.00,0.0163
1399.00,0.0164
1398.00,0.0164
1397.00,0.0164
1396.00,0.0164
1395.00,0.0164
1394.00,0.0163
1393.00,0.0163
1392.00,0.0163
1391.00,0.0163
1390.00,0.0163
1389.00,0.0164
1388.00,0.0164
1387.00,0.0164
1386.00,0.0164
1385.00,0.0164
1384.00,0.0164
1383.00,0.0164
1382.00,0.0164
1381.00,0.0165
1380.00,0.0165
1379.00,0.0165
1378.00,0.0165
1377.00,0.0165
1376.00,0.0165
1375.00,0.0165
1374.00,0.0166
1373.00,0.0166
1372.00,0.0167
1371.00,0.0167
1370.00,0.0167
1369.00,0.0168
1368.00,0.0168
1367.00,0.0169
1366.00,0.0169
1365.00,0.0168
1364.00,0.0168
1363.00,0.0168
1362.00,0.0168
1361.00,0.0168
1360.00,0.0168
1359.00,0.0169
1358.00,0.0169
1357.00,0.0169
1356.00,0.0170
1355.00,0.0170
1354.00,0.0170
1353.00,0.0170
1352.00,0.0170
1351.00,0.0171
1350.00,0.0171
1349.00,0.0171
1348.00,0.0171
1347.00,0.0171
1346.00,0.0172
1345.00,0.0172
1344.00,0.0172
1343.00,0.0172
1342.00,0.0172
1341.00,0.0172
1340.00,0.0172
1339.00,0.0172
1338.00,0.0172
1337.00,0.0172
1336.00,0.0172
1335.00,0.0172
1334.00,0.0173
1333.00,0.0173
1332.00,0.0173
1331.00,0.0173
1330.00,0.0173
1329.00,0.0173
1328.00,0.0173
1327.00,0.0174
1326.00,0.0174
1325.00,0.0174
1324.00,0.0174
1323.00,0.0175
1322.00,0.0175
1321.00,0.0176
1320.00,0.0176
1319.00,0.0176
1318.00,0.0176
1317.00,0.0176
1316.00,0.0177
1315.00,0.0177
1314.00,0.0177
1313.00,0.0178
1312.00,0.0178
1311.00,0.0178
1310.00,0.0178
1309.00,0.0178
1308.00,0.0178
1307.00,0.0179
1306.00,0.0179
1305.00,0.0179
1304.00,0.0180
1303.00,0.0180
1302.00,0.0180
1301.00,0.0180
1300.00,0.0180
1299.00,0.0180
1298.00,0.0181
1297.00,0.0181
1296.00,0.0181
1295.00,0.0182
1294.00,0.0182
1293.00,0.0182
1292.00,0.0182
1291.00,0.0182
1290.00,0.0182
1289.00,0.0182
1288.00,0.0182
1287.00,0.0183
1286.00,0.0183
1285.00,0.0183
1284.00,0.0183
1283.00,0.0183
1282.00,0.0183
1281.00,0.0184
1280.00,0.0184
1279.00,0.0184
1278.00,0.0184
1277.00,0.0185
1276.00,0.0185
1275.00,0.0185
1274.00,0.0185
1273.00,0.0185
1272.00,0.0185
1271.00,0.0186
1270.00,0.0186
1269.00,0.0185
1268.00,0.0185
1267.00,0.0185
1266.00,0.0186
1265.00,0.0186
1264.00,0.0186
1263.00,0.0186
1262.00,0.0186
1261.00,0.0186
1260.00,0.0187
1259.00,0.0187
1258.00,0.0188
1257.00,0.0188
1256.00,0.0188
1255.00,0.0188
1254.00,0.0188
1253.00,0.0188
1252.00,0.0189
1251.00,0.0189
1250.00,0.0190
1249.00,0.0190
1248.00,0.0191
1247.00,0.0192
1246.00,0.0192
1245.00,0.0193
1244.00,0.0193
1243.00,0.0193
1242.00,0.0194
1241.00,0.0195
1240.00,0.0196
1239.00,0.0196
1238.00,0.0197
1237.00,0.0197
1236.00,0.0198
1235.00,0.0199
1234.00,0.0200
1233.00,0.0200
1232.00,0.0201
1231.00,0.0202
1230.00,0.0202
1229.00,0.0203
1228.00,0.0204
1227.00,0.0205
1226.00,0.0206
1225.00,0.0207
1224.00,0.0207
1223.00,0.0208
1222.00,0.0208
1221.00,0.0209
1220.00,0.0209
1219.00,0.0209
1218.00,0.0209
1217.00,0.0210
1216.00,0.0210
1215.00,0.0212
1214.00,0.0213
1213.00,0.0214
1212.00,0.0215
1211.00,0.0215
1210.00,0.0216
1209.00,0.0216
1208.00,0.0217
1207.00,0.0217
1206.00,0.0218
1205.00,0.0219
1204.00,0.0220
1203.00,0.0220
1202.00,0.0221
1201.00,0.0222
1200.00,0.0222
1199.00,0.0223
1198.00,0.0223
1197.00,0.0224
1196.00,0.0224
1195.00,0.0224
1194.00,0.0224
1193.00,0.0225
1192.00,0.0226
1191.00,0.0227
1190.00,0.0227
1189.00,0.0228
1188.00,0.0228
1187.00,0.0228
1186.00,0.0228
1185.00,0.0229
1184.00,0.0229
1183.00,0.0229
1182.00,0.0229
1181.00,0.0230
1180.00,0.0231
1179.00,0.0232
1178.00,0.0232
1177.00,0.0233
1176.00,0.0233
1175.00,0.0233
1174.00,0.0232
1173.00,0.0232
1172.00,0.0232
1171.00,0.0233
1170.00,0.0233
1169.00,0.0234
1168.00,0.0235
1167.00,0.0235
1166.00,0.0234
1165.00,0.0234
1164.00,0.0234
1163.00,0.0235
1162.00,0.0235
1161.00,0.0235
1160.00,0.0234
1159.00,0.0235
1158.00,0.0235
1157.00,0.0236
1156.00,0.0237
1155.00,0.0238
1154.00,0.0237
1153.00,0.0237
1152.00,0.0237
1151.00,0.0237
1150.00,0.0238
1149.00,0.0238
1148.00,0.0239
1147.00,0.0239
1146.00,0.0239
1145.00,0.0240
1144.00,0.0241
1143.00,0.0241
1142.00,0.0242
1141.00,0.0242
1140.00,0.0242
1139.00,0.0243
1138.00,0.0243
1137.00,0.0243
1136.00,0.0244
1135.00,0.0245
1134.00,0.0246
1133.00,0.0246
1132.00,0.0246
1131.00,0.0245
1130.00,0.0245
1129.00,0.0245
1128.00,0.0246
1127.00,0.0246
1126.00,0.0246
1125.00,0.0247
1124.00,0.0247
1123.00,0.0248
1122.00,0.0249
1121.00,0.0250
1120.00,0.0250
1119.00,0.0250
1118.00,0.0250
1117.00,0.0251
1116.00,0.0252
1115.00,0.0253
1114.00,0.0253
1113.00,0.0253
1112.00,0.0254
1111.00,0.0255
1110.00,0.0256
1109.00,0.0256
1108.00,0.0256
1107.00,0.0256
1106.00,0.0257
1105.00,0.0257
1104.00,0.0258
1103.00,0.0259
1102.00,0.0260
1101.00,0.0261
1100.00,0.0261
1099.00,0.0261
1098.00,0.0261
1097.00,0.0261
1096.00,0.0261
1095.00,0.0261
1094.00,0.0261
1093.00,0.0261
1092.00,0.0262
1091.00,0.0263
1090.00,0.0264
1089.00,0.0265
1088.00,0.0266
1087.00,0.0267
1086.00,0.0267
1085.00,0.0267
1084.00,0.0268
1083.00,0.0268
1082.00,0.0268
1081.00,0.0268
1080.00,0.0268
1079.00,0.0268
1078.00,0.0269
1077.00,0.0269
1076.00,0.0270
1075.00,0.0271
1074.00,0.0273
1073.00,0.0274
1072.00,0.0274
1071.00,0.0275
1070.00,0.0275
1069.00,0.0276
1068.00,0.0277
1067.00,0.0277
1066.00,0.0277
1065.00,0.0278
1064.00,0.0278
1063.00,0.0279
1062.00,0.0280
1061.00,0.0281
1060.00,0.0282
1059.00,0.0282
1058.00,0.0282
1057.00,0.0283
1056.00,0.0283
1055.00,0.0284
1054.00,0.0285
1053.00,0.0285
1052.00,0.0286
1051.00,0.0286
1050.00,0.0287
1049.00,0.0288
1048.00,0.0288
1047.00,0.0288
1046.00,0.0288
1045.00,0.0287
1044.00,0.0287
1043.00,0.0287
1042.00,0.0288
1041.00,0.0288
1040.00,0.0289
1039.00,0.0290
1038.00,0.0290
1037.00,0.0291
1036.00,0.0291
1035.00,0.0292
1034.00,0.0291
1033.00,0.0291
1032.00,0.0291
1031.00,0.0291
1030.00,0.0291
1029.00,0.0291
1028.00,0.0290
1027.00,0.0289
1026.00,0.0288
1025.00,0.0288
1024.00,0.0288
1023.00,0.0287
1022.00,0.0287
1021.00,0.0287
1020.00,0.0287
1019.00,0.0286
1018.00,0.0286
1017.00,0.0286
1016.00,0.0286
1015.00,0.0287
1014.00,0.0287
1013.00,0.0287
1012.00,0.0287
1011.00,0.0286
1010.00,0.0285
1009.00,0.0285
1008.00,0.0284
1007.00,0.0283
1006.00,0.0282
1005.00,0.0281
1004.00,0.0280
1003.00,0.0280
1002.00,0.0279
1001.00,0.0279
1000.00,0.0278
999.00,0.0278
998.00,0.0277
997.00,0.0276
996.00,0.0275
995.00,0.0274
994.00,0.0273
993.00,0.0272
992.00,0.0272
991.00,0.0271
990.00,0.0270
989.00,0.0269
988.00,0.0268
987.00,0.0268
986.00,0.0267
985.00,0.0267
984.00,0.0266
983.00,0.0265
982.00,0.0265
981.00,0.0264
980.00,0.0264
979.00,0.0263
978.00,0.0262
977.00,0.0261
976.00,0.0260
975.00,0.0259
974.00,0.0257
973.00,0.0256
972.00,0.0254
971.00,0.0253
970.00,0.0253
969.00,0.0252
968.00,0.0252
967.00,0.0251
966.00,0.0250
965.00,0.0250
964.00,0.0249
963.00,0.0249
962.00,0.0248
961.00,0.0248
960.00,0.0248
959.00,0.0247
958.00,0.0247
957.00,0.0246
956.00,0.0246
955.00,0.0245
954.00,0.0245
953.00,0.0244
952.00,0.0242
951.00,0.0241
950.00,0.0241
949.00,0.0241
948.00,0.0242
947.00,0.0242
946.00,0.0243
945.00,0.0243
944.00,0.0243
943.00,0.0242
942.00,0.0241
941.00,0.0240
940.00,0.0240
939.00,0.0240
938.00,0.0241
937.00,0.0241
936.00,0.0241
935.00,0.0241
934.00,0.0241
933.00,0.0240
932.00,0.0240
931.00,0.0240
930.00,0.0240
929.00,0.0239
928.00,0.0239
927.00,0.0239
926.00,0.0239
925.00,0.0240
924.00,0.0240
923.00,0.0240
922.00,0.0240
921.00,0.0239
920.00,0.0239
919.00,0.0240
918.00,0.0242
917.00,0.0244
916.00,0.0245
915.00,0.0244
914.00,0.0243
913.00,0.0242
912.00,0.0241
911.00,0.0240
910.00,0.0240
909.00,0.0240
908.00,0.0240
907.00,0.0241
906.00,0.0241
905.00,0.0241
904.00,0.0241
903.00,0.0241
902.00,0.0241
901.00,0.0240
900.00,0.0240
899.00,0.0241
898.00,0.0241
897.00,0.0241
896.00,0.0241
895.00,0.0240
894.00,0.0240
893.00,0.0240
892.00,0.0240
891.00,0.0240
890.00,0.0239
889.00,0.0239
888.00,0.0239
887.00,0.0239
886.00,0.0239
885.00,0.0240
884.00,0.0240
883.00,0.0239
882.00,0.0239
881.00,0.0240
880.00,0.0241
879.00,0.0241
878.00,0.0241
877.00,0.0240
876.00,0.0239
875.00,0.0239
874.00,0.0238
873.00,0.0238
872.00,0.0238
871.00,0.0237
870.00,0.0236
869.00,0.0236
868.00,0.0237
867.00,0.0238
866.00,0.0238
865.00,0.0237
864.00,0.0236
863.00,0.0236
862.00,0.0235
861.00,0.0235
860.00,0.0234
859.00,0.0234
858.00,0.0233
857.00,0.0233
856.00,0.0233
855.00,0.0233
854.00,0.0234
853.00,0.0235
852.00,0.0235
851.00,0.0235
850.00,0.0235
849.00,0.0235
848.00,0.0234
847.00,0.0234
846.00,0.0233
845.00,0.0234
844.00,0.0235
843.00,0.0235
842.00,0.0236
841.00,0.0236
840.00,0.0236
839.00,0.0237
838.00,0.0238
837.00,0.0237
836.00,0.0237
835.00,0.0236
834.00,0.0235
833.00,0.0234
832.00,0.0235
831.00,0.0236
830.00,0.0239
829.00,0.0241
828.00,0.0241
827.00,0.0240
826.00,0.0238
825.00,0.0238
824.00,0.0239
823.00,0.0240
822.00,0.0241
821.00,0.0242
820.00,0.0243
819.00,0.0243
818.00,0.0242
817.00,0.0241
816.00,0.0241
815.00,0.0242
814.00,0.0243
813.00,0.0244
812.00,0.0245
811.00,0.0246
810.00,0.0245
809.00,0.0245
808.00,0.0246
807.00,0.0247
806.00,0.0248
805.00,0.0249
804.00,0.0249
803.00,0.0249
802.00,0.0248
801.00,0.0249
800.00,0.0249
799.00,0.0250
798.00,0.0250
797.00,0.0250
796.00,0.0250
795.00,0.0251
794.00,0.0252
793.00,0.0252
792.00,0.0252
791.00,0.0251
790.00,0.0250
789.00,0.0250
788.00,0.0250
787.00,0.0251
786.00,0.0251
785.00,0.0249
784.00,0.0248
783.00,0.0248
782.00,0.0249
781.00,0.0251
780.00,0.0253
779.00,0.0255
778.00,0.0255
777.00,0.0255
776.00,0.0254
775.00,0.0253
774.00,0.0253
773.00,0.0253
772.00,0.0252
771.00,0.0251
770.00,0.0251
769.00,0.0251
768.00,0.0252
767.00,0.0254
766.00,0.0256
765.00,0.0257
764.00,0.0257
763.00,0.0256
762.00,0.0255
761.00,0.0254
760.00,0.0254
759.00,0.0255
758.00,0.0256
757.00,0.0257
756.00,0.0257
755.00,0.0257
754.00,0.0256
753.00,0.0255
752.00,0.0255
751.00,0.0254
750.00,0.0254
749.00,0.0254
748.00,0.0255
747.00,0.0257
746.00,0.0258
745.00,0.0259
744.00,0.0260
743.00,0.0260
742.00,0.0259
741.00,0.0258
740.00,0.0257
739.00,0.0256
738.00,0.0256
737.00,0.0258
736.00,0.0259
735.00,0.0259
734.00,0.0257
733.00,0.0255
732.00,0.0256
731.00,0.0257
730.00,0.0257
729.00,0.0257
728.00,0.0257
727.00,0.0257
726.00,0.0258
725.00,0.0258
724.00,0.0259
723.00,0.0259
722.00,0.0258
721.00,0.0258
720.00,0.0258
719.00,0.0258
718.00,0.0259
717.00,0.0260
716.00,0.0261
715.00,0.0262
714.00,0.0261
713.00,0.0259
712.00,0.0259
711.00,0.0259
710.00,0.0259
709.00,0.0259
708.00,0.0259
707.00,0.0259
706.00,0.0259
705.00,0.0260
704.00,0.0260
703.00,0.0261
702.00,0.0262
701.00,0.0263
700.00,0.0264
699.00,0.0264
698.00,0.0263
697.00,0.0263
696.00,0.0264
695.00,0.0264
694.00,0.0266
693.00,0.0267
692.00,0.0268
691.00,0.0267
690.00,0.0265
689.00,0.0263
688.00,0.0262
687.00,0.0263
686.00,0.0265
685.00,0.0269
684.00,0.0270
683.00,0.0269
682.00,0.0267
681.00,0.0267
680.00,0.0268
679.00,0.0270
678.00,0.0269
677.00,0.0269
676.00,0.0269
675.00,0.0270
674.00,0.0271
673.00,0.0274
672.00,0.0277
671.00,0.0281
670.00,0.0283
669.00,0.0284
668.00,0.0286
667.00,0.0285
666.00,0.0280
665.00,0.0275
664.00,0.0272
663.00,0.0272
662.00,0.0273
661.00,0.0272
660.00,0.0272
659.00,0.0273
658.00,0.0274
657.00,0.0276
656.00,0.0277
655.00,0.0277
654.00,0.0277
653.00,0.0277
652.00,0.0277
651.00,0.0278
650.00,0.0278
