Created as New Dataset,Monday, April 03 2023
cm-1,A
4000.00,-0.0004
3999.00,-0.0004
3998.00,-0.0004
3997.00,-0.0005
3996.00,-0.0005
3995.00,-0.0005
3994.00,-0.0005
3993.00,-0.0005
3992.00,-0.0005
3991.00,-0.0005
3990.00,-0.0005
3989.00,-0.0005
3988.00,-0.0005
3987.00,-0.0005
3986.00,-0.0005
3985.00,-0.0005
3984.00,-0.0005
3983.00,-0.0005
3982.00,-0.0006
3981.00,-0.0006
3980.00,-0.0005
3979.00,-0.0005
3978.00,-0.0005
3977.00,-0.0005
3976.00,-0.0005
3975.00,-0.0006
3974.00,-0.0006
3973.00,-0.0006
3972.00,-0.0005
3971.00,-0.0005
3970.00,-0.0005
3969.00,-0.0006
3968.00,-0.0006
3967.00,-0.0005
3966.00,-0.0005
3965.00,-0.0005
3964.00,-0.0005
3963.00,-0.0005
3962.00,-0.0005
3961.00,-0.0006
3960.00,-0.0006
3959.00,-0.0005
3958.00,-0.0005
3957.00,-0.0005
3956.00,-0.0005
3955.00,-0.0005
3954.00,-0.0005
3953.00,-0.0005
3952.00,-0.0005
3951.00,-0.0005
3950.00,-0.0004
3949.00,-0.0004
3948.00,-0.0004
3947.00,-0.0005
3946.00,-0.0005
3945.00,-0.0005
3944.00,-0.0006
3943.00,-0.0006
3942.00,-0.0006
3941.00,-0.0006
3940.00,-0.0006
3939.00,-0.0006
3938.00,-0.0006
3937.00,-0.0005
3936.00,-0.0004
3935.00,-0.0004
3934.00,-0.0003
3933.00,-0.0003
3932.00,-0.0003
3931.00,-0.0004
3930.00,-0.0004
3929.00,-0.0005
3928.00,-0.0005
3927.00,-0.0006
3926.00,-0.0006
3925.00,-0.0006
3924.00,-0.0006
3923.00,-0.0006
3922.00,-0.0005
3921.00,-0.0005
3920.00,-0.0004
3919.00,-0.0003
3918.00,-0.0003
3917.00,-0.0003
3916.00,-0.0004
3915.00,-0.0005
3914.00,-0.0005
3913.00,-0.0005
3912.00,-0.0006
3911.00,-0.0006
3910.00,-0.0006
3909.00,-0.0006
3908.00,-0.0006
3907.00,-0.0005
3906.00,-0.0004
3905.00,-0.0003
3904.00,-0.0002
3903.00,-0.0001
3902.00,-0.0001
3901.00,-0.0002
3900.00,-0.0003
3899.00,-0.0003
3898.00,-0.0004
3897.00,-0.0003
3896.00,-0.0003
3895.00,-0.0003
3894.00,-0.0004
3893.00,-0.0004
3892.00,-0.0004
3891.00,-0.0004
3890.00,-0.0004
3889.00,-0.0004
3888.00,-0.0003
3887.00,-0.0003
3886.00,-0.0003
3885.00,-0.0004
3884.00,-0.0004
3883.00,-0.0004
3882.00,-0.0005
3881.00,-0.0005
3880.00,-0.0005
3879.00,-0.0005
3878.00,-0.0004
3877.00,-0.0004
3876.00,-0.0004
3875.00,-0.0005
3874.00,-0.0005
3873.00,-0.0004
3872.00,-0.0003
3871.00,-0.0003
3870.00,-0.0004
3869.00,-0.0004
3868.00,-0.0003
3867.00,-0.0003
3866.00,-0.0002
3865.00,-0.0003
3864.00,-0.0003
3863.00,-0.0003
3862.00,-0.0003
3861.00,-0.0003
3860.00,-0.0003
3859.00,-0.0003
3858.00,-0.0004
3857.00,-0.0004
3856.00,-0.0003
3855.00,-0.0003
3854.00,-0.0002
3853.00,-0.0003
3852.00,-0.0003
3851.00,-0.0003
3850.00,-0.0003
3849.00,-0.0002
3848.00,-0.0003
3847.00,-0.0003
3846.00,-0.0004
3845.00,-0.0004
3844.00,-0.0004
3843.00,-0.0004
3842.00,-0.0004
3841.00,-0.0004
3840.00,-0.0004
3839.00,-0.0004
3838.00,-0.0004
3837.00,-0.0004
3836.00,-0.0004
3835.00,-0.0004
3834.00,-0.0004
3833.00,-0.0003
3832.00,-0.0003
3831.00,-0.0003
3830.00,-0.0003
3829.00,-0.0003
3828.00,-0.0003
3827.00,-0.0004
3826.00,-0.0004
3825.00,-0.0003
3824.00,-0.0002
3823.00,-0.0002
3822.00,-0.0002
3821.00,-0.0003
3820.00,-0.0003
3819.00,-0.0003
3818.00,-0.0003
3817.00,-0.0004
3816.00,-0.0005
3815.00,-0.0005
3814.00,-0.0005
3813.00,-0.0004
3812.00,-0.0004
3811.00,-0.0004
3810.00,-0.0004
3809.00,-0.0004
3808.00,-0.0004
3807.00,-0.0003
3806.00,-0.0003
3805.00,-0.0003
3804.00,-0.0003
3803.00,-0.0003
3802.00,-0.0004
3801.00,-0.0004
3800.00,-0.0004
3799.00,-0.0004
3798.00,-0.0003
3797.00,-0.0003
3796.00,-0.0003
3795.00,-0.0004
3794.00,-0.0004
3793.00,-0.0004
3792.00,-0.0005
3791.00,-0.0005
3790.00,-0.0005
3789.00,-0.0005
3788.00,-0.0005
3787.00,-0.0005
3786.00,-0.0005
3785.00,-0.0005
3784.00,-0.0005
3783.00,-0.0005
3782.00,-0.0005
3781.00,-0.0005
3780.00,-0.0006
3779.00,-0.0006
3778.00,-0.0006
3777.00,-0.0005
3776.00,-0.0005
3775.00,-0.0005
3774.00,-0.0005
3773.00,-0.0004
3772.00,-0.0003
3771.00,-0.0003
3770.00,-0.0003
3769.00,-0.0003
3768.00,-0.0003
3767.00,-0.0003
3766.00,-0.0003
3765.00,-0.0004
3764.00,-0.0004
3763.00,-0.0003
3762.00,-0.0003
3761.00,-0.0003
3760.00,-0.0003
3759.00,-0.0003
3758.00,-0.0003
3757.00,-0.0002
3756.00,-0.0002
3755.00,-0.0001
3754.00,-0.0000
3753.00,0.0001
3752.00,0.0003
3751.00,0.0004
3750.00,0.0004
3749.00,0.0003
3748.00,0.0002
3747.00,0.0001
3746.00,0.0000
3745.00,-0.0001
3744.00,-0.0001
3743.00,-0.0001
3742.00,-0.0000
3741.00,0.0001
3740.00,0.0001
3739.00,0.0001
3738.00,0.0002
3737.00,0.0002
3736.00,0.0002
3735.00,0.0002
3734.00,0.0002
3733.00,0.0002
3732.00,0.0001
3731.00,0.0000
3730.00,-0.0000
3729.00,-0.0000
3728.00,-0.0000
3727.00,0.0000
3726.00,-0.0000
3725.00,-0.0001
3724.00,-0.0001
3723.00,-0.0002
3722.00,-0.0002
3721.00,-0.0003
3720.00,-0.0003
3719.00,-0.0003
3718.00,-0.0003
3717.00,-0.0003
3716.00,-0.0003
3715.00,-0.0002
3714.00,-0.0002
3713.00,-0.0001
3712.00,-0.0001
3711.00,-0.0001
3710.00,-0.0001
3709.00,-0.0001
3708.00,-0.0001
3707.00,-0.0002
3706.00,-0.0003
3705.00,-0.0004
3704.00,-0.0005
3703.00,-0.0005
3702.00,-0.0006
3701.00,-0.0006
3700.00,-0.0005
3699.00,-0.0004
3698.00,-0.0004
3697.00,-0.0004
3696.00,-0.0004
3695.00,-0.0004
3694.00,-0.0004
3693.00,-0.0004
3692.00,-0.0004
3691.00,-0.0004
3690.00,-0.0003
3689.00,-0.0003
3688.00,-0.0003
3687.00,-0.0002
3686.00,-0.0002
3685.00,-0.0002
3684.00,-0.0002
3683.00,-0.0002
3682.00,-0.0002
3681.00,-0.0003
3680.00,-0.0004
3679.00,-0.0004
3678.00,-0.0004
3677.00,-0.0003
3676.00,-0.0003
3675.00,-0.0003
3674.00,-0.0002
3673.00,-0.0001
3672.00,-0.0000
3671.00,-0.0001
3670.00,-0.0002
3669.00,-0.0004
3668.00,-0.0004
3667.00,-0.0004
3666.00,-0.0003
3665.00,-0.0003
3664.00,-0.0004
3663.00,-0.0004
3662.00,-0.0004
3661.00,-0.0004
3660.00,-0.0003
3659.00,-0.0003
3658.00,-0.0002
3657.00,-0.0002
3656.00,-0.0002
3655.00,-0.0002
3654.00,-0.0003
3653.00,-0.0003
3652.00,-0.0003
3651.00,-0.0002
3650.00,-0.0001
3649.00,-0.0001
3648.00,-0.0002
3647.00,-0.0003
3646.00,-0.0002
3645.00,-0.0002
3644.00,-0.0002
3643.00,-0.0002
3642.00,-0.0003
3641.00,-0.0003
3640.00,-0.0004
3639.00,-0.0004
3638.00,-0.0004
3637.00,-0.0004
3636.00,-0.0004
3635.00,-0.0003
3634.00,-0.0003
3633.00,-0.0002
3632.00,-0.0001
3631.00,0.0001
3630.00,0.0001
3629.00,0.0001
3628.00,-0.0000
3627.00,-0.0001
3626.00,-0.0001
3625.00,-0.0001
3624.00,-0.0002
3623.00,-0.0002
3622.00,-0.0002
3621.00,-0.0002
3620.00,-0.0002
3619.00,-0.0002
3618.00,-0.0001
3617.00,-0.0001
3616.00,-0.0001
3615.00,-0.0000
3614.00,0.0000
3613.00,0.0001
3612.00,0.0002
3611.00,0.0003
3610.00,0.0002
3609.00,0.0001
3608.00,-0.0001
3607.00,-0.0002
3606.00,-0.0002
3605.00,-0.0002
3604.00,-0.0002
3603.00,-0.0002
3602.00,-0.0003
3601.00,-0.0003
3600.00,-0.0003
3599.00,-0.0003
3598.00,-0.0004
3597.00,-0.0004
3596.00,-0.0005
3595.00,-0.0004
3594.00,-0.0004
3593.00,-0.0003
3592.00,-0.0002
3591.00,-0.0001
3590.00,-0.0002
3589.00,-0.0003
3588.00,-0.0004
3587.00,-0.0005
3586.00,-0.0005
3585.00,-0.0004
3584.00,-0.0004
3583.00,-0.0004
3582.00,-0.0004
3581.00,-0.0004
3580.00,-0.0004
3579.00,-0.0004
3578.00,-0.0004
3577.00,-0.0004
3576.00,-0.0004
3575.00,-0.0004
3574.00,-0.0003
3573.00,-0.0003
3572.00,-0.0004
3571.00,-0.0004
3570.00,-0.0004
3569.00,-0.0004
3568.00,-0.0003
3567.00,-0.0003
3566.00,-0.0003
3565.00,-0.0003
3564.00,-0.0003
3563.00,-0.0003
3562.00,-0.0003
3561.00,-0.0003
3560.00,-0.0004
3559.00,-0.0004
3558.00,-0.0004
3557.00,-0.0004
3556.00,-0.0005
3555.00,-0.0005
3554.00,-0.0005
3553.00,-0.0005
3552.00,-0.0004
3551.00,-0.0004
3550.00,-0.0004
3549.00,-0.0004
3548.00,-0.0003
3547.00,-0.0003
3546.00,-0.0003
3545.00,-0.0003
3544.00,-0.0003
3543.00,-0.0004
3542.00,-0.0004
3541.00,-0.0004
3540.00,-0.0004
3539.00,-0.0004
3538.00,-0.0004
3537.00,-0.0004
3536.00,-0.0004
3535.00,-0.0003
3534.00,-0.0003
3533.00,-0.0003
3532.00,-0.0004
3531.00,-0.0005
3530.00,-0.0005
3529.00,-0.0005
3528.00,-0.0005
3527.00,-0.0004
3526.00,-0.0004
3525.00,-0.0004
3524.00,-0.0004
3523.00,-0.0004
3522.00,-0.0004
3521.00,-0.0004
3520.00,-0.0004
3519.00,-0.0004
3518.00,-0.0004
3517.00,-0.0004
3516.00,-0.0004
3515.00,-0.0004
3514.00,-0.0005
3513.00,-0.0005
3512.00,-0.0005
3511.00,-0.0005
3510.00,-0.0004
3509.00,-0.0004
3508.00,-0.0004
3507.00,-0.0004
3506.00,-0.0005
3505.00,-0.0005
3504.00,-0.0005
3503.00,-0.0005
3502.00,-0.0004
3501.00,-0.0004
3500.00,-0.0004
3499.00,-0.0004
3498.00,-0.0004
3497.00,-0.0004
3496.00,-0.0004
3495.00,-0.0004
3494.00,-0.0004
3493.00,-0.0004
3492.00,-0.0004
3491.00,-0.0004
3490.00,-0.0004
3489.00,-0.0004
3488.00,-0.0005
3487.00,-0.0004
3486.00,-0.0004
3485.00,-0.0004
3484.00,-0.0004
3483.00,-0.0004
3482.00,-0.0005
3481.00,-0.0005
3480.00,-0.0006
3479.00,-0.0006
3478.00,-0.0005
3477.00,-0.0005
3476.00,-0.0005
3475.00,-0.0004
3474.00,-0.0004
3473.00,-0.0004
3472.00,-0.0004
3471.00,-0.0004
3470.00,-0.0004
3469.00,-0.0005
3468.00,-0.0005
3467.00,-0.0005
3466.00,-0.0005
3465.00,-0.0005
3464.00,-0.0005
3463.00,-0.0005
3462.00,-0.0004
3461.00,-0.0004
3460.00,-0.0004
3459.00,-0.0004
3458.00,-0.0004
3457.00,-0.0005
3456.00,-0.0005
3455.00,-0.0005
3454.00,-0.0005
3453.00,-0.0005
3452.00,-0.0005
3451.00,-0.0005
3450.00,-0.0005
3449.00,-0.0005
3448.00,-0.0005
3447.00,-0.0005
3446.00,-0.0005
3445.00,-0.0005
3444.00,-0.0005
3443.00,-0.0004
3442.00,-0.0005
3441.00,-0.0005
3440.00,-0.0005
3439.00,-0.0005
3438.00,-0.0005
3437.00,-0.0005
3436.00,-0.0005
3435.00,-0.0005
3434.00,-0.0005
3433.00,-0.0004
3432.00,-0.0004
3431.00,-0.0004
3430.00,-0.0005
3429.00,-0.0005
3428.00,-0.0006
3427.00,-0.0006
3426.00,-0.0006
3425.00,-0.0006
3424.00,-0.0005
3423.00,-0.0005
3422.00,-0.0004
3421.00,-0.0003
3420.00,-0.0003
3419.00,-0.0003
3418.00,-0.0004
3417.00,-0.0004
3416.00,-0.0005
3415.00,-0.0005
3414.00,-0.0005
3413.00,-0.0005
3412.00,-0.0005
3411.00,-0.0005
3410.00,-0.0006
3409.00,-0.0006
3408.00,-0.0006
3407.00,-0.0006
3406.00,-0.0006
3405.00,-0.0006
3404.00,-0.0006
3403.00,-0.0005
3402.00,-0.0005
3401.00,-0.0005
3400.00,-0.0005
3399.00,-0.0005
3398.00,-0.0006
3397.00,-0.0006
3396.00,-0.0006
3395.00,-0.0005
3394.00,-0.0005
3393.00,-0.0005
3392.00,-0.0005
3391.00,-0.0005
3390.00,-0.0005
3389.00,-0.0005
3388.00,-0.0005
3387.00,-0.0005
3386.00,-0.0005
3385.00,-0.0005
3384.00,-0.0005
3383.00,-0.0005
3382.00,-0.0005
3381.00,-0.0005
3380.00,-0.0006
3379.00,-0.0006
3378.00,-0.0006
3377.00,-0.0006
3376.00,-0.0006
3375.00,-0.0006
3374.00,-0.0006
3373.00,-0.0006
3372.00,-0.0006
3371.00,-0.0006
3370.00,-0.0006
3369.00,-0.0006
3368.00,-0.0006
3367.00,-0.0006
3366.00,-0.0006
3365.00,-0.0006
3364.00,-0.0006
3363.00,-0.0006
3362.00,-0.0006
3361.00,-0.0006
3360.00,-0.0006
3359.00,-0.0007
3358.00,-0.0006
3357.00,-0.0006
3356.00,-0.0006
3355.00,-0.0005
3354.00,-0.0005
3353.00,-0.0005
3352.00,-0.0004
3351.00,-0.0004
3350.00,-0.0004
3349.00,-0.0004
3348.00,-0.0005
3347.00,-0.0006
3346.00,-0.0006
3345.00,-0.0007
3344.00,-0.0006
3343.00,-0.0006
3342.00,-0.0006
3341.00,-0.0005
3340.00,-0.0005
3339.00,-0.0006
3338.00,-0.0006
3337.00,-0.0006
3336.00,-0.0007
3335.00,-0.0007
3334.00,-0.0007
3333.00,-0.0007
3332.00,-0.0006
3331.00,-0.0006
3330.00,-0.0006
3329.00,-0.0006
3328.00,-0.0006
3327.00,-0.0006
3326.00,-0.0006
3325.00,-0.0006
3324.00,-0.0006
3323.00,-0.0006
3322.00,-0.0006
3321.00,-0.0006
3320.00,-0.0005
3319.00,-0.0005
3318.00,-0.0005
3317.00,-0.0005
3316.00,-0.0005
3315.00,-0.0006
3314.00,-0.0006
3313.00,-0.0006
3312.00,-0.0006
3311.00,-0.0006
3310.00,-0.0006
3309.00,-0.0006
3308.00,-0.0006
3307.00,-0.0006
3306.00,-0.0006
3305.00,-0.0006
3304.00,-0.0007
3303.00,-0.0006
3302.00,-0.0006
3301.00,-0.0005
3300.00,-0.0005
3299.00,-0.0004
3298.00,-0.0004
3297.00,-0.0005
3296.00,-0.0005
3295.00,-0.0006
3294.00,-0.0006
3293.00,-0.0005
3292.00,-0.0005
3291.00,-0.0005
3290.00,-0.0005
3289.00,-0.0005
3288.00,-0.0005
3287.00,-0.0005
3286.00,-0.0005
3285.00,-0.0005
3284.00,-0.0006
3283.00,-0.0006
3282.00,-0.0007
3281.00,-0.0007
3280.00,-0.0006
3279.00,-0.0006
3278.00,-0.0006
3277.00,-0.0005
3276.00,-0.0006
3275.00,-0.0006
3274.00,-0.0006
3273.00,-0.0006
3272.00,-0.0005
3271.00,-0.0005
3270.00,-0.0005
3269.00,-0.0006
3268.00,-0.0006
3267.00,-0.0006
3266.00,-0.0007
3265.00,-0.0007
3264.00,-0.0007
3263.00,-0.0007
3262.00,-0.0007
3261.00,-0.0007
3260.00,-0.0007
3259.00,-0.0007
3258.00,-0.0007
3257.00,-0.0007
3256.00,-0.0007
3255.00,-0.0006
3254.00,-0.0006
3253.00,-0.0006
3252.00,-0.0006
3251.00,-0.0006
3250.00,-0.0005
3249.00,-0.0005
3248.00,-0.0005
3247.00,-0.0005
3246.00,-0.0005
3245.00,-0.0005
3244.00,-0.0005
3243.00,-0.0006
3242.00,-0.0006
3241.00,-0.0005
3240.00,-0.0005
3239.00,-0.0005
3238.00,-0.0005
3237.00,-0.0005
3236.00,-0.0005
3235.00,-0.0005
3234.00,-0.0005
3233.00,-0.0006
3232.00,-0.0006
3231.00,-0.0006
3230.00,-0.0006
3229.00,-0.0006
3228.00,-0.0005
3227.00,-0.0005
3226.00,-0.0005
3225.00,-0.0005
3224.00,-0.0005
3223.00,-0.0006
3222.00,-0.0006
3221.00,-0.0006
3220.00,-0.0006
3219.00,-0.0006
3218.00,-0.0006
3217.00,-0.0006
3216.00,-0.0006
3215.00,-0.0006
3214.00,-0.0006
3213.00,-0.0006
3212.00,-0.0006
3211.00,-0.0006
3210.00,-0.0006
3209.00,-0.0006
3208.00,-0.0006
3207.00,-0.0005
3206.00,-0.0005
3205.00,-0.0005
3204.00,-0.0006
3203.00,-0.0006
3202.00,-0.0006
3201.00,-0.0006
3200.00,-0.0006
3199.00,-0.0005
3198.00,-0.0005
3197.00,-0.0006
3196.00,-0.0006
3195.00,-0.0006
3194.00,-0.0006
3193.00,-0.0006
3192.00,-0.0006
3191.00,-0.0006
3190.00,-0.0006
3189.00,-0.0005
3188.00,-0.0005
3187.00,-0.0005
3186.00,-0.0005
3185.00,-0.0005
3184.00,-0.0006
3183.00,-0.0006
3182.00,-0.0006
3181.00,-0.0005
3180.00,-0.0005
3179.00,-0.0005
3178.00,-0.0005
3177.00,-0.0006
3176.00,-0.0006
3175.00,-0.0006
3174.00,-0.0007
3173.00,-0.0006
3172.00,-0.0006
3171.00,-0.0006
3170.00,-0.0006
3169.00,-0.0005
3168.00,-0.0006
3167.00,-0.0006
3166.00,-0.0006
3165.00,-0.0006
3164.00,-0.0006
3163.00,-0.0006
3162.00,-0.0006
3161.00,-0.0006
3160.00,-0.0006
3159.00,-0.0006
3158.00,-0.0005
3157.00,-0.0006
3156.00,-0.0006
3155.00,-0.0006
3154.00,-0.0007
3153.00,-0.0007
3152.00,-0.0007
3151.00,-0.0007
3150.00,-0.0006
3149.00,-0.0006
3148.00,-0.0006
3147.00,-0.0006
3146.00,-0.0006
3145.00,-0.0006
3144.00,-0.0006
3143.00,-0.0006
3142.00,-0.0006
3141.00,-0.0006
3140.00,-0.0006
3139.00,-0.0006
3138.00,-0.0005
3137.00,-0.0005
3136.00,-0.0005
3135.00,-0.0006
3134.00,-0.0006
3133.00,-0.0007
3132.00,-0.0006
3131.00,-0.0006
3130.00,-0.0006
3129.00,-0.0006
3128.00,-0.0006
3127.00,-0.0006
3126.00,-0.0006
3125.00,-0.0006
3124.00,-0.0006
3123.00,-0.0006
3122.00,-0.0006
3121.00,-0.0006
3120.00,-0.0006
3119.00,-0.0005
3118.00,-0.0005
3117.00,-0.0006
3116.00,-0.0006
3115.00,-0.0006
3114.00,-0.0006
3113.00,-0.0006
3112.00,-0.0006
3111.00,-0.0006
3110.00,-0.0006
3109.00,-0.0006
3108.00,-0.0006
3107.00,-0.0006
3106.00,-0.0006
3105.00,-0.0007
3104.00,-0.0007
3103.00,-0.0007
3102.00,-0.0006
3101.00,-0.0006
3100.00,-0.0006
3099.00,-0.0006
3098.00,-0.0006
3097.00,-0.0006
3096.00,-0.0006
3095.00,-0.0006
3094.00,-0.0006
3093.00,-0.0006
3092.00,-0.0006
3091.00,-0.0006
3090.00,-0.0006
3089.00,-0.0006
3088.00,-0.0005
3087.00,-0.0006
3086.00,-0.0006
3085.00,-0.0006
3084.00,-0.0006
3083.00,-0.0007
3082.00,-0.0007
3081.00,-0.0007
3080.00,-0.0006
3079.00,-0.0006
3078.00,-0.0006
3077.00,-0.0006
3076.00,-0.0006
3075.00,-0.0006
3074.00,-0.0006
3073.00,-0.0006
3072.00,-0.0007
3071.00,-0.0007
3070.00,-0.0007
3069.00,-0.0007
3068.00,-0.0007
3067.00,-0.0007
3066.00,-0.0006
3065.00,-0.0006
3064.00,-0.0006
3063.00,-0.0006
3062.00,-0.0006
3061.00,-0.0006
3060.00,-0.0006
3059.00,-0.0006
3058.00,-0.0006
3057.00,-0.0006
3056.00,-0.0006
3055.00,-0.0006
3054.00,-0.0007
3053.00,-0.0007
3052.00,-0.0007
3051.00,-0.0007
3050.00,-0.0006
3049.00,-0.0006
3048.00,-0.0006
3047.00,-0.0006
3046.00,-0.0006
3045.00,-0.0006
3044.00,-0.0006
3043.00,-0.0007
3042.00,-0.0007
3041.00,-0.0007
3040.00,-0.0007
3039.00,-0.0007
3038.00,-0.0007
3037.00,-0.0007
3036.00,-0.0007
3035.00,-0.0006
3034.00,-0.0006
3033.00,-0.0006
3032.00,-0.0006
3031.00,-0.0006
3030.00,-0.0006
3029.00,-0.0006
3028.00,-0.0006
3027.00,-0.0006
3026.00,-0.0006
3025.00,-0.0006
3024.00,-0.0006
3023.00,-0.0006
3022.00,-0.0007
3021.00,-0.0007
3020.00,-0.0007
3019.00,-0.0007
3018.00,-0.0007
3017.00,-0.0007
3016.00,-0.0007
3015.00,-0.0007
3014.00,-0.0007
3013.00,-0.0007
3012.00,-0.0007
3011.00,-0.0007
3010.00,-0.0007
3009.00,-0.0007
3008.00,-0.0007
3007.00,-0.0007
3006.00,-0.0008
3005.00,-0.0008
3004.00,-0.0008
3003.00,-0.0008
3002.00,-0.0007
3001.00,-0.0007
3000.00,-0.0007
2999.00,-0.0007
2998.00,-0.0008
2997.00,-0.0008
2996.00,-0.0008
2995.00,-0.0008
2994.00,-0.0008
2993.00,-0.0007
2992.00,-0.0007
2991.00,-0.0008
2990.00,-0.0008
2989.00,-0.0008
2988.00,-0.0009
2987.00,-0.0009
2986.00,-0.0009
2985.00,-0.0009
2984.00,-0.0009
2983.00,-0.0010
2982.00,-0.0010
2981.00,-0.0010
2980.00,-0.0010
2979.00,-0.0010
2978.00,-0.0010
2977.00,-0.0010
2976.00,-0.0010
2975.00,-0.0010
2974.00,-0.0010
2973.00,-0.0010
2972.00,-0.0010
2971.00,-0.0010
2970.00,-0.0010
2969.00,-0.0010
2968.00,-0.0010
2967.00,-0.0010
2966.00,-0.0010
2965.00,-0.0010
2964.00,-0.0010
2963.00,-0.0010
2962.00,-0.0010
2961.00,-0.0011
2960.00,-0.0011
2959.00,-0.0011
2958.00,-0.0011
2957.00,-0.0011
2956.00,-0.0011
2955.00,-0.0011
2954.00,-0.0011
2953.00,-0.0011
2952.00,-0.0011
2951.00,-0.0011
2950.00,-0.0011
2949.00,-0.0011
2948.00,-0.0011
2947.00,-0.0011
2946.00,-0.0010
2945.00,-0.0010
2944.00,-0.0010
2943.00,-0.0011
2942.00,-0.0011
2941.00,-0.0011
2940.00,-0.0011
2939.00,-0.0012
2938.00,-0.0012
2937.00,-0.0012
2936.00,-0.0013
2935.00,-0.0014
2934.00,-0.0014
2933.00,-0.0015
2932.00,-0.0015
2931.00,-0.0016
2930.00,-0.0016
2929.00,-0.0016
2928.00,-0.0017
2927.00,-0.0017
2926.00,-0.0017
2925.00,-0.0017
2924.00,-0.0017
2923.00,-0.0017
2922.00,-0.0017
2921.00,-0.0017
2920.00,-0.0017
2919.00,-0.0017
2918.00,-0.0017
2917.00,-0.0017
2916.00,-0.0017
2915.00,-0.0016
2914.00,-0.0016
2913.00,-0.0015
2912.00,-0.0014
2911.00,-0.0014
2910.00,-0.0014
2909.00,-0.0013
2908.00,-0.0013
2907.00,-0.0013
2906.00,-0.0012
2905.00,-0.0012
2904.00,-0.0011
2903.00,-0.0011
2902.00,-0.0011
2901.00,-0.0010
2900.00,-0.0011
2899.00,-0.0011
2898.00,-0.0011
2897.00,-0.0011
2896.00,-0.0011
2895.00,-0.0011
2894.00,-0.0011
2893.00,-0.0011
2892.00,-0.0010
2891.00,-0.0010
2890.00,-0.0010
2889.00,-0.0010
2888.00,-0.0010
2887.00,-0.0010
2886.00,-0.0010
2885.00,-0.0010
2884.00,-0.0010
2883.00,-0.0010
2882.00,-0.0010
2881.00,-0.0010
2880.00,-0.0009
2879.00,-0.0009
2878.00,-0.0009
2877.00,-0.0009
2876.00,-0.0009
2875.00,-0.0009
2874.00,-0.0009
2873.00,-0.0009
2872.00,-0.0010
2871.00,-0.0010
2870.00,-0.0010
2869.00,-0.0010
2868.00,-0.0010
2867.00,-0.0010
2866.00,-0.0010
2865.00,-0.0011
2864.00,-0.0011
2863.00,-0.0011
2862.00,-0.0011
2861.00,-0.0012
2860.00,-0.0012
2859.00,-0.0012
2858.00,-0.0013
2857.00,-0.0013
2856.00,-0.0013
2855.00,-0.0014
2854.00,-0.0014
2853.00,-0.0014
2852.00,-0.0014
2851.00,-0.0014
2850.00,-0.0014
2849.00,-0.0013
2848.00,-0.0013
2847.00,-0.0012
2846.00,-0.0011
2845.00,-0.0010
2844.00,-0.0010
2843.00,-0.0009
2842.00,-0.0009
2841.00,-0.0009
2840.00,-0.0009
2839.00,-0.0009
2838.00,-0.0008
2837.00,-0.0008
2836.00,-0.0008
2835.00,-0.0008
2834.00,-0.0008
2833.00,-0.0008
2832.00,-0.0008
2831.00,-0.0008
2830.00,-0.0008
2829.00,-0.0008
2828.00,-0.0008
2827.00,-0.0008
2826.00,-0.0008
2825.00,-0.0007
2824.00,-0.0007
2823.00,-0.0007
2822.00,-0.0007
2821.00,-0.0007
2820.00,-0.0007
2819.00,-0.0007
2818.00,-0.0007
2817.00,-0.0007
2816.00,-0.0007
2815.00,-0.0007
2814.00,-0.0007
2813.00,-0.0007
2812.00,-0.0007
2811.00,-0.0007
2810.00,-0.0007
2809.00,-0.0007
2808.00,-0.0007
2807.00,-0.0007
2806.00,-0.0007
2805.00,-0.0008
2804.00,-0.0008
2803.00,-0.0007
2802.00,-0.0007
2801.00,-0.0007
2800.00,-0.0007
2799.00,-0.0007
2798.00,-0.0007
2797.00,-0.0007
2796.00,-0.0007
2795.00,-0.0007
2794.00,-0.0007
2793.00,-0.0007
2792.00,-0.0008
2791.00,-0.0008
2790.00,-0.0008
2789.00,-0.0008
2788.00,-0.0007
2787.00,-0.0007
2786.00,-0.0007
2785.00,-0.0007
2784.00,-0.0007
2783.00,-0.0007
2782.00,-0.0008
2781.00,-0.0008
2780.00,-0.0008
2779.00,-0.0008
2778.00,-0.0008
2777.00,-0.0008
2776.00,-0.0008
2775.00,-0.0008
2774.00,-0.0008
2773.00,-0.0007
2772.00,-0.0007
2771.00,-0.0007
2770.00,-0.0007
2769.00,-0.0007
2768.00,-0.0007
2767.00,-0.0007
2766.00,-0.0007
2765.00,-0.0007
2764.00,-0.0007
2763.00,-0.0007
2762.00,-0.0007
2761.00,-0.0007
2760.00,-0.0008
2759.00,-0.0008
2758.00,-0.0008
2757.00,-0.0007
2756.00,-0.0007
2755.00,-0.0007
2754.00,-0.0007
2753.00,-0.0007
2752.00,-0.0007
2751.00,-0.0008
2750.00,-0.0008
2749.00,-0.0008
2748.00,-0.0008
2747.00,-0.0008
2746.00,-0.0008
2745.00,-0.0008
2744.00,-0.0008
2743.00,-0.0008
2742.00,-0.0008
2741.00,-0.0008
2740.00,-0.0008
2739.00,-0.0008
2738.00,-0.0008
2737.00,-0.0007
2736.00,-0.0007
2735.00,-0.0007
2734.00,-0.0008
2733.00,-0.0008
2732.00,-0.0008
2731.00,-0.0008
2730.00,-0.0008
2729.00,-0.0008
2728.00,-0.0008
2727.00,-0.0008
2726.00,-0.0008
2725.00,-0.0008
2724.00,-0.0008
2723.00,-0.0008
2722.00,-0.0008
2721.00,-0.0008
2720.00,-0.0008
2719.00,-0.0008
2718.00,-0.0008
2717.00,-0.0007
2716.00,-0.0008
2715.00,-0.0008
2714.00,-0.0008
2713.00,-0.0008
2712.00,-0.0008
2711.00,-0.0008
2710.00,-0.0008
2709.00,-0.0008
2708.00,-0.0008
2707.00,-0.0007
2706.00,-0.0007
2705.00,-0.0008
2704.00,-0.0008
2703.00,-0.0008
2702.00,-0.0008
2701.00,-0.0008
2700.00,-0.0008
2699.00,-0.0008
2698.00,-0.0008
2697.00,-0.0008
2696.00,-0.0008
2695.00,-0.0008
2694.00,-0.0008
2693.00,-0.0008
2692.00,-0.0008
2691.00,-0.0008
2690.00,-0.0008
2689.00,-0.0008
2688.00,-0.0008
2687.00,-0.0008
2686.00,-0.0008
2685.00,-0.0008
2684.00,-0.0008
2683.00,-0.0008
2682.00,-0.0008
2681.00,-0.0008
2680.00,-0.0008
2679.00,-0.0008
2678.00,-0.0009
2677.00,-0.0009
2676.00,-0.0009
2675.00,-0.0009
2674.00,-0.0009
2673.00,-0.0008
2672.00,-0.0008
2671.00,-0.0008
2670.00,-0.0008
2669.00,-0.0008
2668.00,-0.0008
2667.00,-0.0008
2666.00,-0.0007
2665.00,-0.0007
2664.00,-0.0007
2663.00,-0.0007
2662.00,-0.0008
2661.00,-0.0008
2660.00,-0.0008
2659.00,-0.0008
2658.00,-0.0008
2657.00,-0.0008
2656.00,-0.0008
2655.00,-0.0008
2654.00,-0.0007
2653.00,-0.0007
2652.00,-0.0007
2651.00,-0.0008
2650.00,-0.0008
2649.00,-0.0008
2648.00,-0.0009
2647.00,-0.0009
2646.00,-0.0009
2645.00,-0.0008
2644.00,-0.0008
2643.00,-0.0008
2642.00,-0.0008
2641.00,-0.0008
2640.00,-0.0008
2639.00,-0.0008
2638.00,-0.0008
2637.00,-0.0008
2636.00,-0.0008
2635.00,-0.0008
2634.00,-0.0008
2633.00,-0.0008
2632.00,-0.0009
2631.00,-0.0009
2630.00,-0.0009
2629.00,-0.0009
2628.00,-0.0008
2627.00,-0.0008
2626.00,-0.0009
2625.00,-0.0009
2624.00,-0.0009
2623.00,-0.0009
2622.00,-0.0009
2621.00,-0.0009
2620.00,-0.0009
2619.00,-0.0009
2618.00,-0.0009
2617.00,-0.0009
2616.00,-0.0009
2615.00,-0.0009
2614.00,-0.0008
2613.00,-0.0008
2612.00,-0.0008
2611.00,-0.0008
2610.00,-0.0008
2609.00,-0.0008
2608.00,-0.0009
2607.00,-0.0008
2606.00,-0.0008
2605.00,-0.0008
2604.00,-0.0008
2603.00,-0.0008
2602.00,-0.0008
2601.00,-0.0008
2600.00,-0.0008
2599.00,-0.0008
2598.00,-0.0008
2597.00,-0.0009
2596.00,-0.0009
2595.00,-0.0009
2594.00,-0.0008
2593.00,-0.0008
2592.00,-0.0008
2591.00,-0.0008
2590.00,-0.0008
2589.00,-0.0008
2588.00,-0.0008
2587.00,-0.0009
2586.00,-0.0009
2585.00,-0.0009
2584.00,-0.0008
2583.00,-0.0008
2582.00,-0.0007
2581.00,-0.0007
2580.00,-0.0007
2579.00,-0.0007
2578.00,-0.0008
2577.00,-0.0008
2576.00,-0.0008
2575.00,-0.0008
2574.00,-0.0008
2573.00,-0.0008
2572.00,-0.0008
2571.00,-0.0008
2570.00,-0.0008
2569.00,-0.0008
2568.00,-0.0008
2567.00,-0.0008
2566.00,-0.0007
2565.00,-0.0007
2564.00,-0.0007
2563.00,-0.0007
2562.00,-0.0008
2561.00,-0.0008
2560.00,-0.0009
2559.00,-0.0009
2558.00,-0.0009
2557.00,-0.0009
2556.00,-0.0009
2555.00,-0.0008
2554.00,-0.0008
2553.00,-0.0008
2552.00,-0.0007
2551.00,-0.0007
2550.00,-0.0008
2549.00,-0.0008
2548.00,-0.0008
2547.00,-0.0008
2546.00,-0.0008
2545.00,-0.0008
2544.00,-0.0008
2543.00,-0.0009
2542.00,-0.0009
2541.00,-0.0009
2540.00,-0.0008
2539.00,-0.0008
2538.00,-0.0008
2537.00,-0.0008
2536.00,-0.0008
2535.00,-0.0009
2534.00,-0.0009
2533.00,-0.0009
2532.00,-0.0009
2531.00,-0.0009
2530.00,-0.0009
2529.00,-0.0009
2528.00,-0.0009
2527.00,-0.0009
2526.00,-0.0009
2525.00,-0.0008
2524.00,-0.0008
2523.00,-0.0008
2522.00,-0.0008
2521.00,-0.0008
2520.00,-0.0008
2519.00,-0.0008
2518.00,-0.0009
2517.00,-0.0009
2516.00,-0.0009
2515.00,-0.0009
2514.00,-0.0008
2513.00,-0.0008
2512.00,-0.0008
2511.00,-0.0008
2510.00,-0.0009
2509.00,-0.0009
2508.00,-0.0009
2507.00,-0.0010
2506.00,-0.0009
2505.00,-0.0009
2504.00,-0.0009
2503.00,-0.0009
2502.00,-0.0009
2501.00,-0.0009
2500.00,-0.0009
2499.00,-0.0009
2498.00,-0.0008
2497.00,-0.0008
2496.00,-0.0007
2495.00,-0.0007
2494.00,-0.0008
2493.00,-0.0008
2492.00,-0.0008
2491.00,-0.0007
2490.00,-0.0007
2489.00,-0.0007
2488.00,-0.0007
2487.00,-0.0008
2486.00,-0.0008
2485.00,-0.0008
2484.00,-0.0008
2483.00,-0.0008
2482.00,-0.0008
2481.00,-0.0008
2480.00,-0.0008
2479.00,-0.0008
2478.00,-0.0008
2477.00,-0.0008
2476.00,-0.0008
2475.00,-0.0008
2474.00,-0.0008
2473.00,-0.0008
2472.00,-0.0008
2471.00,-0.0008
2470.00,-0.0008
2469.00,-0.0008
2468.00,-0.0008
2467.00,-0.0007
2466.00,-0.0007
2465.00,-0.0007
2464.00,-0.0006
2463.00,-0.0007
2462.00,-0.0007
2461.00,-0.0008
2460.00,-0.0008
2459.00,-0.0009
2458.00,-0.0009
2457.00,-0.0009
2456.00,-0.0009
2455.00,-0.0009
2454.00,-0.0009
2453.00,-0.0008
2452.00,-0.0008
2451.00,-0.0008
2450.00,-0.0007
2449.00,-0.0007
2448.00,-0.0007
2447.00,-0.0007
2446.00,-0.0007
2445.00,-0.0007
2444.00,-0.0007
2443.00,-0.0007
2442.00,-0.0007
2441.00,-0.0007
2440.00,-0.0007
2439.00,-0.0008
2438.00,-0.0008
2437.00,-0.0009
2436.00,-0.0009
2435.00,-0.0009
2434.00,-0.0009
2433.00,-0.0009
2432.00,-0.0009
2431.00,-0.0009
2430.00,-0.0009
2429.00,-0.0008
2428.00,-0.0008
2427.00,-0.0007
2426.00,-0.0007
2425.00,-0.0006
2424.00,-0.0006
2423.00,-0.0007
2422.00,-0.0007
2421.00,-0.0008
2420.00,-0.0008
2419.00,-0.0008
2418.00,-0.0008
2417.00,-0.0008
2416.00,-0.0007
2415.00,-0.0007
2414.00,-0.0007
2413.00,-0.0007
2412.00,-0.0007
2411.00,-0.0008
2410.00,-0.0008
2409.00,-0.0008
2408.00,-0.0008
2407.00,-0.0008
2406.00,-0.0008
2405.00,-0.0008
2404.00,-0.0008
2403.00,-0.0008
2402.00,-0.0008
2401.00,-0.0008
2400.00,-0.0008
2399.00,-0.0008
2398.00,-0.0008
2397.00,-0.0007
2396.00,-0.0007
2395.00,-0.0007
2394.00,-0.0007
2393.00,-0.0008
2392.00,-0.0008
2391.00,-0.0007
2390.00,-0.0007
2389.00,-0.0007
2388.00,-0.0007
2387.00,-0.0008
2386.00,-0.0008
2385.00,-0.0009
2384.00,-0.0009
2383.00,-0.0009
2382.00,-0.0009
2381.00,-0.0009
2380.00,-0.0010
2379.00,-0.0010
2378.00,-0.0010
2377.00,-0.0010
2376.00,-0.0010
2375.00,-0.0009
2374.00,-0.0009
2373.00,-0.0010
2372.00,-0.0010
2371.00,-0.0010
2370.00,-0.0009
2369.00,-0.0009
2368.00,-0.0009
2367.00,-0.0010
2366.00,-0.0010
2365.00,-0.0010
2364.00,-0.0010
2363.00,-0.0010
2362.00,-0.0010
2361.00,-0.0010
2360.00,-0.0010
2359.00,-0.0010
2358.00,-0.0010
2357.00,-0.0011
2356.00,-0.0011
2355.00,-0.0011
2354.00,-0.0010
2353.00,-0.0009
2352.00,-0.0009
2351.00,-0.0009
2350.00,-0.0009
2349.00,-0.0010
2348.00,-0.0010
2347.00,-0.0010
2346.00,-0.0009
2345.00,-0.0009
2344.00,-0.0010
2343.00,-0.0010
2342.00,-0.0009
2341.00,-0.0009
2340.00,-0.0010
2339.00,-0.0010
2338.00,-0.0010
2337.00,-0.0010
2336.00,-0.0010
2335.00,-0.0010
2334.00,-0.0009
2333.00,-0.0009
2332.00,-0.0009
2331.00,-0.0008
2330.00,-0.0008
2329.00,-0.0008
2328.00,-0.0008
2327.00,-0.0007
2326.00,-0.0007
2325.00,-0.0007
2324.00,-0.0007
2323.00,-0.0007
2322.00,-0.0008
2321.00,-0.0008
2320.00,-0.0009
2319.00,-0.0009
2318.00,-0.0009
2317.00,-0.0009
2316.00,-0.0009
2315.00,-0.0009
2314.00,-0.0009
2313.00,-0.0009
2312.00,-0.0009
2311.00,-0.0009
2310.00,-0.0008
2309.00,-0.0008
2308.00,-0.0008
2307.00,-0.0009
2306.00,-0.0009
2305.00,-0.0008
2304.00,-0.0008
2303.00,-0.0009
2302.00,-0.0009
2301.00,-0.0010
2300.00,-0.0010
2299.00,-0.0010
2298.00,-0.0009
2297.00,-0.0009
2296.00,-0.0009
2295.00,-0.0010
2294.00,-0.0010
2293.00,-0.0009
2292.00,-0.0008
2291.00,-0.0008
2290.00,-0.0007
2289.00,-0.0007
2288.00,-0.0007
2287.00,-0.0008
2286.00,-0.0008
2285.00,-0.0009
2284.00,-0.0009
2283.00,-0.0010
2282.00,-0.0010
2281.00,-0.0010
2280.00,-0.0009
2279.00,-0.0009
2278.00,-0.0008
2277.00,-0.0008
2276.00,-0.0009
2275.00,-0.0009
2274.00,-0.0009
2273.00,-0.0009
2272.00,-0.0009
2271.00,-0.0008
2270.00,-0.0008
2269.00,-0.0008
2268.00,-0.0008
2267.00,-0.0008
2266.00,-0.0008
2265.00,-0.0008
2264.00,-0.0007
2263.00,-0.0007
2262.00,-0.0007
2261.00,-0.0007
2260.00,-0.0007
2259.00,-0.0007
2258.00,-0.0007
2257.00,-0.0007
2256.00,-0.0008
2255.00,-0.0008
2254.00,-0.0008
2253.00,-0.0009
2252.00,-0.0009
2251.00,-0.0009
2250.00,-0.0009
2249.00,-0.0009
2248.00,-0.0009
2247.00,-0.0009
2246.00,-0.0009
2245.00,-0.0009
2244.00,-0.0008
2243.00,-0.0008
2242.00,-0.0009
2241.00,-0.0010
2240.00,-0.0010
2239.00,-0.0010
2238.00,-0.0010
2237.00,-0.0009
2236.00,-0.0008
2235.00,-0.0008
2234.00,-0.0007
2233.00,-0.0006
2232.00,-0.0006
2231.00,-0.0006
2230.00,-0.0006
2229.00,-0.0006
2228.00,-0.0007
2227.00,-0.0008
2226.00,-0.0009
2225.00,-0.0009
2224.00,-0.0009
2223.00,-0.0009
2222.00,-0.0008
2221.00,-0.0007
2220.00,-0.0008
2219.00,-0.0009
2218.00,-0.0010
2217.00,-0.0012
2216.00,-0.0012
2215.00,-0.0011
2214.00,-0.0009
2213.00,-0.0007
2212.00,-0.0006
2211.00,-0.0006
2210.00,-0.0006
2209.00,-0.0006
2208.00,-0.0007
2207.00,-0.0008
2206.00,-0.0009
2205.00,-0.0010
2204.00,-0.0011
2203.00,-0.0011
2202.00,-0.0010
2201.00,-0.0009
2200.00,-0.0008
2199.00,-0.0007
2198.00,-0.0006
2197.00,-0.0006
2196.00,-0.0008
2195.00,-0.0009
2194.00,-0.0010
2193.00,-0.0011
2192.00,-0.0011
2191.00,-0.0012
2190.00,-0.0011
2189.00,-0.0010
2188.00,-0.0008
2187.00,-0.0006
2186.00,-0.0006
2185.00,-0.0006
2184.00,-0.0007
2183.00,-0.0008
2182.00,-0.0008
2181.00,-0.0008
2180.00,-0.0009
2179.00,-0.0009
2178.00,-0.0009
2177.00,-0.0009
2176.00,-0.0009
2175.00,-0.0008
2174.00,-0.0008
2173.00,-0.0007
2172.00,-0.0007
2171.00,-0.0008
2170.00,-0.0008
2169.00,-0.0008
2168.00,-0.0008
2167.00,-0.0009
2166.00,-0.0010
2165.00,-0.0011
2164.00,-0.0012
2163.00,-0.0011
2162.00,-0.0010
2161.00,-0.0009
2160.00,-0.0008
2159.00,-0.0006
2158.00,-0.0005
2157.00,-0.0004
2156.00,-0.0005
2155.00,-0.0005
2154.00,-0.0005
2153.00,-0.0005
2152.00,-0.0006
2151.00,-0.0008
2150.00,-0.0010
2149.00,-0.0011
2148.00,-0.0012
2147.00,-0.0012
2146.00,-0.0011
2145.00,-0.0010
2144.00,-0.0009
2143.00,-0.0008
2142.00,-0.0008
2141.00,-0.0008
2140.00,-0.0007
2139.00,-0.0007
2138.00,-0.0006
2137.00,-0.0006
2136.00,-0.0007
2135.00,-0.0008
2134.00,-0.0008
2133.00,-0.0008
2132.00,-0.0007
2131.00,-0.0008
2130.00,-0.0008
2129.00,-0.0009
2128.00,-0.0008
2127.00,-0.0008
2126.00,-0.0007
2125.00,-0.0007
2124.00,-0.0008
2123.00,-0.0008
2122.00,-0.0008
2121.00,-0.0008
2120.00,-0.0008
2119.00,-0.0007
2118.00,-0.0007
2117.00,-0.0006
2116.00,-0.0006
2115.00,-0.0007
2114.00,-0.0007
2113.00,-0.0008
2112.00,-0.0008
2111.00,-0.0007
2110.00,-0.0007
2109.00,-0.0007
2108.00,-0.0007
2107.00,-0.0007
2106.00,-0.0007
2105.00,-0.0007
2104.00,-0.0007
2103.00,-0.0008
2102.00,-0.0008
2101.00,-0.0009
2100.00,-0.0009
2099.00,-0.0009
2098.00,-0.0009
2097.00,-0.0009
2096.00,-0.0008
2095.00,-0.0007
2094.00,-0.0007
2093.00,-0.0006
2092.00,-0.0005
2091.00,-0.0005
2090.00,-0.0006
2089.00,-0.0007
2088.00,-0.0008
2087.00,-0.0008
2086.00,-0.0007
2085.00,-0.0007
2084.00,-0.0007
2083.00,-0.0007
2082.00,-0.0008
2081.00,-0.0009
2080.00,-0.0010
2079.00,-0.0010
2078.00,-0.0009
2077.00,-0.0009
2076.00,-0.0008
2075.00,-0.0009
2074.00,-0.0009
2073.00,-0.0010
2072.00,-0.0009
2071.00,-0.0008
2070.00,-0.0007
2069.00,-0.0007
2068.00,-0.0008
2067.00,-0.0008
2066.00,-0.0008
2065.00,-0.0009
2064.00,-0.0009
2063.00,-0.0009
2062.00,-0.0009
2061.00,-0.0008
2060.00,-0.0008
2059.00,-0.0008
2058.00,-0.0009
2057.00,-0.0008
2056.00,-0.0007
2055.00,-0.0006
2054.00,-0.0005
2053.00,-0.0005
2052.00,-0.0006
2051.00,-0.0006
2050.00,-0.0007
2049.00,-0.0008
2048.00,-0.0009
2047.00,-0.0010
2046.00,-0.0009
2045.00,-0.0009
2044.00,-0.0009
2043.00,-0.0010
2042.00,-0.0011
2041.00,-0.0011
2040.00,-0.0010
2039.00,-0.0008
2038.00,-0.0006
2037.00,-0.0003
2036.00,-0.0002
2035.00,-0.0002
2034.00,-0.0003
2033.00,-0.0005
2032.00,-0.0007
2031.00,-0.0008
2030.00,-0.0009
2029.00,-0.0009
2028.00,-0.0010
2027.00,-0.0010
2026.00,-0.0011
2025.00,-0.0011
2024.00,-0.0010
2023.00,-0.0009
2022.00,-0.0008
2021.00,-0.0007
2020.00,-0.0007
2019.00,-0.0007
2018.00,-0.0007
2017.00,-0.0006
2016.00,-0.0006
2015.00,-0.0005
2014.00,-0.0005
2013.00,-0.0005
2012.00,-0.0006
2011.00,-0.0007
2010.00,-0.0009
2009.00,-0.0010
2008.00,-0.0010
2007.00,-0.0009
2006.00,-0.0008
2005.00,-0.0007
2004.00,-0.0006
2003.00,-0.0006
2002.00,-0.0005
2001.00,-0.0005
2000.00,-0.0006
1999.00,-0.0006
1998.00,-0.0007
1997.00,-0.0008
1996.00,-0.0009
1995.00,-0.0009
1994.00,-0.0010
1993.00,-0.0009
1992.00,-0.0008
1991.00,-0.0007
1990.00,-0.0005
1989.00,-0.0005
1988.00,-0.0006
1987.00,-0.0008
1986.00,-0.0009
1985.00,-0.0010
1984.00,-0.0010
1983.00,-0.0009
1982.00,-0.0009
1981.00,-0.0007
1980.00,-0.0006
1979.00,-0.0005
1978.00,-0.0005
1977.00,-0.0005
1976.00,-0.0007
1975.00,-0.0008
1974.00,-0.0009
1973.00,-0.0009
1972.00,-0.0009
1971.00,-0.0008
1970.00,-0.0007
1969.00,-0.0006
1968.00,-0.0006
1967.00,-0.0006
1966.00,-0.0006
1965.00,-0.0006
1964.00,-0.0005
1963.00,-0.0006
1962.00,-0.0006
1961.00,-0.0007
1960.00,-0.0007
1959.00,-0.0008
1958.00,-0.0008
1957.00,-0.0008
1956.00,-0.0008
1955.00,-0.0007
1954.00,-0.0007
1953.00,-0.0008
1952.00,-0.0008
1951.00,-0.0008
1950.00,-0.0008
1949.00,-0.0008
1948.00,-0.0008
1947.00,-0.0008
1946.00,-0.0007
1945.00,-0.0006
1944.00,-0.0005
1943.00,-0.0005
1942.00,-0.0006
1941.00,-0.0007
1940.00,-0.0008
1939.00,-0.0010
1938.00,-0.0011
1937.00,-0.0011
1936.00,-0.0009
1935.00,-0.0008
1934.00,-0.0007
1933.00,-0.0006
1932.00,-0.0006
1931.00,-0.0007
1930.00,-0.0007
1929.00,-0.0008
1928.00,-0.0009
1927.00,-0.0009
1926.00,-0.0008
1925.00,-0.0008
1924.00,-0.0007
1923.00,-0.0007
1922.00,-0.0006
1921.00,-0.0006
1920.00,-0.0005
1919.00,-0.0004
1918.00,-0.0004
1917.00,-0.0006
1916.00,-0.0007
1915.00,-0.0007
1914.00,-0.0007
1913.00,-0.0007
1912.00,-0.0008
1911.00,-0.0008
1910.00,-0.0008
1909.00,-0.0008
1908.00,-0.0007
1907.00,-0.0007
1906.00,-0.0007
1905.00,-0.0008
1904.00,-0.0008
1903.00,-0.0008
1902.00,-0.0008
1901.00,-0.0007
1900.00,-0.0006
1899.00,-0.0006
1898.00,-0.0006
1897.00,-0.0007
1896.00,-0.0008
1895.00,-0.0008
1894.00,-0.0008
1893.00,-0.0009
1892.00,-0.0009
1891.00,-0.0009
1890.00,-0.0009
1889.00,-0.0009
1888.00,-0.0009
1887.00,-0.0008
1886.00,-0.0008
1885.00,-0.0008
1884.00,-0.0008
1883.00,-0.0008
1882.00,-0.0007
1881.00,-0.0007
1880.00,-0.0007
1879.00,-0.0008
1878.00,-0.0009
1877.00,-0.0009
1876.00,-0.0009
1875.00,-0.0008
1874.00,-0.0008
1873.00,-0.0008
1872.00,-0.0008
1871.00,-0.0008
1870.00,-0.0007
1869.00,-0.0008
1868.00,-0.0008
1867.00,-0.0008
1866.00,-0.0008
1865.00,-0.0008
1864.00,-0.0008
1863.00,-0.0008
1862.00,-0.0008
1861.00,-0.0009
1860.00,-0.0009
1859.00,-0.0009
1858.00,-0.0009
1857.00,-0.0008
1856.00,-0.0008
1855.00,-0.0008
1854.00,-0.0008
1853.00,-0.0008
1852.00,-0.0008
1851.00,-0.0008
1850.00,-0.0007
1849.00,-0.0007
1848.00,-0.0007
1847.00,-0.0007
1846.00,-0.0006
1845.00,-0.0007
1844.00,-0.0007
1843.00,-0.0008
1842.00,-0.0008
1841.00,-0.0008
1840.00,-0.0008
1839.00,-0.0008
1838.00,-0.0008
1837.00,-0.0008
1836.00,-0.0009
1835.00,-0.0008
1834.00,-0.0008
1833.00,-0.0008
1832.00,-0.0008
1831.00,-0.0008
1830.00,-0.0008
1829.00,-0.0009
1828.00,-0.0009
1827.00,-0.0010
1826.00,-0.0010
1825.00,-0.0010
1824.00,-0.0009
1823.00,-0.0009
1822.00,-0.0008
1821.00,-0.0008
1820.00,-0.0008
1819.00,-0.0008
1818.00,-0.0007
1817.00,-0.0008
1816.00,-0.0008
1815.00,-0.0008
1814.00,-0.0008
1813.00,-0.0009
1812.00,-0.0009
1811.00,-0.0010
1810.00,-0.0009
1809.00,-0.0009
1808.00,-0.0009
1807.00,-0.0009
1806.00,-0.0009
1805.00,-0.0009
1804.00,-0.0010
1803.00,-0.0010
1802.00,-0.0010
1801.00,-0.0009
1800.00,-0.0008
1799.00,-0.0008
1798.00,-0.0007
1797.00,-0.0007
1796.00,-0.0007
1795.00,-0.0007
1794.00,-0.0007
1793.00,-0.0007
1792.00,-0.0007
1791.00,-0.0008
1790.00,-0.0008
1789.00,-0.0008
1788.00,-0.0008
1787.00,-0.0008
1786.00,-0.0008
1785.00,-0.0008
1784.00,-0.0008
1783.00,-0.0009
1782.00,-0.0009
1781.00,-0.0009
1780.00,-0.0009
1779.00,-0.0008
1778.00,-0.0008
1777.00,-0.0008
1776.00,-0.0008
1775.00,-0.0007
1774.00,-0.0007
1773.00,-0.0007
1772.00,-0.0008
1771.00,-0.0008
1770.00,-0.0008
1769.00,-0.0007
1768.00,-0.0006
1767.00,-0.0007
1766.00,-0.0007
1765.00,-0.0008
1764.00,-0.0008
1763.00,-0.0008
1762.00,-0.0008
1761.00,-0.0008
1760.00,-0.0008
1759.00,-0.0008
1758.00,-0.0008
1757.00,-0.0008
1756.00,-0.0008
1755.00,-0.0008
1754.00,-0.0008
1753.00,-0.0008
1752.00,-0.0008
1751.00,-0.0007
1750.00,-0.0007
1749.00,-0.0007
1748.00,-0.0008
1747.00,-0.0008
1746.00,-0.0009
1745.00,-0.0010
1744.00,-0.0010
1743.00,-0.0011
1742.00,-0.0011
1741.00,-0.0010
1740.00,-0.0009
1739.00,-0.0009
1738.00,-0.0008
1737.00,-0.0008
1736.00,-0.0006
1735.00,-0.0004
1734.00,-0.0004
1733.00,-0.0006
1732.00,-0.0008
1731.00,-0.0009
1730.00,-0.0010
1729.00,-0.0010
1728.00,-0.0009
1727.00,-0.0009
1726.00,-0.0009
1725.00,-0.0009
1724.00,-0.0009
1723.00,-0.0008
1722.00,-0.0009
1721.00,-0.0010
1720.00,-0.0011
1719.00,-0.0012
1718.00,-0.0010
1717.00,-0.0008
1716.00,-0.0007
1715.00,-0.0007
1714.00,-0.0007
1713.00,-0.0007
1712.00,-0.0007
1711.00,-0.0007
1710.00,-0.0008
1709.00,-0.0008
1708.00,-0.0009
1707.00,-0.0010
1706.00,-0.0010
1705.00,-0.0010
1704.00,-0.0010
1703.00,-0.0008
1702.00,-0.0007
1701.00,-0.0005
1700.00,-0.0004
1699.00,-0.0003
1698.00,-0.0003
1697.00,-0.0004
1696.00,-0.0006
1695.00,-0.0006
1694.00,-0.0006
1693.00,-0.0006
1692.00,-0.0006
1691.00,-0.0006
1690.00,-0.0006
1689.00,-0.0007
1688.00,-0.0007
1687.00,-0.0009
1686.00,-0.0011
1685.00,-0.0012
1684.00,-0.0012
1683.00,-0.0011
1682.00,-0.0009
1681.00,-0.0007
1680.00,-0.0007
1679.00,-0.0007
1678.00,-0.0006
1677.00,-0.0006
1676.00,-0.0006
1675.00,-0.0006
1674.00,-0.0006
1673.00,-0.0007
1672.00,-0.0007
1671.00,-0.0007
1670.00,-0.0007
1669.00,-0.0008
1668.00,-0.0008
1667.00,-0.0008
1666.00,-0.0007
1665.00,-0.0007
1664.00,-0.0007
1663.00,-0.0007
1662.00,-0.0006
1661.00,-0.0006
1660.00,-0.0006
1659.00,-0.0006
1658.00,-0.0006
1657.00,-0.0007
1656.00,-0.0008
1655.00,-0.0010
1654.00,-0.0012
1653.00,-0.0012
1652.00,-0.0010
1651.00,-0.0009
1650.00,-0.0009
1649.00,-0.0009
1648.00,-0.0007
1647.00,-0.0005
1646.00,-0.0004
1645.00,-0.0005
1644.00,-0.0005
1643.00,-0.0005
1642.00,-0.0005
1641.00,-0.0006
1640.00,-0.0007
1639.00,-0.0008
1638.00,-0.0008
1637.00,-0.0009
1636.00,-0.0009
1635.00,-0.0009
1634.00,-0.0009
1633.00,-0.0008
1632.00,-0.0008
1631.00,-0.0007
1630.00,-0.0008
1629.00,-0.0009
1628.00,-0.0009
1627.00,-0.0009
1626.00,-0.0009
1625.00,-0.0008
1624.00,-0.0007
1623.00,-0.0007
1622.00,-0.0007
1621.00,-0.0007
1620.00,-0.0007
1619.00,-0.0007
1618.00,-0.0007
1617.00,-0.0008
1616.00,-0.0008
1615.00,-0.0009
1614.00,-0.0009
1613.00,-0.0008
1612.00,-0.0008
1611.00,-0.0008
1610.00,-0.0008
1609.00,-0.0007
1608.00,-0.0007
1607.00,-0.0007
1606.00,-0.0007
1605.00,-0.0008
1604.00,-0.0008
1603.00,-0.0008
1602.00,-0.0009
1601.00,-0.0009
1600.00,-0.0008
1599.00,-0.0008
1598.00,-0.0008
1597.00,-0.0008
1596.00,-0.0008
1595.00,-0.0008
1594.00,-0.0008
1593.00,-0.0008
1592.00,-0.0008
1591.00,-0.0008
1590.00,-0.0008
1589.00,-0.0008
1588.00,-0.0009
1587.00,-0.0009
1586.00,-0.0009
1585.00,-0.0009
1584.00,-0.0009
1583.00,-0.0009
1582.00,-0.0009
1581.00,-0.0009
1580.00,-0.0009
1579.00,-0.0009
1578.00,-0.0009
1577.00,-0.0009
1576.00,-0.0008
1575.00,-0.0008
1574.00,-0.0008
1573.00,-0.0008
1572.00,-0.0008
1571.00,-0.0008
1570.00,-0.0008
1569.00,-0.0008
1568.00,-0.0008
1567.00,-0.0008
1566.00,-0.0008
1565.00,-0.0008
1564.00,-0.0007
1563.00,-0.0007
1562.00,-0.0008
1561.00,-0.0010
1560.00,-0.0010
1559.00,-0.0005
1558.00,-0.0004
1557.00,-0.0004
1556.00,-0.0004
1555.00,-0.0004
1554.00,-0.0005
1553.00,-0.0006
1552.00,-0.0007
1551.00,-0.0007
1550.00,-0.0007
1549.00,-0.0006
1548.00,-0.0005
1547.00,-0.0005
1546.00,-0.0005
1545.00,-0.0004
1544.00,-0.0003
1543.00,-0.0002
1542.00,-0.0001
1541.00,-0.0002
1540.00,-0.0005
1539.00,-0.0008
1538.00,-0.0008
1537.00,-0.0007
1536.00,-0.0007
1535.00,-0.0007
1534.00,-0.0008
1533.00,-0.0009
1532.00,-0.0009
1531.00,-0.0008
1530.00,-0.0007
1529.00,-0.0007
1528.00,-0.0006
1527.00,-0.0005
1526.00,-0.0004
1525.00,-0.0003
1524.00,-0.0003
1523.00,-0.0003
1522.00,-0.0003
1521.00,-0.0005
1520.00,-0.0007
1519.00,-0.0009
1518.00,-0.0010
1517.00,-0.0009
1516.00,-0.0008
1515.00,-0.0007
1514.00,-0.0006
1513.00,-0.0006
1512.00,-0.0006
1511.00,-0.0007
1510.00,-0.0009
1509.00,-0.0010
1508.00,-0.0009
1507.00,-0.0009
1506.00,-0.0009
1505.00,-0.0007
1504.00,-0.0006
1503.00,-0.0006
1502.00,-0.0006
1501.00,-0.0006
1500.00,-0.0007
1499.00,-0.0008
1498.00,-0.0007
1497.00,-0.0007
1496.00,-0.0008
1495.00,-0.0008
1494.00,-0.0008
1493.00,-0.0007
1492.00,-0.0007
1491.00,-0.0007
1490.00,-0.0007
1489.00,-0.0008
1488.00,-0.0010
1487.00,-0.0010
1486.00,-0.0010
1485.00,-0.0010
1484.00,-0.0010
1483.00,-0.0010
1482.00,-0.0010
1481.00,-0.0010
1480.00,-0.0010
1479.00,-0.0011
1478.00,-0.0011
1477.00,-0.0011
1476.00,-0.0011
1475.00,-0.0009
1474.00,-0.0007
1473.00,-0.0006
1472.00,-0.0007
1471.00,-0.0009
1470.00,-0.0010
1469.00,-0.0010
1468.00,-0.0010
1467.00,-0.0011
1466.00,-0.0011
1465.00,-0.0010
1464.00,-0.0011
1463.00,-0.0011
1462.00,-0.0011
1461.00,-0.0012
1460.00,-0.0012
1459.00,-0.0011
1458.00,-0.0008
1457.00,-0.0005
1456.00,-0.0005
1455.00,-0.0007
1454.00,-0.0008
1453.00,-0.0009
1452.00,-0.0009
1451.00,-0.0010
1450.00,-0.0010
1449.00,-0.0010
1448.00,-0.0010
1447.00,-0.0010
1446.00,-0.0011
1445.00,-0.0010
1444.00,-0.0011
1443.00,-0.0011
1442.00,-0.0011
1441.00,-0.0011
1440.00,-0.0011
1439.00,-0.0011
1438.00,-0.0010
1437.00,-0.0009
1436.00,-0.0009
1435.00,-0.0009
1434.00,-0.0009
1433.00,-0.0009
1432.00,-0.0010
1431.00,-0.0010
1430.00,-0.0011
1429.00,-0.0011
1428.00,-0.0010
1427.00,-0.0010
1426.00,-0.0010
1425.00,-0.0010
1424.00,-0.0010
1423.00,-0.0010
1422.00,-0.0010
1421.00,-0.0010
1420.00,-0.0011
1419.00,-0.0011
1418.00,-0.0011
1417.00,-0.0011
1416.00,-0.0011
1415.00,-0.0011
1414.00,-0.0011
1413.00,-0.0011
1412.00,-0.0011
1411.00,-0.0011
1410.00,-0.0011
1409.00,-0.0011
1408.00,-0.0011
1407.00,-0.0012
1406.00,-0.0012
1405.00,-0.0012
1404.00,-0.0011
1403.00,-0.0011
1402.00,-0.0010
1401.00,-0.0010
1400.00,-0.0009
1399.00,-0.0009
1398.00,-0.0009
1397.00,-0.0010
1396.00,-0.0010
1395.00,-0.0010
1394.00,-0.0011
1393.00,-0.0010
1392.00,-0.0010
1391.00,-0.0010
1390.00,-0.0010
1389.00,-0.0010
1388.00,-0.0010
1387.00,-0.0010
1386.00,-0.0010
1385.00,-0.0010
1384.00,-0.0010
1383.00,-0.0010
1382.00,-0.0010
1381.00,-0.0010
1380.00,-0.0010
1379.00,-0.0010
1378.00,-0.0010
1377.00,-0.0011
1376.00,-0.0011
1375.00,-0.0011
1374.00,-0.0010
1373.00,-0.0010
1372.00,-0.0009
1371.00,-0.0009
1370.00,-0.0009
1369.00,-0.0009
1368.00,-0.0009
1367.00,-0.0009
1366.00,-0.0009
1365.00,-0.0010
1364.00,-0.0011
1363.00,-0.0011
1362.00,-0.0012
1361.00,-0.0012
1360.00,-0.0011
1359.00,-0.0011
1358.00,-0.0010
1357.00,-0.0010
1356.00,-0.0010
1355.00,-0.0010
1354.00,-0.0010
1353.00,-0.0010
1352.00,-0.0010
1351.00,-0.0010
1350.00,-0.0010
1349.00,-0.0010
1348.00,-0.0010
1347.00,-0.0010
1346.00,-0.0011
1345.00,-0.0011
1344.00,-0.0011
1343.00,-0.0012
1342.00,-0.0012
1341.00,-0.0012
1340.00,-0.0012
1339.00,-0.0012
1338.00,-0.0012
1337.00,-0.0012
1336.00,-0.0012
1335.00,-0.0012
1334.00,-0.0011
1333.00,-0.0011
1332.00,-0.0010
1331.00,-0.0010
1330.00,-0.0010
1329.00,-0.0011
1328.00,-0.0011
1327.00,-0.0011
1326.00,-0.0012
1325.00,-0.0012
1324.00,-0.0012
1323.00,-0.0012
1322.00,-0.0011
1321.00,-0.0010
1320.00,-0.0010
1319.00,-0.0010
1318.00,-0.0010
1317.00,-0.0010
1316.00,-0.0010
1315.00,-0.0010
1314.00,-0.0010
1313.00,-0.0011
1312.00,-0.0011
1311.00,-0.0010
1310.00,-0.0010
1309.00,-0.0010
1308.00,-0.0011
1307.00,-0.0010
1306.00,-0.0010
1305.00,-0.0010
1304.00,-0.0010
1303.00,-0.0009
1302.00,-0.0009
1301.00,-0.0009
1300.00,-0.0010
1299.00,-0.0010
1298.00,-0.0010
1297.00,-0.0010
1296.00,-0.0010
1295.00,-0.0010
1294.00,-0.0011
1293.00,-0.0011
1292.00,-0.0010
1291.00,-0.0010
1290.00,-0.0010
1289.00,-0.0010
1288.00,-0.0010
1287.00,-0.0010
1286.00,-0.0011
1285.00,-0.0011
1284.00,-0.0011
1283.00,-0.0011
1282.00,-0.0011
1281.00,-0.0011
1280.00,-0.0011
1279.00,-0.0011
1278.00,-0.0011
1277.00,-0.0011
1276.00,-0.0011
1275.00,-0.0011
1274.00,-0.0011
1273.00,-0.0011
1272.00,-0.0011
1271.00,-0.0011
1270.00,-0.0011
1269.00,-0.0011
1268.00,-0.0011
1267.00,-0.0012
1266.00,-0.0012
1265.00,-0.0012
1264.00,-0.0012
1263.00,-0.0012
1262.00,-0.0012
1261.00,-0.0012
1260.00,-0.0012
1259.00,-0.0012
1258.00,-0.0012
1257.00,-0.0012
1256.00,-0.0012
1255.00,-0.0012
1254.00,-0.0012
1253.00,-0.0013
1252.00,-0.0013
1251.00,-0.0012
1250.00,-0.0012
1249.00,-0.0011
1248.00,-0.0011
1247.00,-0.0011
1246.00,-0.0011
1245.00,-0.0012
1244.00,-0.0012
1243.00,-0.0013
1242.00,-0.0013
1241.00,-0.0012
1240.00,-0.0012
1239.00,-0.0011
1238.00,-0.0011
1237.00,-0.0011
1236.00,-0.0011
1235.00,-0.0010
1234.00,-0.0010
1233.00,-0.0010
1232.00,-0.0010
1231.00,-0.0010
1230.00,-0.0010
1229.00,-0.0010
1228.00,-0.0009
1227.00,-0.0009
1226.00,-0.0009
1225.00,-0.0008
1224.00,-0.0008
1223.00,-0.0009
1222.00,-0.0009
1221.00,-0.0009
1220.00,-0.0010
1219.00,-0.0010
1218.00,-0.0010
1217.00,-0.0010
1216.00,-0.0010
1215.00,-0.0010
1214.00,-0.0010
1213.00,-0.0009
1212.00,-0.0009
1211.00,-0.0009
1210.00,-0.0010
1209.00,-0.0010
1208.00,-0.0011
1207.00,-0.0011
1206.00,-0.0010
1205.00,-0.0010
1204.00,-0.0009
1203.00,-0.0008
1202.00,-0.0007
1201.00,-0.0008
1200.00,-0.0008
1199.00,-0.0009
1198.00,-0.0010
1197.00,-0.0010
1196.00,-0.0010
1195.00,-0.0010
1194.00,-0.0010
1193.00,-0.0010
1192.00,-0.0009
1191.00,-0.0009
1190.00,-0.0009
1189.00,-0.0010
1188.00,-0.0010
1187.00,-0.0011
1186.00,-0.0010
1185.00,-0.0010
1184.00,-0.0010
1183.00,-0.0009
1182.00,-0.0009
1181.00,-0.0009
1180.00,-0.0009
1179.00,-0.0009
1178.00,-0.0009
1177.00,-0.0010
1176.00,-0.0010
1175.00,-0.0011
1174.00,-0.0011
1173.00,-0.0011
1172.00,-0.0011
1171.00,-0.0012
1170.00,-0.0011
1169.00,-0.0011
1168.00,-0.0011
1167.00,-0.0010
1166.00,-0.0011
1165.00,-0.0011
1164.00,-0.0011
1163.00,-0.0011
1162.00,-0.0011
1161.00,-0.0011
1160.00,-0.0011
1159.00,-0.0011
1158.00,-0.0010
1157.00,-0.0010
1156.00,-0.0010
1155.00,-0.0011
1154.00,-0.0011
1153.00,-0.0012
1152.00,-0.0013
1151.00,-0.0012
1150.00,-0.0012
1149.00,-0.0012
1148.00,-0.0012
1147.00,-0.0011
1146.00,-0.0010
1145.00,-0.0009
1144.00,-0.0010
1143.00,-0.0010
1142.00,-0.0011
1141.00,-0.0012
1140.00,-0.0012
1139.00,-0.0011
1138.00,-0.0011
1137.00,-0.0010
1136.00,-0.0010
1135.00,-0.0009
1134.00,-0.0009
1133.00,-0.0010
1132.00,-0.0011
1131.00,-0.0012
1130.00,-0.0012
1129.00,-0.0012
1128.00,-0.0011
1127.00,-0.0011
1126.00,-0.0011
1125.00,-0.0011
1124.00,-0.0011
1123.00,-0.0011
1122.00,-0.0011
1121.00,-0.0011
1120.00,-0.0011
1119.00,-0.0011
1118.00,-0.0011
1117.00,-0.0010
1116.00,-0.0009
1115.00,-0.0008
1114.00,-0.0009
1113.00,-0.0009
1112.00,-0.0009
1111.00,-0.0008
1110.00,-0.0008
1109.00,-0.0008
1108.00,-0.0008
1107.00,-0.0009
1106.00,-0.0010
1105.00,-0.0010
1104.00,-0.0010
1103.00,-0.0010
1102.00,-0.0010
1101.00,-0.0010
1100.00,-0.0010
1099.00,-0.0011
1098.00,-0.0011
1097.00,-0.0011
1096.00,-0.0010
1095.00,-0.0009
1094.00,-0.0009
1093.00,-0.0009
1092.00,-0.0008
1091.00,-0.0008
1090.00,-0.0008
1089.00,-0.0008
1088.00,-0.0008
1087.00,-0.0008
1086.00,-0.0008
1085.00,-0.0009
1084.00,-0.0009
1083.00,-0.0010
1082.00,-0.0010
1081.00,-0.0010
1080.00,-0.0010
1079.00,-0.0009
1078.00,-0.0009
1077.00,-0.0008
1076.00,-0.0007
1075.00,-0.0006
1074.00,-0.0006
1073.00,-0.0006
1072.00,-0.0007
1071.00,-0.0008
1070.00,-0.0009
1069.00,-0.0009
1068.00,-0.0009
1067.00,-0.0008
1066.00,-0.0008
1065.00,-0.0007
1064.00,-0.0006
1063.00,-0.0005
1062.00,-0.0004
1061.00,-0.0004
1060.00,-0.0004
1059.00,-0.0004
1058.00,-0.0005
1057.00,-0.0006
1056.00,-0.0006
1055.00,-0.0006
1054.00,-0.0006
1053.00,-0.0007
1052.00,-0.0007
1051.00,-0.0006
1050.00,-0.0006
1049.00,-0.0006
1048.00,-0.0006
1047.00,-0.0006
1046.00,-0.0006
1045.00,-0.0006
1044.00,-0.0005
1043.00,-0.0005
1042.00,-0.0004
1041.00,-0.0004
1040.00,-0.0004
1039.00,-0.0004
1038.00,-0.0004
1037.00,-0.0005
1036.00,-0.0006
1035.00,-0.0006
1034.00,-0.0007
1033.00,-0.0007
1032.00,-0.0006
1031.00,-0.0006
1030.00,-0.0005
1029.00,-0.0005
1028.00,-0.0004
1027.00,-0.0005
1026.00,-0.0005
1025.00,-0.0006
1024.00,-0.0007
1023.00,-0.0008
1022.00,-0.0008
1021.00,-0.0007
1020.00,-0.0007
1019.00,-0.0007
1018.00,-0.0007
1017.00,-0.0008
1016.00,-0.0007
1015.00,-0.0006
1014.00,-0.0005
1013.00,-0.0005
1012.00,-0.0005
1011.00,-0.0005
1010.00,-0.0005
1009.00,-0.0006
1008.00,-0.0006
1007.00,-0.0006
1006.00,-0.0006
1005.00,-0.0007
1004.00,-0.0008
1003.00,-0.0009
1002.00,-0.0010
1001.00,-0.0011
1000.00,-0.0011
999.00,-0.0011
998.00,-0.0010
997.00,-0.0008
996.00,-0.0007
995.00,-0.0005
994.00,-0.0005
993.00,-0.0004
992.00,-0.0004
991.00,-0.0005
990.00,-0.0005
989.00,-0.0007
988.00,-0.0008
987.00,-0.0009
986.00,-0.0009
985.00,-0.0009
984.00,-0.0009
983.00,-0.0009
982.00,-0.0009
981.00,-0.0009
980.00,-0.0008
979.00,-0.0008
978.00,-0.0008
977.00,-0.0008
976.00,-0.0007
975.00,-0.0006
974.00,-0.0006
973.00,-0.0006
972.00,-0.0007
971.00,-0.0008
970.00,-0.0009
969.00,-0.0009
968.00,-0.0009
967.00,-0.0009
966.00,-0.0009
965.00,-0.0010
964.00,-0.0010
963.00,-0.0011
962.00,-0.0011
961.00,-0.0010
960.00,-0.0008
959.00,-0.0008
958.00,-0.0008
957.00,-0.0009
956.00,-0.0010
955.00,-0.0010
954.00,-0.0011
953.00,-0.0011
952.00,-0.0012
951.00,-0.0011
950.00,-0.0011
949.00,-0.0010
948.00,-0.0009
947.00,-0.0009
946.00,-0.0009
945.00,-0.0009
944.00,-0.0009
943.00,-0.0010
942.00,-0.0010
941.00,-0.0009
940.00,-0.0007
939.00,-0.0005
938.00,-0.0004
937.00,-0.0004
936.00,-0.0005
935.00,-0.0006
934.00,-0.0007
933.00,-0.0007
932.00,-0.0008
931.00,-0.0009
930.00,-0.0009
929.00,-0.0010
928.00,-0.0009
927.00,-0.0008
926.00,-0.0007
925.00,-0.0007
924.00,-0.0007
923.00,-0.0007
922.00,-0.0007
921.00,-0.0008
920.00,-0.0008
919.00,-0.0008
918.00,-0.0007
917.00,-0.0005
916.00,-0.0004
915.00,-0.0004
914.00,-0.0004
913.00,-0.0005
912.00,-0.0007
911.00,-0.0008
910.00,-0.0009
909.00,-0.0009
908.00,-0.0009
907.00,-0.0007
906.00,-0.0006
905.00,-0.0005
904.00,-0.0004
903.00,-0.0004
902.00,-0.0005
901.00,-0.0006
900.00,-0.0008
899.00,-0.0009
898.00,-0.0009
897.00,-0.0009
896.00,-0.0008
895.00,-0.0008
894.00,-0.0007
893.00,-0.0007
892.00,-0.0007
891.00,-0.0006
890.00,-0.0006
889.00,-0.0007
888.00,-0.0007
887.00,-0.0008
886.00,-0.0009
885.00,-0.0011
884.00,-0.0012
883.00,-0.0012
882.00,-0.0012
881.00,-0.0011
880.00,-0.0010
879.00,-0.0009
878.00,-0.0009
877.00,-0.0008
876.00,-0.0007
875.00,-0.0007
874.00,-0.0008
873.00,-0.0008
872.00,-0.0007
871.00,-0.0006
870.00,-0.0003
869.00,-0.0001
868.00,-0.0000
867.00,-0.0002
866.00,-0.0005
865.00,-0.0008
864.00,-0.0010
863.00,-0.0011
862.00,-0.0010
861.00,-0.0008
860.00,-0.0007
859.00,-0.0006
858.00,-0.0006
857.00,-0.0006
856.00,-0.0007
855.00,-0.0008
854.00,-0.0008
853.00,-0.0008
852.00,-0.0009
851.00,-0.0010
850.00,-0.0011
849.00,-0.0010
848.00,-0.0010
847.00,-0.0009
846.00,-0.0009
845.00,-0.0009
844.00,-0.0009
843.00,-0.0009
842.00,-0.0010
841.00,-0.0011
840.00,-0.0011
839.00,-0.0010
838.00,-0.0008
837.00,-0.0007
836.00,-0.0007
835.00,-0.0008
834.00,-0.0010
833.00,-0.0012
832.00,-0.0012
831.00,-0.0011
830.00,-0.0009
829.00,-0.0009
828.00,-0.0010
827.00,-0.0012
826.00,-0.0013
825.00,-0.0012
824.00,-0.0009
823.00,-0.0005
822.00,-0.0002
821.00,-0.0002
820.00,-0.0003
819.00,-0.0005
818.00,-0.0007
817.00,-0.0009
816.00,-0.0010
815.00,-0.0010
814.00,-0.0010
813.00,-0.0010
812.00,-0.0010
811.00,-0.0011
810.00,-0.0012
809.00,-0.0012
808.00,-0.0011
807.00,-0.0010
806.00,-0.0009
805.00,-0.0008
804.00,-0.0007
803.00,-0.0006
802.00,-0.0005
801.00,-0.0005
800.00,-0.0004
799.00,-0.0004
798.00,-0.0005
797.00,-0.0005
796.00,-0.0006
795.00,-0.0007
794.00,-0.0008
793.00,-0.0009
792.00,-0.0010
791.00,-0.0010
790.00,-0.0010
789.00,-0.0009
788.00,-0.0009
787.00,-0.0008
786.00,-0.0007
785.00,-0.0006
784.00,-0.0006
783.00,-0.0007
782.00,-0.0008
781.00,-0.0009
780.00,-0.0010
779.00,-0.0010
778.00,-0.0009
777.00,-0.0009
776.00,-0.0008
775.00,-0.0007
774.00,-0.0006
773.00,-0.0005
772.00,-0.0005
771.00,-0.0006
770.00,-0.0007
769.00,-0.0007
768.00,-0.0006
767.00,-0.0005
766.00,-0.0003
765.00,-0.0002
764.00,-0.0003
763.00,-0.0004
762.00,-0.0006
761.00,-0.0007
760.00,-0.0007
759.00,-0.0006
758.00,-0.0004
757.00,-0.0002
756.00,-0.0002
755.00,-0.0003
754.00,-0.0006
753.00,-0.0008
752.00,-0.0010
751.00,-0.0009
750.00,-0.0007
749.00,-0.0004
748.00,-0.0002
747.00,-0.0002
746.00,-0.0004
745.00,-0.0008
744.00,-0.0010
743.00,-0.0011
742.00,-0.0009
741.00,-0.0008
740.00,-0.0007
739.00,-0.0006
738.00,-0.0004
737.00,-0.0002
736.00,-0.0001
735.00,-0.0003
734.00,-0.0005
733.00,-0.0007
732.00,-0.0007
731.00,-0.0005
730.00,-0.0004
729.00,-0.0003
728.00,-0.0003
727.00,-0.0003
726.00,-0.0004
725.00,-0.0005
724.00,-0.0007
723.00,-0.0008
722.00,-0.0008
721.00,-0.0008
720.00,-0.0008
719.00,-0.0008
718.00,-0.0008
717.00,-0.0008
716.00,-0.0007
715.00,-0.0005
714.00,-0.0005
713.00,-0.0005
712.00,-0.0006
711.00,-0.0009
710.00,-0.0011
709.00,-0.0012
708.00,-0.0011
707.00,-0.0009
706.00,-0.0006
705.00,-0.0005
704.00,-0.0005
703.00,-0.0005
702.00,-0.0006
701.00,-0.0006
700.00,-0.0007
699.00,-0.0008
698.00,-0.0009
697.00,-0.0009
696.00,-0.0008
695.00,-0.0007
694.00,-0.0005
693.00,-0.0005
692.00,-0.0005
691.00,-0.0007
690.00,-0.0008
689.00,-0.0008
688.00,-0.0009
687.00,-0.0010
686.00,-0.0007
685.00,-0.0002
684.00,0.0004
683.00,0.0009
682.00,0.0012
681.00,0.0013
680.00,0.0010
679.00,0.0002
678.00,-0.0008
677.00,-0.0016
676.00,-0.0018
675.00,-0.0014
674.00,-0.0007
673.00,-0.0001
672.00,0.0004
671.00,0.0006
670.00,0.0007
669.00,0.0004
668.00,-0.0002
667.00,-0.0005
666.00,-0.0006
665.00,-0.0006
664.00,-0.0005
663.00,-0.0004
662.00,-0.0002
661.00,-0.0001
660.00,-0.0001
659.00,-0.0000
658.00,-0.0001
657.00,-0.0003
656.00,-0.0007
655.00,-0.0010
654.00,-0.0005
653.00,-0.0003
652.00,0.0000
651.00,-0.0000
650.00,-0.0002
