Created as New Dataset,Monday, April 03 2023
cm-1,A
4000.00,0.0133
3999.00,0.0133
3998.00,0.0133
3997.00,0.0133
3996.00,0.0133
3995.00,0.0133
3994.00,0.0133
3993.00,0.0133
3992.00,0.0133
3991.00,0.0133
3990.00,0.0133
3989.00,0.0133
3988.00,0.0133
3987.00,0.0133
3986.00,0.0133
3985.00,0.0133
3984.00,0.0133
3983.00,0.0133
3982.00,0.0133
3981.00,0.0133
3980.00,0.0133
3979.00,0.0133
3978.00,0.0134
3977.00,0.0134
3976.00,0.0134
3975.00,0.0133
3974.00,0.0133
3973.00,0.0133
3972.00,0.0133
3971.00,0.0133
3970.00,0.0133
3969.00,0.0133
3968.00,0.0133
3967.00,0.0133
3966.00,0.0133
3965.00,0.0133
3964.00,0.0134
3963.00,0.0134
3962.00,0.0134
3961.00,0.0134
3960.00,0.0134
3959.00,0.0134
3958.00,0.0134
3957.00,0.0134
3956.00,0.0133
3955.00,0.0133
3954.00,0.0133
3953.00,0.0133
3952.00,0.0134
3951.00,0.0134
3950.00,0.0135
3949.00,0.0135
3948.00,0.0136
3947.00,0.0136
3946.00,0.0135
3945.00,0.0134
3944.00,0.0134
3943.00,0.0133
3942.00,0.0133
3941.00,0.0133
3940.00,0.0133
3939.00,0.0134
3938.00,0.0133
3937.00,0.0134
3936.00,0.0134
3935.00,0.0136
3934.00,0.0136
3933.00,0.0137
3932.00,0.0136
3931.00,0.0135
3930.00,0.0135
3929.00,0.0134
3928.00,0.0134
3927.00,0.0134
3926.00,0.0133
3925.00,0.0133
3924.00,0.0133
3923.00,0.0134
3922.00,0.0135
3921.00,0.0136
3920.00,0.0136
3919.00,0.0137
3918.00,0.0136
3917.00,0.0136
3916.00,0.0135
3915.00,0.0134
3914.00,0.0133
3913.00,0.0133
3912.00,0.0132
3911.00,0.0132
3910.00,0.0133
3909.00,0.0133
3908.00,0.0134
3907.00,0.0135
3906.00,0.0137
3905.00,0.0138
3904.00,0.0140
3903.00,0.0141
3902.00,0.0141
3901.00,0.0140
3900.00,0.0139
3899.00,0.0137
3898.00,0.0136
3897.00,0.0136
3896.00,0.0136
3895.00,0.0136
3894.00,0.0136
3893.00,0.0136
3892.00,0.0136
3891.00,0.0136
3890.00,0.0136
3889.00,0.0137
3888.00,0.0138
3887.00,0.0138
3886.00,0.0138
3885.00,0.0137
3884.00,0.0136
3883.00,0.0137
3882.00,0.0136
3881.00,0.0135
3880.00,0.0134
3879.00,0.0134
3878.00,0.0135
3877.00,0.0135
3876.00,0.0135
3875.00,0.0135
3874.00,0.0135
3873.00,0.0136
3872.00,0.0137
3871.00,0.0138
3870.00,0.0138
3869.00,0.0137
3868.00,0.0138
3867.00,0.0139
3866.00,0.0140
3865.00,0.0139
3864.00,0.0137
3863.00,0.0136
3862.00,0.0137
3861.00,0.0137
3860.00,0.0137
3859.00,0.0137
3858.00,0.0136
3857.00,0.0136
3856.00,0.0138
3855.00,0.0139
3854.00,0.0139
3853.00,0.0138
3852.00,0.0137
3851.00,0.0136
3850.00,0.0137
3849.00,0.0137
3848.00,0.0136
3847.00,0.0135
3846.00,0.0135
3845.00,0.0135
3844.00,0.0135
3843.00,0.0136
3842.00,0.0137
3841.00,0.0138
3840.00,0.0138
3839.00,0.0137
3838.00,0.0137
3837.00,0.0136
3836.00,0.0136
3835.00,0.0136
3834.00,0.0136
3833.00,0.0135
3832.00,0.0135
3831.00,0.0136
3830.00,0.0136
3829.00,0.0136
3828.00,0.0135
3827.00,0.0135
3826.00,0.0134
3825.00,0.0135
3824.00,0.0137
3823.00,0.0139
3822.00,0.0139
3821.00,0.0137
3820.00,0.0136
3819.00,0.0137
3818.00,0.0137
3817.00,0.0136
3816.00,0.0134
3815.00,0.0133
3814.00,0.0132
3813.00,0.0133
3812.00,0.0134
3811.00,0.0133
3810.00,0.0133
3809.00,0.0133
3808.00,0.0135
3807.00,0.0135
3806.00,0.0135
3805.00,0.0136
3804.00,0.0137
3803.00,0.0137
3802.00,0.0135
3801.00,0.0134
3800.00,0.0133
3799.00,0.0134
3798.00,0.0134
3797.00,0.0134
3796.00,0.0133
3795.00,0.0133
3794.00,0.0132
3793.00,0.0132
3792.00,0.0131
3791.00,0.0130
3790.00,0.0130
3789.00,0.0131
3788.00,0.0131
3787.00,0.0132
3786.00,0.0131
3785.00,0.0131
3784.00,0.0131
3783.00,0.0132
3782.00,0.0132
3781.00,0.0132
3780.00,0.0131
3779.00,0.0131
3778.00,0.0131
3777.00,0.0131
3776.00,0.0131
3775.00,0.0131
3774.00,0.0131
3773.00,0.0132
3772.00,0.0133
3771.00,0.0134
3770.00,0.0134
3769.00,0.0134
3768.00,0.0134
3767.00,0.0134
3766.00,0.0134
3765.00,0.0134
3764.00,0.0134
3763.00,0.0135
3762.00,0.0136
3761.00,0.0136
3760.00,0.0135
3759.00,0.0134
3758.00,0.0134
3757.00,0.0134
3756.00,0.0135
3755.00,0.0136
3754.00,0.0138
3753.00,0.0140
3752.00,0.0142
3751.00,0.0143
3750.00,0.0143
3749.00,0.0142
3748.00,0.0140
3747.00,0.0139
3746.00,0.0138
3745.00,0.0138
3744.00,0.0137
3743.00,0.0136
3742.00,0.0137
3741.00,0.0139
3740.00,0.0140
3739.00,0.0140
3738.00,0.0140
3737.00,0.0140
3736.00,0.0140
3735.00,0.0139
3734.00,0.0139
3733.00,0.0138
3732.00,0.0137
3731.00,0.0136
3730.00,0.0135
3729.00,0.0135
3728.00,0.0136
3727.00,0.0136
3726.00,0.0135
3725.00,0.0134
3724.00,0.0134
3723.00,0.0133
3722.00,0.0132
3721.00,0.0131
3720.00,0.0130
3719.00,0.0130
3718.00,0.0131
3717.00,0.0131
3716.00,0.0132
3715.00,0.0133
3714.00,0.0134
3713.00,0.0134
3712.00,0.0133
3711.00,0.0132
3710.00,0.0132
3709.00,0.0132
3708.00,0.0132
3707.00,0.0132
3706.00,0.0132
3705.00,0.0132
3704.00,0.0131
3703.00,0.0131
3702.00,0.0130
3701.00,0.0130
3700.00,0.0131
3699.00,0.0131
3698.00,0.0132
3697.00,0.0132
3696.00,0.0132
3695.00,0.0132
3694.00,0.0133
3693.00,0.0133
3692.00,0.0133
3691.00,0.0133
3690.00,0.0133
3689.00,0.0134
3688.00,0.0134
3687.00,0.0134
3686.00,0.0134
3685.00,0.0134
3684.00,0.0134
3683.00,0.0134
3682.00,0.0134
3681.00,0.0133
3680.00,0.0133
3679.00,0.0133
3678.00,0.0134
3677.00,0.0136
3676.00,0.0136
3675.00,0.0137
3674.00,0.0138
3673.00,0.0140
3672.00,0.0142
3671.00,0.0141
3670.00,0.0139
3669.00,0.0137
3668.00,0.0137
3667.00,0.0138
3666.00,0.0139
3665.00,0.0139
3664.00,0.0139
3663.00,0.0139
3662.00,0.0140
3661.00,0.0141
3660.00,0.0142
3659.00,0.0144
3658.00,0.0146
3657.00,0.0148
3656.00,0.0149
3655.00,0.0149
3654.00,0.0150
3653.00,0.0152
3652.00,0.0154
3651.00,0.0156
3650.00,0.0158
3649.00,0.0159
3648.00,0.0158
3647.00,0.0158
3646.00,0.0158
3645.00,0.0159
3644.00,0.0159
3643.00,0.0159
3642.00,0.0159
3641.00,0.0159
3640.00,0.0159
3639.00,0.0160
3638.00,0.0161
3637.00,0.0162
3636.00,0.0163
3635.00,0.0165
3634.00,0.0166
3633.00,0.0167
3632.00,0.0169
3631.00,0.0172
3630.00,0.0175
3629.00,0.0176
3628.00,0.0177
3627.00,0.0177
3626.00,0.0178
3625.00,0.0177
3624.00,0.0177
3623.00,0.0177
3622.00,0.0178
3621.00,0.0179
3620.00,0.0180
3619.00,0.0182
3618.00,0.0183
3617.00,0.0184
3616.00,0.0185
3615.00,0.0185
3614.00,0.0185
3613.00,0.0185
3612.00,0.0187
3611.00,0.0188
3610.00,0.0189
3609.00,0.0189
3608.00,0.0187
3607.00,0.0186
3606.00,0.0186
3605.00,0.0187
3604.00,0.0187
3603.00,0.0187
3602.00,0.0187
3601.00,0.0187
3600.00,0.0188
3599.00,0.0188
3598.00,0.0188
3597.00,0.0188
3596.00,0.0189
3595.00,0.0189
3594.00,0.0191
3593.00,0.0192
3592.00,0.0193
3591.00,0.0195
3590.00,0.0196
3589.00,0.0195
3588.00,0.0194
3587.00,0.0194
3586.00,0.0194
3585.00,0.0195
3584.00,0.0195
3583.00,0.0195
3582.00,0.0195
3581.00,0.0195
3580.00,0.0194
3579.00,0.0195
3578.00,0.0195
3577.00,0.0195
3576.00,0.0195
3575.00,0.0196
3574.00,0.0196
3573.00,0.0197
3572.00,0.0198
3571.00,0.0199
3570.00,0.0200
3569.00,0.0201
3568.00,0.0202
3567.00,0.0203
3566.00,0.0204
3565.00,0.0204
3564.00,0.0204
3563.00,0.0203
3562.00,0.0203
3561.00,0.0202
3560.00,0.0202
3559.00,0.0203
3558.00,0.0204
3557.00,0.0204
3556.00,0.0204
3555.00,0.0205
3554.00,0.0205
3553.00,0.0206
3552.00,0.0207
3551.00,0.0208
3550.00,0.0209
3549.00,0.0209
3548.00,0.0210
3547.00,0.0211
3546.00,0.0212
3545.00,0.0212
3544.00,0.0212
3543.00,0.0212
3542.00,0.0211
3541.00,0.0211
3540.00,0.0211
3539.00,0.0211
3538.00,0.0212
3537.00,0.0212
3536.00,0.0212
3535.00,0.0213
3534.00,0.0213
3533.00,0.0213
3532.00,0.0214
3531.00,0.0214
3530.00,0.0215
3529.00,0.0216
3528.00,0.0217
3527.00,0.0219
3526.00,0.0220
3525.00,0.0220
3524.00,0.0221
3523.00,0.0220
3522.00,0.0220
3521.00,0.0220
3520.00,0.0220
3519.00,0.0220
3518.00,0.0220
3517.00,0.0221
3516.00,0.0221
3515.00,0.0221
3514.00,0.0221
3513.00,0.0221
3512.00,0.0221
3511.00,0.0222
3510.00,0.0223
3509.00,0.0224
3508.00,0.0224
3507.00,0.0225
3506.00,0.0225
3505.00,0.0226
3504.00,0.0226
3503.00,0.0227
3502.00,0.0228
3501.00,0.0228
3500.00,0.0228
3499.00,0.0228
3498.00,0.0228
3497.00,0.0229
3496.00,0.0229
3495.00,0.0230
3494.00,0.0230
3493.00,0.0231
3492.00,0.0231
3491.00,0.0231
3490.00,0.0231
3489.00,0.0231
3488.00,0.0232
3487.00,0.0232
3486.00,0.0233
3485.00,0.0233
3484.00,0.0234
3483.00,0.0234
3482.00,0.0234
3481.00,0.0234
3480.00,0.0234
3479.00,0.0234
3478.00,0.0234
3477.00,0.0235
3476.00,0.0235
3475.00,0.0236
3474.00,0.0236
3473.00,0.0237
3472.00,0.0237
3471.00,0.0237
3470.00,0.0237
3469.00,0.0238
3468.00,0.0238
3467.00,0.0239
3466.00,0.0239
3465.00,0.0239
3464.00,0.0239
3463.00,0.0240
3462.00,0.0240
3461.00,0.0240
3460.00,0.0241
3459.00,0.0241
3458.00,0.0241
3457.00,0.0241
3456.00,0.0242
3455.00,0.0242
3454.00,0.0242
3453.00,0.0243
3452.00,0.0243
3451.00,0.0243
3450.00,0.0243
3449.00,0.0244
3448.00,0.0244
3447.00,0.0245
3446.00,0.0245
3445.00,0.0246
3444.00,0.0246
3443.00,0.0247
3442.00,0.0247
3441.00,0.0247
3440.00,0.0247
3439.00,0.0247
3438.00,0.0247
3437.00,0.0248
3436.00,0.0248
3435.00,0.0249
3434.00,0.0249
3433.00,0.0249
3432.00,0.0250
3431.00,0.0250
3430.00,0.0250
3429.00,0.0251
3428.00,0.0251
3427.00,0.0251
3426.00,0.0251
3425.00,0.0252
3424.00,0.0252
3423.00,0.0253
3422.00,0.0253
3421.00,0.0253
3420.00,0.0253
3419.00,0.0253
3418.00,0.0253
3417.00,0.0253
3416.00,0.0253
3415.00,0.0253
3414.00,0.0254
3413.00,0.0254
3412.00,0.0255
3411.00,0.0255
3410.00,0.0254
3409.00,0.0254
3408.00,0.0254
3407.00,0.0255
3406.00,0.0255
3405.00,0.0256
3404.00,0.0256
3403.00,0.0257
3402.00,0.0257
3401.00,0.0257
3400.00,0.0257
3399.00,0.0257
3398.00,0.0257
3397.00,0.0258
3396.00,0.0258
3395.00,0.0258
3394.00,0.0259
3393.00,0.0259
3392.00,0.0259
3391.00,0.0259
3390.00,0.0259
3389.00,0.0260
3388.00,0.0260
3387.00,0.0260
3386.00,0.0260
3385.00,0.0260
3384.00,0.0260
3383.00,0.0260
3382.00,0.0260
3381.00,0.0261
3380.00,0.0261
3379.00,0.0261
3378.00,0.0261
3377.00,0.0261
3376.00,0.0261
3375.00,0.0262
3374.00,0.0262
3373.00,0.0262
3372.00,0.0262
3371.00,0.0262
3370.00,0.0262
3369.00,0.0263
3368.00,0.0263
3367.00,0.0263
3366.00,0.0263
3365.00,0.0264
3364.00,0.0264
3363.00,0.0264
3362.00,0.0264
3361.00,0.0264
3360.00,0.0264
3359.00,0.0264
3358.00,0.0264
3357.00,0.0264
3356.00,0.0264
3355.00,0.0265
3354.00,0.0265
3353.00,0.0265
3352.00,0.0266
3351.00,0.0266
3350.00,0.0267
3349.00,0.0267
3348.00,0.0267
3347.00,0.0266
3346.00,0.0266
3345.00,0.0266
3344.00,0.0266
3343.00,0.0266
3342.00,0.0267
3341.00,0.0267
3340.00,0.0268
3339.00,0.0268
3338.00,0.0268
3337.00,0.0267
3336.00,0.0267
3335.00,0.0267
3334.00,0.0267
3333.00,0.0267
3332.00,0.0267
3331.00,0.0267
3330.00,0.0267
3329.00,0.0267
3328.00,0.0267
3327.00,0.0268
3326.00,0.0267
3325.00,0.0267
3324.00,0.0267
3323.00,0.0267
3322.00,0.0267
3321.00,0.0267
3320.00,0.0267
3319.00,0.0268
3318.00,0.0268
3317.00,0.0268
3316.00,0.0268
3315.00,0.0268
3314.00,0.0268
3313.00,0.0268
3312.00,0.0268
3311.00,0.0268
3310.00,0.0268
3309.00,0.0268
3308.00,0.0268
3307.00,0.0268
3306.00,0.0268
3305.00,0.0268
3304.00,0.0268
3303.00,0.0268
3302.00,0.0268
3301.00,0.0269
3300.00,0.0269
3299.00,0.0269
3298.00,0.0269
3297.00,0.0269
3296.00,0.0268
3295.00,0.0268
3294.00,0.0268
3293.00,0.0269
3292.00,0.0269
3291.00,0.0269
3290.00,0.0269
3289.00,0.0269
3288.00,0.0269
3287.00,0.0270
3286.00,0.0270
3285.00,0.0270
3284.00,0.0270
3283.00,0.0270
3282.00,0.0270
3281.00,0.0270
3280.00,0.0270
3279.00,0.0271
3278.00,0.0271
3277.00,0.0271
3276.00,0.0271
3275.00,0.0271
3274.00,0.0271
3273.00,0.0271
3272.00,0.0271
3271.00,0.0271
3270.00,0.0270
3269.00,0.0270
3268.00,0.0270
3267.00,0.0270
3266.00,0.0270
3265.00,0.0270
3264.00,0.0270
3263.00,0.0270
3262.00,0.0270
3261.00,0.0270
3260.00,0.0270
3259.00,0.0270
3258.00,0.0270
3257.00,0.0270
3256.00,0.0270
3255.00,0.0270
3254.00,0.0270
3253.00,0.0270
3252.00,0.0270
3251.00,0.0271
3250.00,0.0271
3249.00,0.0271
3248.00,0.0271
3247.00,0.0272
3246.00,0.0272
3245.00,0.0272
3244.00,0.0272
3243.00,0.0272
3242.00,0.0271
3241.00,0.0271
3240.00,0.0271
3239.00,0.0272
3238.00,0.0272
3237.00,0.0272
3236.00,0.0272
3235.00,0.0272
3234.00,0.0272
3233.00,0.0272
3232.00,0.0272
3231.00,0.0272
3230.00,0.0272
3229.00,0.0272
3228.00,0.0272
3227.00,0.0272
3226.00,0.0271
3225.00,0.0271
3224.00,0.0271
3223.00,0.0271
3222.00,0.0271
3221.00,0.0271
3220.00,0.0271
3219.00,0.0271
3218.00,0.0271
3217.00,0.0271
3216.00,0.0271
3215.00,0.0271
3214.00,0.0270
3213.00,0.0271
3212.00,0.0271
3211.00,0.0271
3210.00,0.0271
3209.00,0.0271
3208.00,0.0271
3207.00,0.0271
3206.00,0.0271
3205.00,0.0271
3204.00,0.0270
3203.00,0.0270
3202.00,0.0270
3201.00,0.0270
3200.00,0.0270
3199.00,0.0270
3198.00,0.0270
3197.00,0.0270
3196.00,0.0269
3195.00,0.0269
3194.00,0.0269
3193.00,0.0269
3192.00,0.0269
3191.00,0.0269
3190.00,0.0269
3189.00,0.0269
3188.00,0.0269
3187.00,0.0269
3186.00,0.0269
3185.00,0.0269
3184.00,0.0268
3183.00,0.0268
3182.00,0.0268
3181.00,0.0268
3180.00,0.0268
3179.00,0.0267
3178.00,0.0267
3177.00,0.0267
3176.00,0.0267
3175.00,0.0267
3174.00,0.0268
3173.00,0.0268
3172.00,0.0268
3171.00,0.0268
3170.00,0.0268
3169.00,0.0268
3168.00,0.0268
3167.00,0.0267
3166.00,0.0267
3165.00,0.0267
3164.00,0.0266
3163.00,0.0266
3162.00,0.0266
3161.00,0.0266
3160.00,0.0266
3159.00,0.0266
3158.00,0.0265
3157.00,0.0265
3156.00,0.0265
3155.00,0.0265
3154.00,0.0265
3153.00,0.0265
3152.00,0.0265
3151.00,0.0265
3150.00,0.0265
3149.00,0.0265
3148.00,0.0265
3147.00,0.0264
3146.00,0.0264
3145.00,0.0264
3144.00,0.0264
3143.00,0.0264
3142.00,0.0264
3141.00,0.0264
3140.00,0.0264
3139.00,0.0264
3138.00,0.0264
3137.00,0.0264
3136.00,0.0264
3135.00,0.0264
3134.00,0.0264
3133.00,0.0263
3132.00,0.0263
3131.00,0.0263
3130.00,0.0263
3129.00,0.0263
3128.00,0.0263
3127.00,0.0262
3126.00,0.0262
3125.00,0.0262
3124.00,0.0262
3123.00,0.0261
3122.00,0.0261
3121.00,0.0261
3120.00,0.0262
3119.00,0.0262
3118.00,0.0262
3117.00,0.0262
3116.00,0.0261
3115.00,0.0261
3114.00,0.0260
3113.00,0.0260
3112.00,0.0260
3111.00,0.0260
3110.00,0.0260
3109.00,0.0260
3108.00,0.0260
3107.00,0.0260
3106.00,0.0260
3105.00,0.0260
3104.00,0.0260
3103.00,0.0260
3102.00,0.0260
3101.00,0.0259
3100.00,0.0259
3099.00,0.0258
3098.00,0.0257
3097.00,0.0257
3096.00,0.0257
3095.00,0.0257
3094.00,0.0258
3093.00,0.0258
3092.00,0.0258
3091.00,0.0259
3090.00,0.0259
3089.00,0.0259
3088.00,0.0259
3087.00,0.0258
3086.00,0.0258
3085.00,0.0258
3084.00,0.0258
3083.00,0.0258
3082.00,0.0257
3081.00,0.0257
3080.00,0.0257
3079.00,0.0257
3078.00,0.0256
3077.00,0.0256
3076.00,0.0255
3075.00,0.0255
3074.00,0.0255
3073.00,0.0255
3072.00,0.0254
3071.00,0.0254
3070.00,0.0254
3069.00,0.0254
3068.00,0.0254
3067.00,0.0254
3066.00,0.0255
3065.00,0.0255
3064.00,0.0255
3063.00,0.0254
3062.00,0.0254
3061.00,0.0253
3060.00,0.0253
3059.00,0.0253
3058.00,0.0252
3057.00,0.0252
3056.00,0.0252
3055.00,0.0251
3054.00,0.0251
3053.00,0.0250
3052.00,0.0250
3051.00,0.0250
3050.00,0.0250
3049.00,0.0250
3048.00,0.0250
3047.00,0.0249
3046.00,0.0249
3045.00,0.0249
3044.00,0.0249
3043.00,0.0248
3042.00,0.0248
3041.00,0.0248
3040.00,0.0248
3039.00,0.0248
3038.00,0.0247
3037.00,0.0247
3036.00,0.0247
3035.00,0.0246
3034.00,0.0246
3033.00,0.0246
3032.00,0.0245
3031.00,0.0245
3030.00,0.0244
3029.00,0.0244
3028.00,0.0244
3027.00,0.0244
3026.00,0.0244
3025.00,0.0244
3024.00,0.0244
3023.00,0.0243
3022.00,0.0243
3021.00,0.0243
3020.00,0.0242
3019.00,0.0242
3018.00,0.0241
3017.00,0.0241
3016.00,0.0241
3015.00,0.0241
3014.00,0.0240
3013.00,0.0240
3012.00,0.0240
3011.00,0.0239
3010.00,0.0238
3009.00,0.0238
3008.00,0.0237
3007.00,0.0237
3006.00,0.0237
3005.00,0.0237
3004.00,0.0236
3003.00,0.0236
3002.00,0.0235
3001.00,0.0234
3000.00,0.0234
2999.00,0.0233
2998.00,0.0232
2997.00,0.0232
2996.00,0.0231
2995.00,0.0232
2994.00,0.0232
2993.00,0.0232
2992.00,0.0231
2991.00,0.0231
2990.00,0.0230
2989.00,0.0229
2988.00,0.0229
2987.00,0.0228
2986.00,0.0227
2985.00,0.0226
2984.00,0.0225
2983.00,0.0224
2982.00,0.0223
2981.00,0.0223
2980.00,0.0223
2979.00,0.0223
2978.00,0.0224
2977.00,0.0224
2976.00,0.0225
2975.00,0.0225
2974.00,0.0224
2973.00,0.0224
2972.00,0.0223
2971.00,0.0223
2970.00,0.0223
2969.00,0.0223
2968.00,0.0222
2967.00,0.0222
2966.00,0.0222
2965.00,0.0222
2964.00,0.0222
2963.00,0.0221
2962.00,0.0221
2961.00,0.0220
2960.00,0.0220
2959.00,0.0220
2958.00,0.0220
2957.00,0.0219
2956.00,0.0219
2955.00,0.0219
2954.00,0.0220
2953.00,0.0220
2952.00,0.0220
2951.00,0.0221
2950.00,0.0221
2949.00,0.0220
2948.00,0.0220
2947.00,0.0220
2946.00,0.0220
2945.00,0.0220
2944.00,0.0220
2943.00,0.0220
2942.00,0.0219
2941.00,0.0219
2940.00,0.0218
2939.00,0.0218
2938.00,0.0217
2937.00,0.0216
2936.00,0.0215
2935.00,0.0214
2934.00,0.0213
2933.00,0.0212
2932.00,0.0211
2931.00,0.0209
2930.00,0.0208
2929.00,0.0207
2928.00,0.0206
2927.00,0.0205
2926.00,0.0205
2925.00,0.0205
2924.00,0.0205
2923.00,0.0205
2922.00,0.0205
2921.00,0.0205
2920.00,0.0205
2919.00,0.0205
2918.00,0.0204
2917.00,0.0204
2916.00,0.0205
2915.00,0.0206
2914.00,0.0207
2913.00,0.0208
2912.00,0.0209
2911.00,0.0210
2910.00,0.0211
2909.00,0.0211
2908.00,0.0212
2907.00,0.0212
2906.00,0.0213
2905.00,0.0213
2904.00,0.0213
2903.00,0.0213
2902.00,0.0214
2901.00,0.0214
2900.00,0.0214
2899.00,0.0214
2898.00,0.0215
2897.00,0.0214
2896.00,0.0214
2895.00,0.0214
2894.00,0.0214
2893.00,0.0214
2892.00,0.0214
2891.00,0.0213
2890.00,0.0213
2889.00,0.0213
2888.00,0.0213
2887.00,0.0214
2886.00,0.0214
2885.00,0.0214
2884.00,0.0214
2883.00,0.0214
2882.00,0.0214
2881.00,0.0213
2880.00,0.0213
2879.00,0.0213
2878.00,0.0213
2877.00,0.0213
2876.00,0.0213
2875.00,0.0213
2874.00,0.0213
2873.00,0.0212
2872.00,0.0212
2871.00,0.0212
2870.00,0.0211
2869.00,0.0211
2868.00,0.0211
2867.00,0.0210
2866.00,0.0210
2865.00,0.0210
2864.00,0.0209
2863.00,0.0209
2862.00,0.0209
2861.00,0.0208
2860.00,0.0208
2859.00,0.0206
2858.00,0.0205
2857.00,0.0204
2856.00,0.0204
2855.00,0.0203
2854.00,0.0203
2853.00,0.0203
2852.00,0.0203
2851.00,0.0203
2850.00,0.0204
2849.00,0.0204
2848.00,0.0205
2847.00,0.0205
2846.00,0.0206
2845.00,0.0207
2844.00,0.0207
2843.00,0.0208
2842.00,0.0208
2841.00,0.0209
2840.00,0.0209
2839.00,0.0209
2838.00,0.0210
2837.00,0.0210
2836.00,0.0209
2835.00,0.0209
2834.00,0.0209
2833.00,0.0209
2832.00,0.0209
2831.00,0.0209
2830.00,0.0209
2829.00,0.0209
2828.00,0.0209
2827.00,0.0209
2826.00,0.0209
2825.00,0.0209
2824.00,0.0208
2823.00,0.0208
2822.00,0.0208
2821.00,0.0208
2820.00,0.0208
2819.00,0.0208
2818.00,0.0209
2817.00,0.0209
2816.00,0.0209
2815.00,0.0209
2814.00,0.0209
2813.00,0.0209
2812.00,0.0209
2811.00,0.0208
2810.00,0.0208
2809.00,0.0208
2808.00,0.0207
2807.00,0.0207
2806.00,0.0207
2805.00,0.0207
2804.00,0.0207
2803.00,0.0207
2802.00,0.0207
2801.00,0.0207
2800.00,0.0206
2799.00,0.0206
2798.00,0.0206
2797.00,0.0206
2796.00,0.0206
2795.00,0.0206
2794.00,0.0206
2793.00,0.0206
2792.00,0.0205
2791.00,0.0205
2790.00,0.0205
2789.00,0.0205
2788.00,0.0205
2787.00,0.0205
2786.00,0.0205
2785.00,0.0205
2784.00,0.0205
2783.00,0.0205
2782.00,0.0205
2781.00,0.0204
2780.00,0.0204
2779.00,0.0204
2778.00,0.0203
2777.00,0.0203
2776.00,0.0203
2775.00,0.0203
2774.00,0.0203
2773.00,0.0203
2772.00,0.0203
2771.00,0.0203
2770.00,0.0203
2769.00,0.0203
2768.00,0.0203
2767.00,0.0203
2766.00,0.0203
2765.00,0.0203
2764.00,0.0203
2763.00,0.0202
2762.00,0.0202
2761.00,0.0202
2760.00,0.0202
2759.00,0.0202
2758.00,0.0202
2757.00,0.0202
2756.00,0.0202
2755.00,0.0202
2754.00,0.0202
2753.00,0.0202
2752.00,0.0202
2751.00,0.0202
2750.00,0.0202
2749.00,0.0202
2748.00,0.0202
2747.00,0.0201
2746.00,0.0201
2745.00,0.0201
2744.00,0.0201
2743.00,0.0201
2742.00,0.0201
2741.00,0.0201
2740.00,0.0201
2739.00,0.0200
2738.00,0.0200
2737.00,0.0200
2736.00,0.0200
2735.00,0.0200
2734.00,0.0199
2733.00,0.0199
2732.00,0.0200
2731.00,0.0200
2730.00,0.0200
2729.00,0.0200
2728.00,0.0200
2727.00,0.0199
2726.00,0.0199
2725.00,0.0199
2724.00,0.0199
2723.00,0.0199
2722.00,0.0199
2721.00,0.0199
2720.00,0.0199
2719.00,0.0199
2718.00,0.0199
2717.00,0.0199
2716.00,0.0199
2715.00,0.0199
2714.00,0.0199
2713.00,0.0199
2712.00,0.0198
2711.00,0.0198
2710.00,0.0198
2709.00,0.0198
2708.00,0.0198
2707.00,0.0198
2706.00,0.0198
2705.00,0.0197
2704.00,0.0197
2703.00,0.0196
2702.00,0.0196
2701.00,0.0197
2700.00,0.0197
2699.00,0.0197
2698.00,0.0197
2697.00,0.0197
2696.00,0.0197
2695.00,0.0197
2694.00,0.0197
2693.00,0.0197
2692.00,0.0197
2691.00,0.0196
2690.00,0.0196
2689.00,0.0196
2688.00,0.0196
2687.00,0.0196
2686.00,0.0196
2685.00,0.0196
2684.00,0.0196
2683.00,0.0196
2682.00,0.0196
2681.00,0.0196
2680.00,0.0196
2679.00,0.0196
2678.00,0.0196
2677.00,0.0196
2676.00,0.0196
2675.00,0.0196
2674.00,0.0196
2673.00,0.0195
2672.00,0.0195
2671.00,0.0195
2670.00,0.0195
2669.00,0.0195
2668.00,0.0195
2667.00,0.0196
2666.00,0.0196
2665.00,0.0197
2664.00,0.0197
2663.00,0.0197
2662.00,0.0197
2661.00,0.0197
2660.00,0.0197
2659.00,0.0197
2658.00,0.0197
2657.00,0.0197
2656.00,0.0198
2655.00,0.0198
2654.00,0.0199
2653.00,0.0199
2652.00,0.0199
2651.00,0.0199
2650.00,0.0198
2649.00,0.0198
2648.00,0.0198
2647.00,0.0198
2646.00,0.0198
2645.00,0.0198
2644.00,0.0198
2643.00,0.0198
2642.00,0.0198
2641.00,0.0199
2640.00,0.0199
2639.00,0.0199
2638.00,0.0199
2637.00,0.0199
2636.00,0.0199
2635.00,0.0199
2634.00,0.0199
2633.00,0.0199
2632.00,0.0199
2631.00,0.0199
2630.00,0.0199
2629.00,0.0199
2628.00,0.0199
2627.00,0.0199
2626.00,0.0199
2625.00,0.0199
2624.00,0.0198
2623.00,0.0199
2622.00,0.0199
2621.00,0.0199
2620.00,0.0199
2619.00,0.0199
2618.00,0.0199
2617.00,0.0198
2616.00,0.0198
2615.00,0.0198
2614.00,0.0199
2613.00,0.0199
2612.00,0.0199
2611.00,0.0199
2610.00,0.0199
2609.00,0.0199
2608.00,0.0199
2607.00,0.0199
2606.00,0.0199
2605.00,0.0199
2604.00,0.0199
2603.00,0.0199
2602.00,0.0199
2601.00,0.0198
2600.00,0.0198
2599.00,0.0198
2598.00,0.0198
2597.00,0.0198
2596.00,0.0198
2595.00,0.0197
2594.00,0.0197
2593.00,0.0197
2592.00,0.0197
2591.00,0.0198
2590.00,0.0198
2589.00,0.0198
2588.00,0.0198
2587.00,0.0198
2586.00,0.0198
2585.00,0.0198
2584.00,0.0198
2583.00,0.0198
2582.00,0.0198
2581.00,0.0198
2580.00,0.0198
2579.00,0.0198
2578.00,0.0198
2577.00,0.0197
2576.00,0.0197
2575.00,0.0197
2574.00,0.0197
2573.00,0.0197
2572.00,0.0197
2571.00,0.0197
2570.00,0.0197
2569.00,0.0197
2568.00,0.0197
2567.00,0.0196
2566.00,0.0196
2565.00,0.0196
2564.00,0.0196
2563.00,0.0196
2562.00,0.0196
2561.00,0.0196
2560.00,0.0195
2559.00,0.0195
2558.00,0.0196
2557.00,0.0196
2556.00,0.0196
2555.00,0.0196
2554.00,0.0196
2553.00,0.0196
2552.00,0.0196
2551.00,0.0196
2550.00,0.0196
2549.00,0.0195
2548.00,0.0195
2547.00,0.0194
2546.00,0.0194
2545.00,0.0194
2544.00,0.0194
2543.00,0.0193
2542.00,0.0193
2541.00,0.0193
2540.00,0.0194
2539.00,0.0195
2538.00,0.0195
2537.00,0.0195
2536.00,0.0194
2535.00,0.0194
2534.00,0.0193
2533.00,0.0193
2532.00,0.0193
2531.00,0.0193
2530.00,0.0193
2529.00,0.0193
2528.00,0.0193
2527.00,0.0192
2526.00,0.0192
2525.00,0.0192
2524.00,0.0192
2523.00,0.0192
2522.00,0.0192
2521.00,0.0193
2520.00,0.0192
2519.00,0.0192
2518.00,0.0192
2517.00,0.0191
2516.00,0.0192
2515.00,0.0192
2514.00,0.0192
2513.00,0.0192
2512.00,0.0191
2511.00,0.0191
2510.00,0.0191
2509.00,0.0191
2508.00,0.0190
2507.00,0.0190
2506.00,0.0190
2505.00,0.0190
2504.00,0.0190
2503.00,0.0190
2502.00,0.0191
2501.00,0.0191
2500.00,0.0190
2499.00,0.0190
2498.00,0.0190
2497.00,0.0190
2496.00,0.0190
2495.00,0.0191
2494.00,0.0191
2493.00,0.0191
2492.00,0.0190
2491.00,0.0190
2490.00,0.0190
2489.00,0.0189
2488.00,0.0189
2487.00,0.0189
2486.00,0.0189
2485.00,0.0188
2484.00,0.0188
2483.00,0.0188
2482.00,0.0188
2481.00,0.0189
2480.00,0.0189
2479.00,0.0189
2478.00,0.0188
2477.00,0.0188
2476.00,0.0188
2475.00,0.0188
2474.00,0.0187
2473.00,0.0187
2472.00,0.0187
2471.00,0.0187
2470.00,0.0187
2469.00,0.0187
2468.00,0.0187
2467.00,0.0187
2466.00,0.0187
2465.00,0.0187
2464.00,0.0187
2463.00,0.0187
2462.00,0.0187
2461.00,0.0187
2460.00,0.0187
2459.00,0.0187
2458.00,0.0187
2457.00,0.0186
2456.00,0.0186
2455.00,0.0185
2454.00,0.0185
2453.00,0.0186
2452.00,0.0186
2451.00,0.0187
2450.00,0.0186
2449.00,0.0186
2448.00,0.0186
2447.00,0.0186
2446.00,0.0186
2445.00,0.0185
2444.00,0.0185
2443.00,0.0184
2442.00,0.0184
2441.00,0.0184
2440.00,0.0183
2439.00,0.0183
2438.00,0.0183
2437.00,0.0183
2436.00,0.0183
2435.00,0.0182
2434.00,0.0182
2433.00,0.0182
2432.00,0.0182
2431.00,0.0182
2430.00,0.0181
2429.00,0.0181
2428.00,0.0181
2427.00,0.0180
2426.00,0.0180
2425.00,0.0181
2424.00,0.0181
2423.00,0.0181
2422.00,0.0180
2421.00,0.0180
2420.00,0.0180
2419.00,0.0180
2418.00,0.0180
2417.00,0.0180
2416.00,0.0180
2415.00,0.0179
2414.00,0.0179
2413.00,0.0179
2412.00,0.0178
2411.00,0.0178
2410.00,0.0178
2409.00,0.0177
2408.00,0.0177
2407.00,0.0177
2406.00,0.0177
2405.00,0.0177
2404.00,0.0176
2403.00,0.0176
2402.00,0.0176
2401.00,0.0176
2400.00,0.0175
2399.00,0.0175
2398.00,0.0174
2397.00,0.0174
2396.00,0.0175
2395.00,0.0175
2394.00,0.0175
2393.00,0.0174
2392.00,0.0174
2391.00,0.0174
2390.00,0.0174
2389.00,0.0174
2388.00,0.0174
2387.00,0.0173
2386.00,0.0173
2385.00,0.0172
2384.00,0.0172
2383.00,0.0172
2382.00,0.0171
2381.00,0.0170
2380.00,0.0170
2379.00,0.0169
2378.00,0.0169
2377.00,0.0169
2376.00,0.0169
2375.00,0.0169
2374.00,0.0170
2373.00,0.0170
2372.00,0.0170
2371.00,0.0171
2370.00,0.0171
2369.00,0.0170
2368.00,0.0169
2367.00,0.0168
2366.00,0.0168
2365.00,0.0168
2364.00,0.0169
2363.00,0.0169
2362.00,0.0170
2361.00,0.0171
2360.00,0.0172
2359.00,0.0172
2358.00,0.0171
2357.00,0.0169
2356.00,0.0169
2355.00,0.0168
2354.00,0.0168
2353.00,0.0167
2352.00,0.0167
2351.00,0.0168
2350.00,0.0169
2349.00,0.0168
2348.00,0.0165
2347.00,0.0163
2346.00,0.0162
2345.00,0.0162
2344.00,0.0164
2343.00,0.0165
2342.00,0.0167
2341.00,0.0167
2340.00,0.0168
2339.00,0.0168
2338.00,0.0169
2337.00,0.0169
2336.00,0.0169
2335.00,0.0169
2334.00,0.0169
2333.00,0.0168
2332.00,0.0168
2331.00,0.0168
2330.00,0.0169
2329.00,0.0170
2328.00,0.0172
2327.00,0.0173
2326.00,0.0174
2325.00,0.0174
2324.00,0.0174
2323.00,0.0173
2322.00,0.0173
2321.00,0.0173
2320.00,0.0173
2319.00,0.0173
2318.00,0.0173
2317.00,0.0172
2316.00,0.0172
2315.00,0.0171
2314.00,0.0170
2313.00,0.0170
2312.00,0.0170
2311.00,0.0171
2310.00,0.0172
2309.00,0.0172
2308.00,0.0172
2307.00,0.0171
2306.00,0.0171
2305.00,0.0171
2304.00,0.0170
2303.00,0.0170
2302.00,0.0170
2301.00,0.0169
2300.00,0.0169
2299.00,0.0169
2298.00,0.0169
2297.00,0.0169
2296.00,0.0170
2295.00,0.0170
2294.00,0.0170
2293.00,0.0171
2292.00,0.0171
2291.00,0.0171
2290.00,0.0171
2289.00,0.0171
2288.00,0.0172
2287.00,0.0172
2286.00,0.0172
2285.00,0.0171
2284.00,0.0171
2283.00,0.0170
2282.00,0.0170
2281.00,0.0171
2280.00,0.0170
2279.00,0.0170
2278.00,0.0169
2277.00,0.0168
2276.00,0.0168
2275.00,0.0167
2274.00,0.0167
2273.00,0.0167
2272.00,0.0167
2271.00,0.0167
2270.00,0.0166
2269.00,0.0166
2268.00,0.0166
2267.00,0.0166
2266.00,0.0166
2265.00,0.0167
2264.00,0.0167
2263.00,0.0168
2262.00,0.0169
2261.00,0.0170
2260.00,0.0171
2259.00,0.0171
2258.00,0.0170
2257.00,0.0169
2256.00,0.0167
2255.00,0.0165
2254.00,0.0164
2253.00,0.0164
2252.00,0.0165
2251.00,0.0166
2250.00,0.0167
2249.00,0.0167
2248.00,0.0166
2247.00,0.0166
2246.00,0.0165
2245.00,0.0165
2244.00,0.0166
2243.00,0.0166
2242.00,0.0167
2241.00,0.0166
2240.00,0.0166
2239.00,0.0165
2238.00,0.0165
2237.00,0.0166
2236.00,0.0166
2235.00,0.0166
2234.00,0.0167
2233.00,0.0168
2232.00,0.0168
2231.00,0.0168
2230.00,0.0167
2229.00,0.0166
2228.00,0.0166
2227.00,0.0166
2226.00,0.0166
2225.00,0.0165
2224.00,0.0165
2223.00,0.0165
2222.00,0.0164
2221.00,0.0164
2220.00,0.0164
2219.00,0.0164
2218.00,0.0165
2217.00,0.0166
2216.00,0.0166
2215.00,0.0167
2214.00,0.0167
2213.00,0.0167
2212.00,0.0167
2211.00,0.0166
2210.00,0.0165
2209.00,0.0165
2208.00,0.0164
2207.00,0.0163
2206.00,0.0162
2205.00,0.0162
2204.00,0.0163
2203.00,0.0164
2202.00,0.0166
2201.00,0.0166
2200.00,0.0167
2199.00,0.0167
2198.00,0.0167
2197.00,0.0166
2196.00,0.0166
2195.00,0.0165
2194.00,0.0165
2193.00,0.0165
2192.00,0.0166
2191.00,0.0166
2190.00,0.0167
2189.00,0.0168
2188.00,0.0170
2187.00,0.0170
2186.00,0.0169
2185.00,0.0167
2184.00,0.0163
2183.00,0.0160
2182.00,0.0160
2181.00,0.0161
2180.00,0.0164
2179.00,0.0165
2178.00,0.0164
2177.00,0.0162
2176.00,0.0161
2175.00,0.0162
2174.00,0.0163
2173.00,0.0165
2172.00,0.0166
2171.00,0.0167
2170.00,0.0168
2169.00,0.0169
2168.00,0.0170
2167.00,0.0169
2166.00,0.0169
2165.00,0.0168
2164.00,0.0170
2163.00,0.0170
2162.00,0.0170
2161.00,0.0165
2160.00,0.0159
2159.00,0.0153
2158.00,0.0150
2157.00,0.0149
2156.00,0.0149
2155.00,0.0149
2154.00,0.0149
2153.00,0.0151
2152.00,0.0152
2151.00,0.0153
2150.00,0.0152
2149.00,0.0151
2148.00,0.0151
2147.00,0.0150
2146.00,0.0150
2145.00,0.0149
2144.00,0.0149
2143.00,0.0149
2142.00,0.0150
2141.00,0.0150
2140.00,0.0150
2139.00,0.0150
2138.00,0.0149
2137.00,0.0148
2136.00,0.0145
2135.00,0.0143
2134.00,0.0142
2133.00,0.0143
2132.00,0.0144
2131.00,0.0145
2130.00,0.0146
2129.00,0.0146
2128.00,0.0147
2127.00,0.0147
2126.00,0.0148
2125.00,0.0149
2124.00,0.0149
2123.00,0.0149
2122.00,0.0148
2121.00,0.0149
2120.00,0.0150
2119.00,0.0151
2118.00,0.0151
2117.00,0.0152
2116.00,0.0152
2115.00,0.0153
2114.00,0.0153
2113.00,0.0153
2112.00,0.0153
2111.00,0.0154
2110.00,0.0154
2109.00,0.0154
2108.00,0.0154
2107.00,0.0153
2106.00,0.0153
2105.00,0.0152
2104.00,0.0151
2103.00,0.0151
2102.00,0.0151
2101.00,0.0150
2100.00,0.0150
2099.00,0.0150
2098.00,0.0150
2097.00,0.0149
2096.00,0.0149
2095.00,0.0148
2094.00,0.0148
2093.00,0.0147
2092.00,0.0147
2091.00,0.0148
2090.00,0.0149
2089.00,0.0149
2088.00,0.0149
2087.00,0.0149
2086.00,0.0149
2085.00,0.0149
2084.00,0.0149
2083.00,0.0149
2082.00,0.0148
2081.00,0.0148
2080.00,0.0148
2079.00,0.0148
2078.00,0.0149
2077.00,0.0150
2076.00,0.0150
2075.00,0.0150
2074.00,0.0149
2073.00,0.0149
2072.00,0.0149
2071.00,0.0149
2070.00,0.0149
2069.00,0.0149
2068.00,0.0148
2067.00,0.0147
2066.00,0.0146
2065.00,0.0146
2064.00,0.0146
2063.00,0.0146
2062.00,0.0147
2061.00,0.0147
2060.00,0.0147
2059.00,0.0146
2058.00,0.0146
2057.00,0.0145
2056.00,0.0146
2055.00,0.0147
2054.00,0.0148
2053.00,0.0150
2052.00,0.0152
2051.00,0.0153
2050.00,0.0152
2049.00,0.0150
2048.00,0.0148
2047.00,0.0147
2046.00,0.0147
2045.00,0.0148
2044.00,0.0149
2043.00,0.0149
2042.00,0.0149
2041.00,0.0149
2040.00,0.0150
2039.00,0.0152
2038.00,0.0155
2037.00,0.0156
2036.00,0.0157
2035.00,0.0156
2034.00,0.0154
2033.00,0.0151
2032.00,0.0149
2031.00,0.0148
2030.00,0.0148
2029.00,0.0149
2028.00,0.0149
2027.00,0.0148
2026.00,0.0147
2025.00,0.0146
2024.00,0.0144
2023.00,0.0143
2022.00,0.0143
2021.00,0.0144
2020.00,0.0145
2019.00,0.0145
2018.00,0.0145
2017.00,0.0145
2016.00,0.0146
2015.00,0.0147
2014.00,0.0148
2013.00,0.0148
2012.00,0.0148
2011.00,0.0147
2010.00,0.0146
2009.00,0.0145
2008.00,0.0143
2007.00,0.0142
2006.00,0.0141
2005.00,0.0142
2004.00,0.0143
2003.00,0.0144
2002.00,0.0144
2001.00,0.0144
2000.00,0.0144
1999.00,0.0145
1998.00,0.0145
1997.00,0.0146
1996.00,0.0146
1995.00,0.0146
1994.00,0.0145
1993.00,0.0144
1992.00,0.0144
1991.00,0.0144
1990.00,0.0145
1989.00,0.0145
1988.00,0.0144
1987.00,0.0144
1986.00,0.0145
1985.00,0.0147
1984.00,0.0149
1983.00,0.0150
1982.00,0.0149
1981.00,0.0149
1980.00,0.0147
1979.00,0.0145
1978.00,0.0142
1977.00,0.0140
1976.00,0.0139
1975.00,0.0138
1974.00,0.0137
1973.00,0.0137
1972.00,0.0137
1971.00,0.0138
1970.00,0.0138
1969.00,0.0138
1968.00,0.0137
1967.00,0.0136
1966.00,0.0135
1965.00,0.0135
1964.00,0.0137
1963.00,0.0137
1962.00,0.0137
1961.00,0.0135
1960.00,0.0133
1959.00,0.0131
1958.00,0.0130
1957.00,0.0130
1956.00,0.0131
1955.00,0.0132
1954.00,0.0132
1953.00,0.0131
1952.00,0.0131
1951.00,0.0130
1950.00,0.0129
1949.00,0.0129
1948.00,0.0129
1947.00,0.0130
1946.00,0.0130
1945.00,0.0130
1944.00,0.0130
1943.00,0.0130
1942.00,0.0130
1941.00,0.0129
1940.00,0.0129
1939.00,0.0128
1938.00,0.0127
1937.00,0.0127
1936.00,0.0128
1935.00,0.0128
1934.00,0.0128
1933.00,0.0128
1932.00,0.0127
1931.00,0.0126
1930.00,0.0124
1929.00,0.0123
1928.00,0.0123
1927.00,0.0123
1926.00,0.0123
1925.00,0.0123
1924.00,0.0123
1923.00,0.0124
1922.00,0.0124
1921.00,0.0125
1920.00,0.0125
1919.00,0.0125
1918.00,0.0124
1917.00,0.0123
1916.00,0.0122
1915.00,0.0122
1914.00,0.0122
1913.00,0.0121
1912.00,0.0121
1911.00,0.0120
1910.00,0.0120
1909.00,0.0120
1908.00,0.0120
1907.00,0.0120
1906.00,0.0119
1905.00,0.0119
1904.00,0.0118
1903.00,0.0118
1902.00,0.0117
1901.00,0.0117
1900.00,0.0117
1899.00,0.0117
1898.00,0.0117
1897.00,0.0117
1896.00,0.0117
1895.00,0.0116
1894.00,0.0115
1893.00,0.0115
1892.00,0.0115
1891.00,0.0115
1890.00,0.0114
1889.00,0.0113
1888.00,0.0112
1887.00,0.0112
1886.00,0.0113
1885.00,0.0113
1884.00,0.0113
1883.00,0.0113
1882.00,0.0113
1881.00,0.0112
1880.00,0.0112
1879.00,0.0111
1878.00,0.0111
1877.00,0.0111
1876.00,0.0111
1875.00,0.0111
1874.00,0.0111
1873.00,0.0111
1872.00,0.0111
1871.00,0.0110
1870.00,0.0110
1869.00,0.0109
1868.00,0.0107
1867.00,0.0107
1866.00,0.0108
1865.00,0.0108
1864.00,0.0108
1863.00,0.0107
1862.00,0.0106
1861.00,0.0106
1860.00,0.0105
1859.00,0.0105
1858.00,0.0106
1857.00,0.0106
1856.00,0.0105
1855.00,0.0105
1854.00,0.0104
1853.00,0.0104
1852.00,0.0104
1851.00,0.0104
1850.00,0.0104
1849.00,0.0104
1848.00,0.0104
1847.00,0.0104
1846.00,0.0104
1845.00,0.0104
1844.00,0.0103
1843.00,0.0101
1842.00,0.0101
1841.00,0.0101
1840.00,0.0102
1839.00,0.0102
1838.00,0.0101
1837.00,0.0101
1836.00,0.0100
1835.00,0.0100
1834.00,0.0101
1833.00,0.0101
1832.00,0.0102
1831.00,0.0101
1830.00,0.0099
1829.00,0.0098
1828.00,0.0098
1827.00,0.0097
1826.00,0.0097
1825.00,0.0097
1824.00,0.0097
1823.00,0.0098
1822.00,0.0099
1821.00,0.0099
1820.00,0.0099
1819.00,0.0099
1818.00,0.0098
1817.00,0.0098
1816.00,0.0098
1815.00,0.0098
1814.00,0.0099
1813.00,0.0099
1812.00,0.0099
1811.00,0.0098
1810.00,0.0098
1809.00,0.0099
1808.00,0.0099
1807.00,0.0100
1806.00,0.0100
1805.00,0.0100
1804.00,0.0101
1803.00,0.0101
1802.00,0.0102
1801.00,0.0103
1800.00,0.0104
1799.00,0.0105
1798.00,0.0106
1797.00,0.0107
1796.00,0.0108
1795.00,0.0109
1794.00,0.0111
1793.00,0.0112
1792.00,0.0111
1791.00,0.0111
1790.00,0.0111
1789.00,0.0112
1788.00,0.0114
1787.00,0.0115
1786.00,0.0116
1785.00,0.0118
1784.00,0.0119
1783.00,0.0120
1782.00,0.0121
1781.00,0.0122
1780.00,0.0123
1779.00,0.0125
1778.00,0.0127
1777.00,0.0130
1776.00,0.0132
1775.00,0.0135
1774.00,0.0137
1773.00,0.0139
1772.00,0.0140
1771.00,0.0140
1770.00,0.0141
1769.00,0.0143
1768.00,0.0145
1767.00,0.0147
1766.00,0.0148
1765.00,0.0149
1764.00,0.0151
1763.00,0.0151
1762.00,0.0152
1761.00,0.0154
1760.00,0.0156
1759.00,0.0158
1758.00,0.0159
1757.00,0.0161
1756.00,0.0162
1755.00,0.0164
1754.00,0.0166
1753.00,0.0169
1752.00,0.0173
1751.00,0.0176
1750.00,0.0177
1749.00,0.0178
1748.00,0.0179
1747.00,0.0180
1746.00,0.0182
1745.00,0.0184
1744.00,0.0186
1743.00,0.0188
1742.00,0.0191
1741.00,0.0195
1740.00,0.0199
1739.00,0.0202
1738.00,0.0205
1737.00,0.0208
1736.00,0.0213
1735.00,0.0219
1734.00,0.0223
1733.00,0.0225
1732.00,0.0225
1731.00,0.0225
1730.00,0.0227
1729.00,0.0229
1728.00,0.0233
1727.00,0.0236
1726.00,0.0239
1725.00,0.0242
1724.00,0.0245
1723.00,0.0248
1722.00,0.0250
1721.00,0.0252
1720.00,0.0253
1719.00,0.0256
1718.00,0.0261
1717.00,0.0265
1716.00,0.0267
1715.00,0.0267
1714.00,0.0268
1713.00,0.0269
1712.00,0.0271
1711.00,0.0272
1710.00,0.0274
1709.00,0.0275
1708.00,0.0276
1707.00,0.0277
1706.00,0.0278
1705.00,0.0280
1704.00,0.0282
1703.00,0.0284
1702.00,0.0286
1701.00,0.0290
1700.00,0.0293
1699.00,0.0294
1698.00,0.0294
1697.00,0.0293
1696.00,0.0292
1695.00,0.0291
1694.00,0.0291
1693.00,0.0291
1692.00,0.0291
1691.00,0.0291
1690.00,0.0292
1689.00,0.0292
1688.00,0.0292
1687.00,0.0292
1686.00,0.0292
1685.00,0.0290
1684.00,0.0289
1683.00,0.0290
1682.00,0.0292
1681.00,0.0293
1680.00,0.0294
1679.00,0.0295
1678.00,0.0296
1677.00,0.0298
1676.00,0.0299
1675.00,0.0301
1674.00,0.0301
1673.00,0.0301
1672.00,0.0302
1671.00,0.0303
1670.00,0.0303
1669.00,0.0303
1668.00,0.0304
1667.00,0.0305
1666.00,0.0306
1665.00,0.0307
1664.00,0.0309
1663.00,0.0311
1662.00,0.0312
1661.00,0.0313
1660.00,0.0314
1659.00,0.0316
1658.00,0.0317
1657.00,0.0317
1656.00,0.0317
1655.00,0.0317
1654.00,0.0321
1653.00,0.0325
1652.00,0.0330
1651.00,0.0331
1650.00,0.0331
1649.00,0.0332
1648.00,0.0335
1647.00,0.0339
1646.00,0.0342
1645.00,0.0344
1644.00,0.0345
1643.00,0.0346
1642.00,0.0348
1641.00,0.0349
1640.00,0.0350
1639.00,0.0352
1638.00,0.0354
1637.00,0.0357
1636.00,0.0361
1635.00,0.0364
1634.00,0.0366
1633.00,0.0368
1632.00,0.0370
1631.00,0.0372
1630.00,0.0373
1629.00,0.0375
1628.00,0.0377
1627.00,0.0379
1626.00,0.0382
1625.00,0.0384
1624.00,0.0388
1623.00,0.0390
1622.00,0.0392
1621.00,0.0393
1620.00,0.0395
1619.00,0.0397
1618.00,0.0400
1617.00,0.0403
1616.00,0.0405
1615.00,0.0406
1614.00,0.0406
1613.00,0.0407
1612.00,0.0409
1611.00,0.0411
1610.00,0.0413
1609.00,0.0415
1608.00,0.0416
1607.00,0.0417
1606.00,0.0418
1605.00,0.0419
1604.00,0.0420
1603.00,0.0421
1602.00,0.0422
1601.00,0.0423
1600.00,0.0424
1599.00,0.0425
1598.00,0.0426
1597.00,0.0427
1596.00,0.0427
1595.00,0.0428
1594.00,0.0428
1593.00,0.0429
1592.00,0.0429
1591.00,0.0430
1590.00,0.0430
1589.00,0.0430
1588.00,0.0431
1587.00,0.0431
1586.00,0.0431
1585.00,0.0431
1584.00,0.0431
1583.00,0.0431
1582.00,0.0431
1581.00,0.0431
1580.00,0.0431
1579.00,0.0431
1578.00,0.0431
1577.00,0.0432
1576.00,0.0432
1575.00,0.0431
1574.00,0.0431
1573.00,0.0430
1572.00,0.0429
1571.00,0.0429
1570.00,0.0428
1569.00,0.0427
1568.00,0.0427
1567.00,0.0427
1566.00,0.0426
1565.00,0.0425
1564.00,0.0425
1563.00,0.0424
1562.00,0.0421
1561.00,0.0418
1560.00,0.0416
1559.00,0.0419
1558.00,0.0419
1557.00,0.0420
1556.00,0.0419
1555.00,0.0417
1554.00,0.0415
1553.00,0.0413
1552.00,0.0411
1551.00,0.0408
1550.00,0.0406
1549.00,0.0405
1548.00,0.0405
1547.00,0.0405
1546.00,0.0404
1545.00,0.0404
1544.00,0.0404
1543.00,0.0404
1542.00,0.0404
1541.00,0.0401
1540.00,0.0394
1539.00,0.0387
1538.00,0.0386
1537.00,0.0385
1536.00,0.0384
1535.00,0.0382
1534.00,0.0379
1533.00,0.0376
1532.00,0.0374
1531.00,0.0374
1530.00,0.0373
1529.00,0.0372
1528.00,0.0371
1527.00,0.0371
1526.00,0.0371
1525.00,0.0370
1524.00,0.0370
1523.00,0.0368
1522.00,0.0367
1521.00,0.0363
1520.00,0.0360
1519.00,0.0358
1518.00,0.0356
1517.00,0.0354
1516.00,0.0353
1515.00,0.0354
1514.00,0.0354
1513.00,0.0355
1512.00,0.0354
1511.00,0.0353
1510.00,0.0352
1509.00,0.0352
1508.00,0.0352
1507.00,0.0348
1506.00,0.0344
1505.00,0.0345
1504.00,0.0345
1503.00,0.0344
1502.00,0.0343
1501.00,0.0342
1500.00,0.0342
1499.00,0.0341
1498.00,0.0341
1497.00,0.0341
1496.00,0.0341
1495.00,0.0340
1494.00,0.0340
1493.00,0.0340
1492.00,0.0341
1491.00,0.0342
1490.00,0.0341
1489.00,0.0340
1488.00,0.0338
1487.00,0.0337
1486.00,0.0337
1485.00,0.0337
1484.00,0.0337
1483.00,0.0338
1482.00,0.0338
1481.00,0.0339
1480.00,0.0339
1479.00,0.0339
1478.00,0.0339
1477.00,0.0340
1476.00,0.0341
1475.00,0.0344
1474.00,0.0346
1473.00,0.0348
1472.00,0.0346
1471.00,0.0345
1470.00,0.0344
1469.00,0.0344
1468.00,0.0344
1467.00,0.0344
1466.00,0.0345
1465.00,0.0346
1464.00,0.0347
1463.00,0.0348
1462.00,0.0348
1461.00,0.0349
1460.00,0.0349
1459.00,0.0352
1458.00,0.0356
1457.00,0.0359
1456.00,0.0359
1455.00,0.0358
1454.00,0.0358
1453.00,0.0358
1452.00,0.0359
1451.00,0.0360
1450.00,0.0361
1449.00,0.0362
1448.00,0.0363
1447.00,0.0364
1446.00,0.0365
1445.00,0.0366
1444.00,0.0366
1443.00,0.0367
1442.00,0.0368
1441.00,0.0369
1440.00,0.0370
1439.00,0.0371
1438.00,0.0372
1437.00,0.0373
1436.00,0.0374
1435.00,0.0375
1434.00,0.0375
1433.00,0.0375
1432.00,0.0376
1431.00,0.0376
1430.00,0.0376
1429.00,0.0376
1428.00,0.0377
1427.00,0.0378
1426.00,0.0378
1425.00,0.0378
1424.00,0.0379
1423.00,0.0380
1422.00,0.0380
1421.00,0.0380
1420.00,0.0381
1419.00,0.0381
1418.00,0.0381
1417.00,0.0381
1416.00,0.0382
1415.00,0.0383
1414.00,0.0383
1413.00,0.0384
1412.00,0.0384
1411.00,0.0384
1410.00,0.0384
1409.00,0.0384
1408.00,0.0385
1407.00,0.0384
1406.00,0.0384
1405.00,0.0384
1404.00,0.0385
1403.00,0.0386
1402.00,0.0387
1401.00,0.0387
1400.00,0.0388
1399.00,0.0389
1398.00,0.0389
1397.00,0.0389
1396.00,0.0389
1395.00,0.0389
1394.00,0.0390
1393.00,0.0391
1392.00,0.0392
1391.00,0.0393
1390.00,0.0393
1389.00,0.0393
1388.00,0.0394
1387.00,0.0395
1386.00,0.0395
1385.00,0.0395
1384.00,0.0396
1383.00,0.0397
1382.00,0.0397
1381.00,0.0398
1380.00,0.0398
1379.00,0.0399
1378.00,0.0399
1377.00,0.0399
1376.00,0.0399
1375.00,0.0399
1374.00,0.0399
1373.00,0.0400
1372.00,0.0401
1371.00,0.0402
1370.00,0.0402
1369.00,0.0402
1368.00,0.0402
1367.00,0.0402
1366.00,0.0402
1365.00,0.0402
1364.00,0.0402
1363.00,0.0402
1362.00,0.0402
1361.00,0.0402
1360.00,0.0402
1359.00,0.0402
1358.00,0.0402
1357.00,0.0402
1356.00,0.0402
1355.00,0.0401
1354.00,0.0401
1353.00,0.0401
1352.00,0.0400
1351.00,0.0400
1350.00,0.0400
1349.00,0.0400
1348.00,0.0400
1347.00,0.0400
1346.00,0.0399
1345.00,0.0399
1344.00,0.0399
1343.00,0.0399
1342.00,0.0399
1341.00,0.0399
1340.00,0.0399
1339.00,0.0399
1338.00,0.0399
1337.00,0.0399
1336.00,0.0399
1335.00,0.0399
1334.00,0.0399
1333.00,0.0399
1332.00,0.0399
1331.00,0.0399
1330.00,0.0400
1329.00,0.0400
1328.00,0.0400
1327.00,0.0400
1326.00,0.0400
1325.00,0.0400
1324.00,0.0401
1323.00,0.0402
1322.00,0.0403
1321.00,0.0404
1320.00,0.0404
1319.00,0.0405
1318.00,0.0405
1317.00,0.0406
1316.00,0.0407
1315.00,0.0407
1314.00,0.0408
1313.00,0.0408
1312.00,0.0409
1311.00,0.0409
1310.00,0.0410
1309.00,0.0410
1308.00,0.0410
1307.00,0.0411
1306.00,0.0412
1305.00,0.0413
1304.00,0.0413
1303.00,0.0414
1302.00,0.0415
1301.00,0.0415
1300.00,0.0416
1299.00,0.0417
1298.00,0.0418
1297.00,0.0419
1296.00,0.0420
1295.00,0.0420
1294.00,0.0421
1293.00,0.0422
1292.00,0.0423
1291.00,0.0424
1290.00,0.0424
1289.00,0.0424
1288.00,0.0425
1287.00,0.0425
1286.00,0.0426
1285.00,0.0426
1284.00,0.0427
1283.00,0.0428
1282.00,0.0429
1281.00,0.0430
1280.00,0.0431
1279.00,0.0431
1278.00,0.0432
1277.00,0.0432
1276.00,0.0433
1275.00,0.0433
1274.00,0.0433
1273.00,0.0433
1272.00,0.0434
1271.00,0.0434
1270.00,0.0435
1269.00,0.0435
1268.00,0.0435
1267.00,0.0436
1266.00,0.0436
1265.00,0.0436
1264.00,0.0436
1263.00,0.0437
1262.00,0.0437
1261.00,0.0437
1260.00,0.0438
1259.00,0.0439
1258.00,0.0439
1257.00,0.0439
1256.00,0.0439
1255.00,0.0440
1254.00,0.0440
1253.00,0.0440
1252.00,0.0441
1251.00,0.0441
1250.00,0.0441
1249.00,0.0441
1248.00,0.0442
1247.00,0.0443
1246.00,0.0443
1245.00,0.0444
1244.00,0.0444
1243.00,0.0445
1242.00,0.0445
1241.00,0.0445
1240.00,0.0446
1239.00,0.0446
1238.00,0.0446
1237.00,0.0447
1236.00,0.0447
1235.00,0.0447
1234.00,0.0448
1233.00,0.0449
1232.00,0.0449
1231.00,0.0450
1230.00,0.0450
1229.00,0.0451
1228.00,0.0451
1227.00,0.0451
1226.00,0.0451
1225.00,0.0452
1224.00,0.0453
1223.00,0.0453
1222.00,0.0453
1221.00,0.0453
1220.00,0.0454
1219.00,0.0454
1218.00,0.0454
1217.00,0.0454
1216.00,0.0455
1215.00,0.0456
1214.00,0.0456
1213.00,0.0457
1212.00,0.0458
1211.00,0.0458
1210.00,0.0458
1209.00,0.0459
1208.00,0.0459
1207.00,0.0460
1206.00,0.0460
1205.00,0.0461
1204.00,0.0462
1203.00,0.0462
1202.00,0.0463
1201.00,0.0463
1200.00,0.0463
1199.00,0.0463
1198.00,0.0463
1197.00,0.0464
1196.00,0.0464
1195.00,0.0464
1194.00,0.0464
1193.00,0.0464
1192.00,0.0464
1191.00,0.0464
1190.00,0.0464
1189.00,0.0463
1188.00,0.0463
1187.00,0.0464
1186.00,0.0464
1185.00,0.0465
1184.00,0.0466
1183.00,0.0467
1182.00,0.0466
1181.00,0.0466
1180.00,0.0466
1179.00,0.0467
1178.00,0.0467
1177.00,0.0468
1176.00,0.0468
1175.00,0.0469
1174.00,0.0468
1173.00,0.0468
1172.00,0.0469
1171.00,0.0469
1170.00,0.0469
1169.00,0.0470
1168.00,0.0470
1167.00,0.0471
1166.00,0.0472
1165.00,0.0472
1164.00,0.0472
1163.00,0.0472
1162.00,0.0472
1161.00,0.0471
1160.00,0.0470
1159.00,0.0470
1158.00,0.0470
1157.00,0.0470
1156.00,0.0469
1155.00,0.0469
1154.00,0.0468
1153.00,0.0467
1152.00,0.0466
1151.00,0.0466
1150.00,0.0466
1149.00,0.0466
1148.00,0.0466
1147.00,0.0465
1146.00,0.0464
1145.00,0.0464
1144.00,0.0464
1143.00,0.0464
1142.00,0.0465
1141.00,0.0465
1140.00,0.0465
1139.00,0.0465
1138.00,0.0465
1137.00,0.0465
1136.00,0.0466
1135.00,0.0466
1134.00,0.0467
1133.00,0.0467
1132.00,0.0468
1131.00,0.0468
1130.00,0.0469
1129.00,0.0470
1128.00,0.0470
1127.00,0.0471
1126.00,0.0471
1125.00,0.0471
1124.00,0.0472
1123.00,0.0473
1122.00,0.0474
1121.00,0.0475
1120.00,0.0477
1119.00,0.0478
1118.00,0.0479
1117.00,0.0481
1116.00,0.0482
1115.00,0.0483
1114.00,0.0483
1113.00,0.0483
1112.00,0.0483
1111.00,0.0484
1110.00,0.0485
1109.00,0.0486
1108.00,0.0487
1107.00,0.0488
1106.00,0.0489
1105.00,0.0489
1104.00,0.0490
1103.00,0.0490
1102.00,0.0491
1101.00,0.0491
1100.00,0.0492
1099.00,0.0492
1098.00,0.0492
1097.00,0.0492
1096.00,0.0492
1095.00,0.0492
1094.00,0.0492
1093.00,0.0493
1092.00,0.0494
1091.00,0.0495
1090.00,0.0496
1089.00,0.0495
1088.00,0.0495
1087.00,0.0494
1086.00,0.0494
1085.00,0.0494
1084.00,0.0495
1083.00,0.0495
1082.00,0.0495
1081.00,0.0495
1080.00,0.0495
1079.00,0.0496
1078.00,0.0497
1077.00,0.0497
1076.00,0.0498
1075.00,0.0499
1074.00,0.0499
1073.00,0.0499
1072.00,0.0499
1071.00,0.0500
1070.00,0.0500
1069.00,0.0501
1068.00,0.0501
1067.00,0.0502
1066.00,0.0502
1065.00,0.0502
1064.00,0.0503
1063.00,0.0504
1062.00,0.0504
1061.00,0.0505
1060.00,0.0506
1059.00,0.0507
1058.00,0.0507
1057.00,0.0507
1056.00,0.0506
1055.00,0.0506
1054.00,0.0507
1053.00,0.0507
1052.00,0.0507
1051.00,0.0507
1050.00,0.0507
1049.00,0.0507
1048.00,0.0507
1047.00,0.0506
1046.00,0.0506
1045.00,0.0505
1044.00,0.0505
1043.00,0.0505
1042.00,0.0505
1041.00,0.0505
1040.00,0.0505
1039.00,0.0506
1038.00,0.0506
1037.00,0.0506
1036.00,0.0507
1035.00,0.0508
1034.00,0.0508
1033.00,0.0507
1032.00,0.0506
1031.00,0.0506
1030.00,0.0505
1029.00,0.0504
1028.00,0.0502
1027.00,0.0500
1026.00,0.0498
1025.00,0.0496
1024.00,0.0495
1023.00,0.0493
1022.00,0.0491
1021.00,0.0490
1020.00,0.0489
1019.00,0.0488
1018.00,0.0487
1017.00,0.0486
1016.00,0.0486
1015.00,0.0486
1014.00,0.0486
1013.00,0.0486
1012.00,0.0485
1011.00,0.0484
1010.00,0.0482
1009.00,0.0481
1008.00,0.0480
1007.00,0.0478
1006.00,0.0477
1005.00,0.0476
1004.00,0.0475
1003.00,0.0474
1002.00,0.0473
1001.00,0.0472
1000.00,0.0471
999.00,0.0469
998.00,0.0467
997.00,0.0466
996.00,0.0464
995.00,0.0462
994.00,0.0460
993.00,0.0458
992.00,0.0458
991.00,0.0457
990.00,0.0456
989.00,0.0454
988.00,0.0452
987.00,0.0451
986.00,0.0449
985.00,0.0448
984.00,0.0447
983.00,0.0446
982.00,0.0444
981.00,0.0443
980.00,0.0442
979.00,0.0441
978.00,0.0440
977.00,0.0438
976.00,0.0437
975.00,0.0435
974.00,0.0434
973.00,0.0432
972.00,0.0430
971.00,0.0429
970.00,0.0428
969.00,0.0427
968.00,0.0426
967.00,0.0425
966.00,0.0424
965.00,0.0423
964.00,0.0422
963.00,0.0421
962.00,0.0421
961.00,0.0420
960.00,0.0419
959.00,0.0419
958.00,0.0418
957.00,0.0417
956.00,0.0416
955.00,0.0416
954.00,0.0415
953.00,0.0414
952.00,0.0412
951.00,0.0411
950.00,0.0411
949.00,0.0411
948.00,0.0411
947.00,0.0411
946.00,0.0411
945.00,0.0411
944.00,0.0411
943.00,0.0411
942.00,0.0411
941.00,0.0411
940.00,0.0411
939.00,0.0411
938.00,0.0411
937.00,0.0411
936.00,0.0410
935.00,0.0410
934.00,0.0410
933.00,0.0410
932.00,0.0410
931.00,0.0409
930.00,0.0408
929.00,0.0407
928.00,0.0406
927.00,0.0406
926.00,0.0406
925.00,0.0406
924.00,0.0406
923.00,0.0407
922.00,0.0407
921.00,0.0408
920.00,0.0409
919.00,0.0411
918.00,0.0413
917.00,0.0414
916.00,0.0415
915.00,0.0414
914.00,0.0412
913.00,0.0411
912.00,0.0410
911.00,0.0411
910.00,0.0412
909.00,0.0413
908.00,0.0415
907.00,0.0416
906.00,0.0416
905.00,0.0415
904.00,0.0415
903.00,0.0415
902.00,0.0415
901.00,0.0414
900.00,0.0414
899.00,0.0414
898.00,0.0414
897.00,0.0415
896.00,0.0414
895.00,0.0413
894.00,0.0412
893.00,0.0411
892.00,0.0411
891.00,0.0411
890.00,0.0412
889.00,0.0413
888.00,0.0413
887.00,0.0414
886.00,0.0413
885.00,0.0413
884.00,0.0412
883.00,0.0412
882.00,0.0413
881.00,0.0414
880.00,0.0414
879.00,0.0415
878.00,0.0416
877.00,0.0416
876.00,0.0415
875.00,0.0414
874.00,0.0414
873.00,0.0414
872.00,0.0415
871.00,0.0415
870.00,0.0415
869.00,0.0416
868.00,0.0416
867.00,0.0416
866.00,0.0416
865.00,0.0416
864.00,0.0415
863.00,0.0416
862.00,0.0418
861.00,0.0419
860.00,0.0420
859.00,0.0420
858.00,0.0421
857.00,0.0421
856.00,0.0421
855.00,0.0422
854.00,0.0422
853.00,0.0422
852.00,0.0422
851.00,0.0422
850.00,0.0423
849.00,0.0424
848.00,0.0424
847.00,0.0424
846.00,0.0424
845.00,0.0425
844.00,0.0427
843.00,0.0429
842.00,0.0430
841.00,0.0431
840.00,0.0432
839.00,0.0433
838.00,0.0434
837.00,0.0435
836.00,0.0434
835.00,0.0433
834.00,0.0431
833.00,0.0431
832.00,0.0433
831.00,0.0436
830.00,0.0439
829.00,0.0442
828.00,0.0443
827.00,0.0443
826.00,0.0442
825.00,0.0441
824.00,0.0443
823.00,0.0446
822.00,0.0450
821.00,0.0453
820.00,0.0454
819.00,0.0453
818.00,0.0451
817.00,0.0451
816.00,0.0452
815.00,0.0455
814.00,0.0457
813.00,0.0459
812.00,0.0460
811.00,0.0461
810.00,0.0462
809.00,0.0462
808.00,0.0464
807.00,0.0466
806.00,0.0469
805.00,0.0473
804.00,0.0476
803.00,0.0479
802.00,0.0482
801.00,0.0484
800.00,0.0486
799.00,0.0487
798.00,0.0488
797.00,0.0488
796.00,0.0487
795.00,0.0487
794.00,0.0486
793.00,0.0487
792.00,0.0488
791.00,0.0490
790.00,0.0491
789.00,0.0491
788.00,0.0490
787.00,0.0489
786.00,0.0489
785.00,0.0488
784.00,0.0489
783.00,0.0491
782.00,0.0494
781.00,0.0497
780.00,0.0499
779.00,0.0501
778.00,0.0501
777.00,0.0501
776.00,0.0501
775.00,0.0503
774.00,0.0505
773.00,0.0506
772.00,0.0505
771.00,0.0503
770.00,0.0501
769.00,0.0500
768.00,0.0500
767.00,0.0501
766.00,0.0501
765.00,0.0502
764.00,0.0501
763.00,0.0501
762.00,0.0500
761.00,0.0501
760.00,0.0502
759.00,0.0503
758.00,0.0505
757.00,0.0506
756.00,0.0506
755.00,0.0506
754.00,0.0504
753.00,0.0502
752.00,0.0500
751.00,0.0500
750.00,0.0501
749.00,0.0503
748.00,0.0505
747.00,0.0507
746.00,0.0507
745.00,0.0506
744.00,0.0505
743.00,0.0505
742.00,0.0505
741.00,0.0504
740.00,0.0503
739.00,0.0504
738.00,0.0505
737.00,0.0506
736.00,0.0507
735.00,0.0507
734.00,0.0507
733.00,0.0506
732.00,0.0506
731.00,0.0507
730.00,0.0508
729.00,0.0509
728.00,0.0510
727.00,0.0509
726.00,0.0508
725.00,0.0507
724.00,0.0508
723.00,0.0510
722.00,0.0512
721.00,0.0513
720.00,0.0513
719.00,0.0513
718.00,0.0513
717.00,0.0514
716.00,0.0514
715.00,0.0515
714.00,0.0516
713.00,0.0517
712.00,0.0518
711.00,0.0519
710.00,0.0521
709.00,0.0522
708.00,0.0523
707.00,0.0524
706.00,0.0524
705.00,0.0524
704.00,0.0525
703.00,0.0526
702.00,0.0529
701.00,0.0531
700.00,0.0533
699.00,0.0534
698.00,0.0536
697.00,0.0538
696.00,0.0540
695.00,0.0540
694.00,0.0540
693.00,0.0540
692.00,0.0541
691.00,0.0541
690.00,0.0542
689.00,0.0543
688.00,0.0543
687.00,0.0544
686.00,0.0545
685.00,0.0546
684.00,0.0547
683.00,0.0548
682.00,0.0549
681.00,0.0553
680.00,0.0554
679.00,0.0553
678.00,0.0549
677.00,0.0547
676.00,0.0548
675.00,0.0551
674.00,0.0554
673.00,0.0558
672.00,0.0561
671.00,0.0564
670.00,0.0565
669.00,0.0565
668.00,0.0565
667.00,0.0563
666.00,0.0560
665.00,0.0559
664.00,0.0559
663.00,0.0562
662.00,0.0566
661.00,0.0571
660.00,0.0574
659.00,0.0573
658.00,0.0569
657.00,0.0565
656.00,0.0564
655.00,0.0566
654.00,0.0568
653.00,0.0569
652.00,0.0569
651.00,0.0568
650.00,0.0565
