Created as New Dataset,Monday, April 03 2023
cm-1,A
4000.00,0.0224
3999.00,0.0224
3998.00,0.0223
3997.00,0.0223
3996.00,0.0223
3995.00,0.0223
3994.00,0.0223
3993.00,0.0223
3992.00,0.0223
3991.00,0.0223
3990.00,0.0223
3989.00,0.0223
3988.00,0.0223
3987.00,0.0223
3986.00,0.0223
3985.00,0.0223
3984.00,0.0223
3983.00,0.0223
3982.00,0.0222
3981.00,0.0222
3980.00,0.0222
3979.00,0.0223
3978.00,0.0223
3977.00,0.0222
3976.00,0.0222
3975.00,0.0222
3974.00,0.0222
3973.00,0.0222
3972.00,0.0222
3971.00,0.0221
3970.00,0.0221
3969.00,0.0221
3968.00,0.0221
3967.00,0.0221
3966.00,0.0222
3965.00,0.0222
3964.00,0.0222
3963.00,0.0222
3962.00,0.0222
3961.00,0.0222
3960.00,0.0221
3959.00,0.0221
3958.00,0.0221
3957.00,0.0221
3956.00,0.0221
3955.00,0.0221
3954.00,0.0220
3953.00,0.0220
3952.00,0.0221
3951.00,0.0221
3950.00,0.0221
3949.00,0.0221
3948.00,0.0222
3947.00,0.0222
3946.00,0.0222
3945.00,0.0221
3944.00,0.0220
3943.00,0.0219
3942.00,0.0219
3941.00,0.0219
3940.00,0.0219
3939.00,0.0219
3938.00,0.0220
3937.00,0.0220
3936.00,0.0221
3935.00,0.0222
3934.00,0.0222
3933.00,0.0222
3932.00,0.0221
3931.00,0.0220
3930.00,0.0220
3929.00,0.0220
3928.00,0.0219
3927.00,0.0218
3926.00,0.0218
3925.00,0.0217
3924.00,0.0217
3923.00,0.0218
3922.00,0.0218
3921.00,0.0219
3920.00,0.0219
3919.00,0.0219
3918.00,0.0219
3917.00,0.0219
3916.00,0.0219
3915.00,0.0218
3914.00,0.0218
3913.00,0.0217
3912.00,0.0217
3911.00,0.0217
3910.00,0.0217
3909.00,0.0218
3908.00,0.0218
3907.00,0.0219
3906.00,0.0220
3905.00,0.0221
3904.00,0.0222
3903.00,0.0223
3902.00,0.0222
3901.00,0.0221
3900.00,0.0219
3899.00,0.0219
3898.00,0.0219
3897.00,0.0219
3896.00,0.0220
3895.00,0.0220
3894.00,0.0220
3893.00,0.0219
3892.00,0.0219
3891.00,0.0219
3890.00,0.0219
3889.00,0.0220
3888.00,0.0220
3887.00,0.0220
3886.00,0.0220
3885.00,0.0219
3884.00,0.0219
3883.00,0.0218
3882.00,0.0216
3881.00,0.0215
3880.00,0.0215
3879.00,0.0216
3878.00,0.0217
3877.00,0.0217
3876.00,0.0216
3875.00,0.0216
3874.00,0.0216
3873.00,0.0217
3872.00,0.0218
3871.00,0.0218
3870.00,0.0218
3869.00,0.0219
3868.00,0.0220
3867.00,0.0221
3866.00,0.0221
3865.00,0.0219
3864.00,0.0217
3863.00,0.0216
3862.00,0.0217
3861.00,0.0217
3860.00,0.0218
3859.00,0.0217
3858.00,0.0217
3857.00,0.0217
3856.00,0.0218
3855.00,0.0220
3854.00,0.0221
3853.00,0.0220
3852.00,0.0218
3851.00,0.0218
3850.00,0.0217
3849.00,0.0216
3848.00,0.0216
3847.00,0.0216
3846.00,0.0215
3845.00,0.0215
3844.00,0.0215
3843.00,0.0216
3842.00,0.0217
3841.00,0.0218
3840.00,0.0218
3839.00,0.0217
3838.00,0.0217
3837.00,0.0216
3836.00,0.0216
3835.00,0.0215
3834.00,0.0215
3833.00,0.0215
3832.00,0.0215
3831.00,0.0216
3830.00,0.0216
3829.00,0.0216
3828.00,0.0216
3827.00,0.0215
3826.00,0.0215
3825.00,0.0215
3824.00,0.0216
3823.00,0.0217
3822.00,0.0217
3821.00,0.0216
3820.00,0.0215
3819.00,0.0216
3818.00,0.0216
3817.00,0.0215
3816.00,0.0213
3815.00,0.0212
3814.00,0.0212
3813.00,0.0213
3812.00,0.0213
3811.00,0.0212
3810.00,0.0212
3809.00,0.0212
3808.00,0.0213
3807.00,0.0214
3806.00,0.0214
3805.00,0.0215
3804.00,0.0215
3803.00,0.0215
3802.00,0.0215
3801.00,0.0214
3800.00,0.0214
3799.00,0.0213
3798.00,0.0212
3797.00,0.0211
3796.00,0.0210
3795.00,0.0210
3794.00,0.0209
3793.00,0.0209
3792.00,0.0208
3791.00,0.0208
3790.00,0.0208
3789.00,0.0209
3788.00,0.0209
3787.00,0.0209
3786.00,0.0209
3785.00,0.0209
3784.00,0.0209
3783.00,0.0209
3782.00,0.0209
3781.00,0.0208
3780.00,0.0207
3779.00,0.0206
3778.00,0.0206
3777.00,0.0207
3776.00,0.0207
3775.00,0.0208
3774.00,0.0209
3773.00,0.0209
3772.00,0.0210
3771.00,0.0210
3770.00,0.0210
3769.00,0.0209
3768.00,0.0209
3767.00,0.0208
3766.00,0.0208
3765.00,0.0208
3764.00,0.0208
3763.00,0.0209
3762.00,0.0210
3761.00,0.0210
3760.00,0.0210
3759.00,0.0209
3758.00,0.0210
3757.00,0.0211
3756.00,0.0212
3755.00,0.0213
3754.00,0.0215
3753.00,0.0217
3752.00,0.0219
3751.00,0.0220
3750.00,0.0221
3749.00,0.0220
3748.00,0.0219
3747.00,0.0216
3746.00,0.0214
3745.00,0.0213
3744.00,0.0212
3743.00,0.0212
3742.00,0.0212
3741.00,0.0213
3740.00,0.0213
3739.00,0.0214
3738.00,0.0215
3737.00,0.0215
3736.00,0.0215
3735.00,0.0213
3734.00,0.0213
3733.00,0.0212
3732.00,0.0212
3731.00,0.0211
3730.00,0.0211
3729.00,0.0210
3728.00,0.0211
3727.00,0.0211
3726.00,0.0210
3725.00,0.0210
3724.00,0.0209
3723.00,0.0209
3722.00,0.0208
3721.00,0.0208
3720.00,0.0208
3719.00,0.0208
3718.00,0.0209
3717.00,0.0210
3716.00,0.0210
3715.00,0.0212
3714.00,0.0213
3713.00,0.0215
3712.00,0.0216
3711.00,0.0216
3710.00,0.0217
3709.00,0.0218
3708.00,0.0220
3707.00,0.0221
3706.00,0.0221
3705.00,0.0222
3704.00,0.0222
3703.00,0.0223
3702.00,0.0224
3701.00,0.0225
3700.00,0.0228
3699.00,0.0230
3698.00,0.0232
3697.00,0.0233
3696.00,0.0234
3695.00,0.0235
3694.00,0.0235
3693.00,0.0236
3692.00,0.0236
3691.00,0.0235
3690.00,0.0234
3689.00,0.0233
3688.00,0.0232
3687.00,0.0231
3686.00,0.0231
3685.00,0.0230
3684.00,0.0229
3683.00,0.0229
3682.00,0.0228
3681.00,0.0227
3680.00,0.0226
3679.00,0.0226
3678.00,0.0226
3677.00,0.0226
3676.00,0.0227
3675.00,0.0227
3674.00,0.0229
3673.00,0.0231
3672.00,0.0232
3671.00,0.0231
3670.00,0.0229
3669.00,0.0228
3668.00,0.0228
3667.00,0.0228
3666.00,0.0228
3665.00,0.0228
3664.00,0.0229
3663.00,0.0230
3662.00,0.0231
3661.00,0.0232
3660.00,0.0233
3659.00,0.0235
3658.00,0.0238
3657.00,0.0241
3656.00,0.0244
3655.00,0.0245
3654.00,0.0246
3653.00,0.0246
3652.00,0.0247
3651.00,0.0249
3650.00,0.0251
3649.00,0.0252
3648.00,0.0251
3647.00,0.0251
3646.00,0.0251
3645.00,0.0251
3644.00,0.0250
3643.00,0.0249
3642.00,0.0249
3641.00,0.0249
3640.00,0.0249
3639.00,0.0249
3638.00,0.0249
3637.00,0.0249
3636.00,0.0250
3635.00,0.0252
3634.00,0.0253
3633.00,0.0255
3632.00,0.0256
3631.00,0.0258
3630.00,0.0261
3629.00,0.0264
3628.00,0.0266
3627.00,0.0268
3626.00,0.0269
3625.00,0.0271
3624.00,0.0273
3623.00,0.0274
3622.00,0.0276
3621.00,0.0278
3620.00,0.0279
3619.00,0.0279
3618.00,0.0278
3617.00,0.0277
3616.00,0.0275
3615.00,0.0274
3614.00,0.0273
3613.00,0.0273
3612.00,0.0274
3611.00,0.0275
3610.00,0.0275
3609.00,0.0274
3608.00,0.0274
3607.00,0.0273
3606.00,0.0273
3605.00,0.0274
3604.00,0.0274
3603.00,0.0274
3602.00,0.0274
3601.00,0.0274
3600.00,0.0274
3599.00,0.0274
3598.00,0.0274
3597.00,0.0275
3596.00,0.0275
3595.00,0.0276
3594.00,0.0277
3593.00,0.0278
3592.00,0.0279
3591.00,0.0279
3590.00,0.0278
3589.00,0.0278
3588.00,0.0277
3587.00,0.0278
3586.00,0.0280
3585.00,0.0281
3584.00,0.0282
3583.00,0.0282
3582.00,0.0282
3581.00,0.0282
3580.00,0.0283
3579.00,0.0284
3578.00,0.0284
3577.00,0.0285
3576.00,0.0285
3575.00,0.0285
3574.00,0.0286
3573.00,0.0286
3572.00,0.0286
3571.00,0.0287
3570.00,0.0287
3569.00,0.0289
3568.00,0.0290
3567.00,0.0292
3566.00,0.0293
3565.00,0.0294
3564.00,0.0294
3563.00,0.0294
3562.00,0.0294
3561.00,0.0293
3560.00,0.0294
3559.00,0.0294
3558.00,0.0295
3557.00,0.0295
3556.00,0.0296
3555.00,0.0297
3554.00,0.0298
3553.00,0.0299
3552.00,0.0300
3551.00,0.0301
3550.00,0.0301
3549.00,0.0302
3548.00,0.0302
3547.00,0.0303
3546.00,0.0304
3545.00,0.0304
3544.00,0.0305
3543.00,0.0305
3542.00,0.0305
3541.00,0.0305
3540.00,0.0305
3539.00,0.0305
3538.00,0.0306
3537.00,0.0306
3536.00,0.0307
3535.00,0.0308
3534.00,0.0309
3533.00,0.0309
3532.00,0.0309
3531.00,0.0309
3530.00,0.0310
3529.00,0.0311
3528.00,0.0312
3527.00,0.0314
3526.00,0.0315
3525.00,0.0315
3524.00,0.0316
3523.00,0.0316
3522.00,0.0316
3521.00,0.0316
3520.00,0.0316
3519.00,0.0316
3518.00,0.0317
3517.00,0.0318
3516.00,0.0318
3515.00,0.0319
3514.00,0.0319
3513.00,0.0320
3512.00,0.0320
3511.00,0.0320
3510.00,0.0320
3509.00,0.0321
3508.00,0.0321
3507.00,0.0322
3506.00,0.0322
3505.00,0.0322
3504.00,0.0323
3503.00,0.0325
3502.00,0.0326
3501.00,0.0327
3500.00,0.0327
3499.00,0.0328
3498.00,0.0328
3497.00,0.0328
3496.00,0.0329
3495.00,0.0329
3494.00,0.0330
3493.00,0.0329
3492.00,0.0329
3491.00,0.0330
3490.00,0.0330
3489.00,0.0331
3488.00,0.0332
3487.00,0.0333
3486.00,0.0334
3485.00,0.0335
3484.00,0.0335
3483.00,0.0335
3482.00,0.0335
3481.00,0.0335
3480.00,0.0335
3479.00,0.0336
3478.00,0.0336
3477.00,0.0336
3476.00,0.0336
3475.00,0.0337
3474.00,0.0338
3473.00,0.0339
3472.00,0.0339
3471.00,0.0339
3470.00,0.0339
3469.00,0.0339
3468.00,0.0339
3467.00,0.0340
3466.00,0.0341
3465.00,0.0341
3464.00,0.0343
3463.00,0.0343
3462.00,0.0344
3461.00,0.0345
3460.00,0.0345
3459.00,0.0345
3458.00,0.0344
3457.00,0.0344
3456.00,0.0344
3455.00,0.0345
3454.00,0.0345
3453.00,0.0346
3452.00,0.0347
3451.00,0.0348
3450.00,0.0349
3449.00,0.0349
3448.00,0.0350
3447.00,0.0350
3446.00,0.0350
3445.00,0.0350
3444.00,0.0351
3443.00,0.0351
3442.00,0.0351
3441.00,0.0351
3440.00,0.0351
3439.00,0.0352
3438.00,0.0353
3437.00,0.0354
3436.00,0.0354
3435.00,0.0355
3434.00,0.0355
3433.00,0.0355
3432.00,0.0356
3431.00,0.0356
3430.00,0.0356
3429.00,0.0355
3428.00,0.0355
3427.00,0.0355
3426.00,0.0356
3425.00,0.0357
3424.00,0.0357
3423.00,0.0358
3422.00,0.0358
3421.00,0.0359
3420.00,0.0360
3419.00,0.0360
3418.00,0.0360
3417.00,0.0360
3416.00,0.0360
3415.00,0.0360
3414.00,0.0360
3413.00,0.0360
3412.00,0.0361
3411.00,0.0361
3410.00,0.0361
3409.00,0.0361
3408.00,0.0361
3407.00,0.0362
3406.00,0.0362
3405.00,0.0363
3404.00,0.0363
3403.00,0.0364
3402.00,0.0364
3401.00,0.0364
3400.00,0.0364
3399.00,0.0364
3398.00,0.0365
3397.00,0.0365
3396.00,0.0365
3395.00,0.0366
3394.00,0.0367
3393.00,0.0368
3392.00,0.0368
3391.00,0.0368
3390.00,0.0368
3389.00,0.0367
3388.00,0.0367
3387.00,0.0368
3386.00,0.0368
3385.00,0.0369
3384.00,0.0369
3383.00,0.0369
3382.00,0.0369
3381.00,0.0370
3380.00,0.0370
3379.00,0.0370
3378.00,0.0371
3377.00,0.0371
3376.00,0.0371
3375.00,0.0371
3374.00,0.0371
3373.00,0.0371
3372.00,0.0371
3371.00,0.0371
3370.00,0.0371
3369.00,0.0371
3368.00,0.0372
3367.00,0.0372
3366.00,0.0372
3365.00,0.0372
3364.00,0.0373
3363.00,0.0373
3362.00,0.0373
3361.00,0.0373
3360.00,0.0373
3359.00,0.0373
3358.00,0.0373
3357.00,0.0374
3356.00,0.0374
3355.00,0.0373
3354.00,0.0373
3353.00,0.0373
3352.00,0.0374
3351.00,0.0375
3350.00,0.0375
3349.00,0.0375
3348.00,0.0375
3347.00,0.0374
3346.00,0.0374
3345.00,0.0374
3344.00,0.0374
3343.00,0.0375
3342.00,0.0376
3341.00,0.0376
3340.00,0.0377
3339.00,0.0377
3338.00,0.0376
3337.00,0.0376
3336.00,0.0376
3335.00,0.0376
3334.00,0.0376
3333.00,0.0376
3332.00,0.0376
3331.00,0.0377
3330.00,0.0377
3329.00,0.0377
3328.00,0.0377
3327.00,0.0377
3326.00,0.0377
3325.00,0.0377
3324.00,0.0377
3323.00,0.0377
3322.00,0.0376
3321.00,0.0376
3320.00,0.0377
3319.00,0.0378
3318.00,0.0378
3317.00,0.0379
3316.00,0.0379
3315.00,0.0379
3314.00,0.0379
3313.00,0.0379
3312.00,0.0379
3311.00,0.0379
3310.00,0.0379
3309.00,0.0379
3308.00,0.0380
3307.00,0.0380
3306.00,0.0380
3305.00,0.0380
3304.00,0.0379
3303.00,0.0379
3302.00,0.0379
3301.00,0.0380
3300.00,0.0380
3299.00,0.0380
3298.00,0.0380
3297.00,0.0380
3296.00,0.0380
3295.00,0.0380
3294.00,0.0380
3293.00,0.0381
3292.00,0.0381
3291.00,0.0381
3290.00,0.0381
3289.00,0.0381
3288.00,0.0381
3287.00,0.0381
3286.00,0.0381
3285.00,0.0381
3284.00,0.0381
3283.00,0.0381
3282.00,0.0381
3281.00,0.0381
3280.00,0.0382
3279.00,0.0382
3278.00,0.0382
3277.00,0.0383
3276.00,0.0383
3275.00,0.0383
3274.00,0.0383
3273.00,0.0384
3272.00,0.0384
3271.00,0.0383
3270.00,0.0383
3269.00,0.0382
3268.00,0.0382
3267.00,0.0382
3266.00,0.0382
3265.00,0.0383
3264.00,0.0383
3263.00,0.0383
3262.00,0.0383
3261.00,0.0383
3260.00,0.0383
3259.00,0.0382
3258.00,0.0382
3257.00,0.0382
3256.00,0.0382
3255.00,0.0382
3254.00,0.0382
3253.00,0.0383
3252.00,0.0383
3251.00,0.0383
3250.00,0.0384
3249.00,0.0384
3248.00,0.0384
3247.00,0.0384
3246.00,0.0384
3245.00,0.0384
3244.00,0.0384
3243.00,0.0384
3242.00,0.0384
3241.00,0.0383
3240.00,0.0383
3239.00,0.0383
3238.00,0.0384
3237.00,0.0384
3236.00,0.0385
3235.00,0.0385
3234.00,0.0384
3233.00,0.0384
3232.00,0.0383
3231.00,0.0383
3230.00,0.0383
3229.00,0.0384
3228.00,0.0384
3227.00,0.0384
3226.00,0.0384
3225.00,0.0384
3224.00,0.0384
3223.00,0.0384
3222.00,0.0383
3221.00,0.0383
3220.00,0.0383
3219.00,0.0383
3218.00,0.0383
3217.00,0.0383
3216.00,0.0383
3215.00,0.0383
3214.00,0.0383
3213.00,0.0384
3212.00,0.0384
3211.00,0.0384
3210.00,0.0384
3209.00,0.0383
3208.00,0.0383
3207.00,0.0383
3206.00,0.0383
3205.00,0.0383
3204.00,0.0383
3203.00,0.0383
3202.00,0.0383
3201.00,0.0383
3200.00,0.0383
3199.00,0.0383
3198.00,0.0383
3197.00,0.0383
3196.00,0.0383
3195.00,0.0383
3194.00,0.0383
3193.00,0.0383
3192.00,0.0383
3191.00,0.0383
3190.00,0.0382
3189.00,0.0382
3188.00,0.0382
3187.00,0.0383
3186.00,0.0383
3185.00,0.0383
3184.00,0.0382
3183.00,0.0382
3182.00,0.0381
3181.00,0.0381
3180.00,0.0381
3179.00,0.0381
3178.00,0.0381
3177.00,0.0380
3176.00,0.0380
3175.00,0.0380
3174.00,0.0380
3173.00,0.0380
3172.00,0.0381
3171.00,0.0381
3170.00,0.0381
3169.00,0.0380
3168.00,0.0380
3167.00,0.0379
3166.00,0.0379
3165.00,0.0379
3164.00,0.0379
3163.00,0.0379
3162.00,0.0379
3161.00,0.0379
3160.00,0.0379
3159.00,0.0379
3158.00,0.0379
3157.00,0.0379
3156.00,0.0379
3155.00,0.0378
3154.00,0.0378
3153.00,0.0378
3152.00,0.0378
3151.00,0.0378
3150.00,0.0378
3149.00,0.0378
3148.00,0.0378
3147.00,0.0378
3146.00,0.0378
3145.00,0.0378
3144.00,0.0377
3143.00,0.0377
3142.00,0.0377
3141.00,0.0377
3140.00,0.0376
3139.00,0.0376
3138.00,0.0376
3137.00,0.0376
3136.00,0.0376
3135.00,0.0376
3134.00,0.0376
3133.00,0.0376
3132.00,0.0376
3131.00,0.0375
3130.00,0.0375
3129.00,0.0375
3128.00,0.0375
3127.00,0.0375
3126.00,0.0375
3125.00,0.0375
3124.00,0.0374
3123.00,0.0374
3122.00,0.0374
3121.00,0.0375
3120.00,0.0375
3119.00,0.0376
3118.00,0.0376
3117.00,0.0375
3116.00,0.0375
3115.00,0.0375
3114.00,0.0375
3113.00,0.0374
3112.00,0.0374
3111.00,0.0374
3110.00,0.0373
3109.00,0.0373
3108.00,0.0373
3107.00,0.0373
3106.00,0.0373
3105.00,0.0373
3104.00,0.0373
3103.00,0.0373
3102.00,0.0373
3101.00,0.0373
3100.00,0.0373
3099.00,0.0373
3098.00,0.0372
3097.00,0.0372
3096.00,0.0372
3095.00,0.0373
3094.00,0.0373
3093.00,0.0373
3092.00,0.0373
3091.00,0.0373
3090.00,0.0373
3089.00,0.0373
3088.00,0.0373
3087.00,0.0373
3086.00,0.0373
3085.00,0.0372
3084.00,0.0372
3083.00,0.0372
3082.00,0.0372
3081.00,0.0372
3080.00,0.0373
3079.00,0.0373
3078.00,0.0372
3077.00,0.0372
3076.00,0.0371
3075.00,0.0371
3074.00,0.0371
3073.00,0.0370
3072.00,0.0370
3071.00,0.0370
3070.00,0.0370
3069.00,0.0369
3068.00,0.0369
3067.00,0.0370
3066.00,0.0370
3065.00,0.0370
3064.00,0.0370
3063.00,0.0370
3062.00,0.0369
3061.00,0.0369
3060.00,0.0369
3059.00,0.0369
3058.00,0.0369
3057.00,0.0369
3056.00,0.0369
3055.00,0.0369
3054.00,0.0369
3053.00,0.0369
3052.00,0.0368
3051.00,0.0367
3050.00,0.0367
3049.00,0.0367
3048.00,0.0367
3047.00,0.0367
3046.00,0.0367
3045.00,0.0368
3044.00,0.0367
3043.00,0.0367
3042.00,0.0367
3041.00,0.0366
3040.00,0.0366
3039.00,0.0366
3038.00,0.0365
3037.00,0.0365
3036.00,0.0365
3035.00,0.0365
3034.00,0.0365
3033.00,0.0364
3032.00,0.0364
3031.00,0.0363
3030.00,0.0364
3029.00,0.0364
3028.00,0.0363
3027.00,0.0363
3026.00,0.0363
3025.00,0.0363
3024.00,0.0362
3023.00,0.0362
3022.00,0.0362
3021.00,0.0361
3020.00,0.0361
3019.00,0.0360
3018.00,0.0361
3017.00,0.0361
3016.00,0.0361
3015.00,0.0362
3014.00,0.0362
3013.00,0.0362
3012.00,0.0362
3011.00,0.0361
3010.00,0.0360
3009.00,0.0360
3008.00,0.0360
3007.00,0.0360
3006.00,0.0360
3005.00,0.0360
3004.00,0.0360
3003.00,0.0360
3002.00,0.0360
3001.00,0.0359
3000.00,0.0359
2999.00,0.0358
2998.00,0.0358
2997.00,0.0357
2996.00,0.0357
2995.00,0.0357
2994.00,0.0358
2993.00,0.0358
2992.00,0.0358
2991.00,0.0358
2990.00,0.0357
2989.00,0.0357
2988.00,0.0357
2987.00,0.0357
2986.00,0.0357
2985.00,0.0357
2984.00,0.0356
2983.00,0.0355
2982.00,0.0355
2981.00,0.0355
2980.00,0.0355
2979.00,0.0355
2978.00,0.0355
2977.00,0.0355
2976.00,0.0356
2975.00,0.0356
2974.00,0.0356
2973.00,0.0356
2972.00,0.0355
2971.00,0.0355
2970.00,0.0355
2969.00,0.0355
2968.00,0.0354
2967.00,0.0354
2966.00,0.0354
2965.00,0.0354
2964.00,0.0354
2963.00,0.0353
2962.00,0.0353
2961.00,0.0353
2960.00,0.0353
2959.00,0.0352
2958.00,0.0352
2957.00,0.0352
2956.00,0.0352
2955.00,0.0352
2954.00,0.0352
2953.00,0.0352
2952.00,0.0352
2951.00,0.0353
2950.00,0.0353
2949.00,0.0353
2948.00,0.0353
2947.00,0.0354
2946.00,0.0354
2945.00,0.0354
2944.00,0.0354
2943.00,0.0354
2942.00,0.0354
2941.00,0.0353
2940.00,0.0353
2939.00,0.0353
2938.00,0.0353
2937.00,0.0353
2936.00,0.0353
2935.00,0.0353
2934.00,0.0353
2933.00,0.0352
2932.00,0.0352
2931.00,0.0351
2930.00,0.0350
2929.00,0.0350
2928.00,0.0349
2927.00,0.0349
2926.00,0.0349
2925.00,0.0349
2924.00,0.0348
2923.00,0.0348
2922.00,0.0348
2921.00,0.0347
2920.00,0.0346
2919.00,0.0344
2918.00,0.0343
2917.00,0.0342
2916.00,0.0342
2915.00,0.0342
2914.00,0.0344
2913.00,0.0345
2912.00,0.0346
2911.00,0.0346
2910.00,0.0347
2909.00,0.0347
2908.00,0.0348
2907.00,0.0348
2906.00,0.0348
2905.00,0.0348
2904.00,0.0348
2903.00,0.0349
2902.00,0.0349
2901.00,0.0348
2900.00,0.0348
2899.00,0.0348
2898.00,0.0347
2897.00,0.0347
2896.00,0.0347
2895.00,0.0347
2894.00,0.0347
2893.00,0.0346
2892.00,0.0346
2891.00,0.0346
2890.00,0.0346
2889.00,0.0346
2888.00,0.0346
2887.00,0.0346
2886.00,0.0346
2885.00,0.0345
2884.00,0.0345
2883.00,0.0344
2882.00,0.0344
2881.00,0.0344
2880.00,0.0344
2879.00,0.0343
2878.00,0.0343
2877.00,0.0343
2876.00,0.0343
2875.00,0.0343
2874.00,0.0343
2873.00,0.0342
2872.00,0.0342
2871.00,0.0341
2870.00,0.0341
2869.00,0.0340
2868.00,0.0340
2867.00,0.0340
2866.00,0.0340
2865.00,0.0340
2864.00,0.0339
2863.00,0.0339
2862.00,0.0339
2861.00,0.0339
2860.00,0.0339
2859.00,0.0339
2858.00,0.0339
2857.00,0.0339
2856.00,0.0339
2855.00,0.0338
2854.00,0.0338
2853.00,0.0337
2852.00,0.0336
2851.00,0.0336
2850.00,0.0335
2849.00,0.0335
2848.00,0.0335
2847.00,0.0335
2846.00,0.0335
2845.00,0.0336
2844.00,0.0336
2843.00,0.0336
2842.00,0.0336
2841.00,0.0336
2840.00,0.0336
2839.00,0.0335
2838.00,0.0335
2837.00,0.0334
2836.00,0.0334
2835.00,0.0333
2834.00,0.0333
2833.00,0.0333
2832.00,0.0333
2831.00,0.0332
2830.00,0.0332
2829.00,0.0332
2828.00,0.0332
2827.00,0.0331
2826.00,0.0331
2825.00,0.0331
2824.00,0.0331
2823.00,0.0331
2822.00,0.0331
2821.00,0.0331
2820.00,0.0330
2819.00,0.0330
2818.00,0.0330
2817.00,0.0329
2816.00,0.0329
2815.00,0.0329
2814.00,0.0328
2813.00,0.0328
2812.00,0.0328
2811.00,0.0328
2810.00,0.0327
2809.00,0.0327
2808.00,0.0327
2807.00,0.0326
2806.00,0.0326
2805.00,0.0325
2804.00,0.0325
2803.00,0.0325
2802.00,0.0325
2801.00,0.0324
2800.00,0.0324
2799.00,0.0324
2798.00,0.0323
2797.00,0.0323
2796.00,0.0323
2795.00,0.0323
2794.00,0.0323
2793.00,0.0323
2792.00,0.0323
2791.00,0.0323
2790.00,0.0322
2789.00,0.0322
2788.00,0.0322
2787.00,0.0322
2786.00,0.0322
2785.00,0.0321
2784.00,0.0321
2783.00,0.0321
2782.00,0.0320
2781.00,0.0320
2780.00,0.0320
2779.00,0.0319
2778.00,0.0319
2777.00,0.0319
2776.00,0.0319
2775.00,0.0319
2774.00,0.0318
2773.00,0.0318
2772.00,0.0318
2771.00,0.0318
2770.00,0.0318
2769.00,0.0317
2768.00,0.0317
2767.00,0.0317
2766.00,0.0317
2765.00,0.0316
2764.00,0.0316
2763.00,0.0316
2762.00,0.0316
2761.00,0.0316
2760.00,0.0315
2759.00,0.0315
2758.00,0.0315
2757.00,0.0314
2756.00,0.0314
2755.00,0.0314
2754.00,0.0315
2753.00,0.0314
2752.00,0.0314
2751.00,0.0313
2750.00,0.0313
2749.00,0.0313
2748.00,0.0313
2747.00,0.0313
2746.00,0.0313
2745.00,0.0312
2744.00,0.0312
2743.00,0.0312
2742.00,0.0312
2741.00,0.0312
2740.00,0.0311
2739.00,0.0311
2738.00,0.0311
2737.00,0.0310
2736.00,0.0310
2735.00,0.0310
2734.00,0.0310
2733.00,0.0310
2732.00,0.0309
2731.00,0.0309
2730.00,0.0309
2729.00,0.0308
2728.00,0.0308
2727.00,0.0308
2726.00,0.0308
2725.00,0.0308
2724.00,0.0308
2723.00,0.0308
2722.00,0.0308
2721.00,0.0308
2720.00,0.0308
2719.00,0.0307
2718.00,0.0307
2717.00,0.0307
2716.00,0.0307
2715.00,0.0307
2714.00,0.0306
2713.00,0.0306
2712.00,0.0306
2711.00,0.0306
2710.00,0.0306
2709.00,0.0305
2708.00,0.0305
2707.00,0.0305
2706.00,0.0304
2705.00,0.0304
2704.00,0.0303
2703.00,0.0303
2702.00,0.0303
2701.00,0.0302
2700.00,0.0303
2699.00,0.0303
2698.00,0.0303
2697.00,0.0303
2696.00,0.0303
2695.00,0.0303
2694.00,0.0302
2693.00,0.0302
2692.00,0.0302
2691.00,0.0302
2690.00,0.0301
2689.00,0.0301
2688.00,0.0301
2687.00,0.0301
2686.00,0.0301
2685.00,0.0301
2684.00,0.0301
2683.00,0.0301
2682.00,0.0301
2681.00,0.0300
2680.00,0.0300
2679.00,0.0300
2678.00,0.0300
2677.00,0.0300
2676.00,0.0299
2675.00,0.0299
2674.00,0.0299
2673.00,0.0299
2672.00,0.0299
2671.00,0.0299
2670.00,0.0298
2669.00,0.0298
2668.00,0.0298
2667.00,0.0298
2666.00,0.0298
2665.00,0.0298
2664.00,0.0299
2663.00,0.0298
2662.00,0.0298
2661.00,0.0298
2660.00,0.0298
2659.00,0.0298
2658.00,0.0298
2657.00,0.0299
2656.00,0.0299
2655.00,0.0299
2654.00,0.0299
2653.00,0.0299
2652.00,0.0299
2651.00,0.0299
2650.00,0.0298
2649.00,0.0298
2648.00,0.0298
2647.00,0.0298
2646.00,0.0298
2645.00,0.0298
2644.00,0.0298
2643.00,0.0298
2642.00,0.0298
2641.00,0.0298
2640.00,0.0297
2639.00,0.0297
2638.00,0.0297
2637.00,0.0298
2636.00,0.0298
2635.00,0.0298
2634.00,0.0298
2633.00,0.0298
2632.00,0.0298
2631.00,0.0298
2630.00,0.0297
2629.00,0.0297
2628.00,0.0297
2627.00,0.0297
2626.00,0.0297
2625.00,0.0297
2624.00,0.0298
2623.00,0.0298
2622.00,0.0298
2621.00,0.0297
2620.00,0.0297
2619.00,0.0297
2618.00,0.0296
2617.00,0.0296
2616.00,0.0296
2615.00,0.0296
2614.00,0.0296
2613.00,0.0296
2612.00,0.0296
2611.00,0.0296
2610.00,0.0296
2609.00,0.0296
2608.00,0.0296
2607.00,0.0296
2606.00,0.0296
2605.00,0.0296
2604.00,0.0297
2603.00,0.0297
2602.00,0.0297
2601.00,0.0297
2600.00,0.0297
2599.00,0.0297
2598.00,0.0296
2597.00,0.0296
2596.00,0.0296
2595.00,0.0295
2594.00,0.0295
2593.00,0.0295
2592.00,0.0295
2591.00,0.0295
2590.00,0.0295
2589.00,0.0295
2588.00,0.0295
2587.00,0.0295
2586.00,0.0294
2585.00,0.0294
2584.00,0.0294
2583.00,0.0294
2582.00,0.0294
2581.00,0.0295
2580.00,0.0295
2579.00,0.0295
2578.00,0.0295
2577.00,0.0295
2576.00,0.0294
2575.00,0.0294
2574.00,0.0294
2573.00,0.0294
2572.00,0.0294
2571.00,0.0294
2570.00,0.0294
2569.00,0.0294
2568.00,0.0294
2567.00,0.0294
2566.00,0.0294
2565.00,0.0295
2564.00,0.0295
2563.00,0.0294
2562.00,0.0294
2561.00,0.0293
2560.00,0.0292
2559.00,0.0292
2558.00,0.0293
2557.00,0.0293
2556.00,0.0293
2555.00,0.0294
2554.00,0.0294
2553.00,0.0294
2552.00,0.0294
2551.00,0.0294
2550.00,0.0294
2549.00,0.0294
2548.00,0.0293
2547.00,0.0293
2546.00,0.0293
2545.00,0.0292
2544.00,0.0292
2543.00,0.0291
2542.00,0.0291
2541.00,0.0291
2540.00,0.0292
2539.00,0.0292
2538.00,0.0292
2537.00,0.0292
2536.00,0.0292
2535.00,0.0291
2534.00,0.0290
2533.00,0.0290
2532.00,0.0290
2531.00,0.0290
2530.00,0.0291
2529.00,0.0291
2528.00,0.0291
2527.00,0.0291
2526.00,0.0291
2525.00,0.0291
2524.00,0.0291
2523.00,0.0291
2522.00,0.0291
2521.00,0.0290
2520.00,0.0290
2519.00,0.0290
2518.00,0.0290
2517.00,0.0290
2516.00,0.0291
2515.00,0.0291
2514.00,0.0291
2513.00,0.0291
2512.00,0.0291
2511.00,0.0291
2510.00,0.0290
2509.00,0.0289
2508.00,0.0289
2507.00,0.0288
2506.00,0.0288
2505.00,0.0289
2504.00,0.0289
2503.00,0.0289
2502.00,0.0289
2501.00,0.0289
2500.00,0.0288
2499.00,0.0288
2498.00,0.0288
2497.00,0.0289
2496.00,0.0289
2495.00,0.0289
2494.00,0.0289
2493.00,0.0289
2492.00,0.0290
2491.00,0.0290
2490.00,0.0290
2489.00,0.0289
2488.00,0.0288
2487.00,0.0288
2486.00,0.0288
2485.00,0.0288
2484.00,0.0288
2483.00,0.0288
2482.00,0.0288
2481.00,0.0288
2480.00,0.0288
2479.00,0.0288
2478.00,0.0288
2477.00,0.0287
2476.00,0.0287
2475.00,0.0287
2474.00,0.0287
2473.00,0.0286
2472.00,0.0286
2471.00,0.0285
2470.00,0.0285
2469.00,0.0285
2468.00,0.0286
2467.00,0.0286
2466.00,0.0286
2465.00,0.0287
2464.00,0.0287
2463.00,0.0287
2462.00,0.0287
2461.00,0.0287
2460.00,0.0286
2459.00,0.0286
2458.00,0.0286
2457.00,0.0286
2456.00,0.0286
2455.00,0.0286
2454.00,0.0286
2453.00,0.0286
2452.00,0.0287
2451.00,0.0287
2450.00,0.0286
2449.00,0.0286
2448.00,0.0286
2447.00,0.0285
2446.00,0.0285
2445.00,0.0285
2444.00,0.0285
2443.00,0.0284
2442.00,0.0284
2441.00,0.0284
2440.00,0.0284
2439.00,0.0284
2438.00,0.0283
2437.00,0.0283
2436.00,0.0283
2435.00,0.0282
2434.00,0.0282
2433.00,0.0282
2432.00,0.0282
2431.00,0.0281
2430.00,0.0281
2429.00,0.0281
2428.00,0.0281
2427.00,0.0282
2426.00,0.0282
2425.00,0.0283
2424.00,0.0282
2423.00,0.0282
2422.00,0.0281
2421.00,0.0281
2420.00,0.0281
2419.00,0.0281
2418.00,0.0281
2417.00,0.0280
2416.00,0.0280
2415.00,0.0280
2414.00,0.0280
2413.00,0.0280
2412.00,0.0280
2411.00,0.0280
2410.00,0.0279
2409.00,0.0279
2408.00,0.0279
2407.00,0.0279
2406.00,0.0278
2405.00,0.0278
2404.00,0.0278
2403.00,0.0278
2402.00,0.0278
2401.00,0.0278
2400.00,0.0277
2399.00,0.0277
2398.00,0.0277
2397.00,0.0277
2396.00,0.0277
2395.00,0.0277
2394.00,0.0276
2393.00,0.0276
2392.00,0.0275
2391.00,0.0275
2390.00,0.0275
2389.00,0.0275
2388.00,0.0275
2387.00,0.0275
2386.00,0.0275
2385.00,0.0274
2384.00,0.0274
2383.00,0.0274
2382.00,0.0275
2381.00,0.0274
2380.00,0.0274
2379.00,0.0274
2378.00,0.0273
2377.00,0.0273
2376.00,0.0274
2375.00,0.0274
2374.00,0.0274
2373.00,0.0274
2372.00,0.0273
2371.00,0.0273
2370.00,0.0273
2369.00,0.0274
2368.00,0.0275
2367.00,0.0275
2366.00,0.0273
2365.00,0.0272
2364.00,0.0271
2363.00,0.0272
2362.00,0.0274
2361.00,0.0277
2360.00,0.0278
2359.00,0.0278
2358.00,0.0277
2357.00,0.0275
2356.00,0.0275
2355.00,0.0276
2354.00,0.0277
2353.00,0.0278
2352.00,0.0278
2351.00,0.0277
2350.00,0.0275
2349.00,0.0274
2348.00,0.0273
2347.00,0.0274
2346.00,0.0275
2345.00,0.0275
2344.00,0.0275
2343.00,0.0274
2342.00,0.0273
2341.00,0.0273
2340.00,0.0273
2339.00,0.0272
2338.00,0.0272
2337.00,0.0271
2336.00,0.0271
2335.00,0.0271
2334.00,0.0271
2333.00,0.0271
2332.00,0.0271
2331.00,0.0271
2330.00,0.0272
2329.00,0.0272
2328.00,0.0272
2327.00,0.0272
2326.00,0.0272
2325.00,0.0271
2324.00,0.0272
2323.00,0.0272
2322.00,0.0272
2321.00,0.0272
2320.00,0.0272
2319.00,0.0271
2318.00,0.0271
2317.00,0.0270
2316.00,0.0270
2315.00,0.0269
2314.00,0.0269
2313.00,0.0268
2312.00,0.0268
2311.00,0.0268
2310.00,0.0269
2309.00,0.0269
2308.00,0.0269
2307.00,0.0269
2306.00,0.0268
2305.00,0.0268
2304.00,0.0267
2303.00,0.0266
2302.00,0.0266
2301.00,0.0266
2300.00,0.0266
2299.00,0.0267
2298.00,0.0267
2297.00,0.0267
2296.00,0.0267
2295.00,0.0267
2294.00,0.0267
2293.00,0.0267
2292.00,0.0267
2291.00,0.0267
2290.00,0.0267
2289.00,0.0267
2288.00,0.0267
2287.00,0.0268
2286.00,0.0268
2285.00,0.0268
2284.00,0.0267
2283.00,0.0267
2282.00,0.0266
2281.00,0.0267
2280.00,0.0266
2279.00,0.0266
2278.00,0.0265
2277.00,0.0265
2276.00,0.0265
2275.00,0.0265
2274.00,0.0264
2273.00,0.0264
2272.00,0.0263
2271.00,0.0264
2270.00,0.0264
2269.00,0.0265
2268.00,0.0265
2267.00,0.0265
2266.00,0.0264
2265.00,0.0264
2264.00,0.0264
2263.00,0.0264
2262.00,0.0264
2261.00,0.0264
2260.00,0.0264
2259.00,0.0264
2258.00,0.0263
2257.00,0.0262
2256.00,0.0261
2255.00,0.0261
2254.00,0.0260
2253.00,0.0261
2252.00,0.0261
2251.00,0.0261
2250.00,0.0260
2249.00,0.0260
2248.00,0.0259
2247.00,0.0260
2246.00,0.0260
2245.00,0.0260
2244.00,0.0260
2243.00,0.0261
2242.00,0.0261
2241.00,0.0261
2240.00,0.0261
2239.00,0.0261
2238.00,0.0261
2237.00,0.0261
2236.00,0.0261
2235.00,0.0260
2234.00,0.0260
2233.00,0.0260
2232.00,0.0260
2231.00,0.0261
2230.00,0.0261
2229.00,0.0262
2228.00,0.0263
2227.00,0.0262
2226.00,0.0261
2225.00,0.0260
2224.00,0.0259
2223.00,0.0258
2222.00,0.0258
2221.00,0.0258
2220.00,0.0259
2219.00,0.0260
2218.00,0.0260
2217.00,0.0260
2216.00,0.0259
2215.00,0.0258
2214.00,0.0258
2213.00,0.0258
2212.00,0.0257
2211.00,0.0257
2210.00,0.0257
2209.00,0.0257
2208.00,0.0257
2207.00,0.0257
2206.00,0.0257
2205.00,0.0257
2204.00,0.0257
2203.00,0.0258
2202.00,0.0258
2201.00,0.0258
2200.00,0.0259
2199.00,0.0260
2198.00,0.0259
2197.00,0.0259
2196.00,0.0258
2195.00,0.0258
2194.00,0.0258
2193.00,0.0258
2192.00,0.0258
2191.00,0.0258
2190.00,0.0258
2189.00,0.0260
2188.00,0.0262
2187.00,0.0263
2186.00,0.0263
2185.00,0.0262
2184.00,0.0260
2183.00,0.0257
2182.00,0.0256
2181.00,0.0255
2180.00,0.0255
2179.00,0.0254
2178.00,0.0253
2177.00,0.0252
2176.00,0.0251
2175.00,0.0252
2174.00,0.0254
2173.00,0.0257
2172.00,0.0259
2171.00,0.0260
2170.00,0.0260
2169.00,0.0261
2168.00,0.0262
2167.00,0.0262
2166.00,0.0262
2165.00,0.0261
2164.00,0.0262
2163.00,0.0262
2162.00,0.0261
2161.00,0.0258
2160.00,0.0254
2159.00,0.0249
2158.00,0.0247
2157.00,0.0247
2156.00,0.0247
2155.00,0.0247
2154.00,0.0247
2153.00,0.0247
2152.00,0.0247
2151.00,0.0245
2150.00,0.0244
2149.00,0.0242
2148.00,0.0242
2147.00,0.0243
2146.00,0.0244
2145.00,0.0244
2144.00,0.0244
2143.00,0.0243
2142.00,0.0242
2141.00,0.0241
2140.00,0.0241
2139.00,0.0241
2138.00,0.0242
2137.00,0.0242
2136.00,0.0240
2135.00,0.0238
2134.00,0.0236
2133.00,0.0235
2132.00,0.0235
2131.00,0.0236
2130.00,0.0237
2129.00,0.0238
2128.00,0.0239
2127.00,0.0239
2126.00,0.0240
2125.00,0.0240
2124.00,0.0240
2123.00,0.0239
2122.00,0.0239
2121.00,0.0238
2120.00,0.0239
2119.00,0.0239
2118.00,0.0240
2117.00,0.0240
2116.00,0.0241
2115.00,0.0241
2114.00,0.0241
2113.00,0.0242
2112.00,0.0242
2111.00,0.0242
2110.00,0.0241
2109.00,0.0240
2108.00,0.0239
2107.00,0.0239
2106.00,0.0238
2105.00,0.0237
2104.00,0.0236
2103.00,0.0236
2102.00,0.0236
2101.00,0.0237
2100.00,0.0238
2099.00,0.0237
2098.00,0.0237
2097.00,0.0236
2096.00,0.0235
2095.00,0.0234
2094.00,0.0234
2093.00,0.0234
2092.00,0.0235
2091.00,0.0235
2090.00,0.0235
2089.00,0.0234
2088.00,0.0234
2087.00,0.0234
2086.00,0.0234
2085.00,0.0235
2084.00,0.0236
2083.00,0.0236
2082.00,0.0235
2081.00,0.0233
2080.00,0.0232
2079.00,0.0232
2078.00,0.0233
2077.00,0.0234
2076.00,0.0235
2075.00,0.0235
2074.00,0.0234
2073.00,0.0234
2072.00,0.0233
2071.00,0.0233
2070.00,0.0233
2069.00,0.0233
2068.00,0.0232
2067.00,0.0231
2066.00,0.0231
2065.00,0.0230
2064.00,0.0230
2063.00,0.0229
2062.00,0.0229
2061.00,0.0230
2060.00,0.0231
2059.00,0.0232
2058.00,0.0232
2057.00,0.0232
2056.00,0.0232
2055.00,0.0232
2054.00,0.0233
2053.00,0.0234
2052.00,0.0235
2051.00,0.0237
2050.00,0.0237
2049.00,0.0237
2048.00,0.0236
2047.00,0.0234
2046.00,0.0234
2045.00,0.0234
2044.00,0.0235
2043.00,0.0235
2042.00,0.0234
2041.00,0.0234
2040.00,0.0234
2039.00,0.0234
2038.00,0.0236
2037.00,0.0238
2036.00,0.0239
2035.00,0.0239
2034.00,0.0238
2033.00,0.0235
2032.00,0.0233
2031.00,0.0231
2030.00,0.0230
2029.00,0.0231
2028.00,0.0231
2027.00,0.0231
2026.00,0.0231
2025.00,0.0231
2024.00,0.0231
2023.00,0.0230
2022.00,0.0230
2021.00,0.0230
2020.00,0.0231
2019.00,0.0232
2018.00,0.0232
2017.00,0.0231
2016.00,0.0230
2015.00,0.0229
2014.00,0.0228
2013.00,0.0228
2012.00,0.0228
2011.00,0.0227
2010.00,0.0226
2009.00,0.0225
2008.00,0.0225
2007.00,0.0225
2006.00,0.0226
2005.00,0.0225
2004.00,0.0225
2003.00,0.0224
2002.00,0.0224
2001.00,0.0224
2000.00,0.0224
1999.00,0.0224
1998.00,0.0225
1997.00,0.0225
1996.00,0.0225
1995.00,0.0225
1994.00,0.0225
1993.00,0.0226
1992.00,0.0225
1991.00,0.0225
1990.00,0.0225
1989.00,0.0225
1988.00,0.0224
1987.00,0.0223
1986.00,0.0223
1985.00,0.0224
1984.00,0.0225
1983.00,0.0225
1982.00,0.0225
1981.00,0.0226
1980.00,0.0226
1979.00,0.0226
1978.00,0.0225
1977.00,0.0224
1976.00,0.0222
1975.00,0.0220
1974.00,0.0220
1973.00,0.0220
1972.00,0.0222
1971.00,0.0223
1970.00,0.0224
1969.00,0.0223
1968.00,0.0220
1967.00,0.0217
1966.00,0.0215
1965.00,0.0214
1964.00,0.0215
1963.00,0.0215
1962.00,0.0214
1961.00,0.0214
1960.00,0.0213
1959.00,0.0212
1958.00,0.0211
1957.00,0.0210
1956.00,0.0210
1955.00,0.0210
1954.00,0.0210
1953.00,0.0210
1952.00,0.0209
1951.00,0.0208
1950.00,0.0208
1949.00,0.0208
1948.00,0.0208
1947.00,0.0209
1946.00,0.0210
1945.00,0.0210
1944.00,0.0210
1943.00,0.0209
1942.00,0.0208
1941.00,0.0206
1940.00,0.0205
1939.00,0.0204
1938.00,0.0203
1937.00,0.0202
1936.00,0.0203
1935.00,0.0203
1934.00,0.0203
1933.00,0.0203
1932.00,0.0202
1931.00,0.0202
1930.00,0.0201
1929.00,0.0201
1928.00,0.0201
1927.00,0.0201
1926.00,0.0202
1925.00,0.0203
1924.00,0.0202
1923.00,0.0201
1922.00,0.0200
1921.00,0.0200
1920.00,0.0200
1919.00,0.0199
1918.00,0.0198
1917.00,0.0196
1916.00,0.0196
1915.00,0.0197
1914.00,0.0197
1913.00,0.0197
1912.00,0.0197
1911.00,0.0196
1910.00,0.0194
1909.00,0.0193
1908.00,0.0193
1907.00,0.0193
1906.00,0.0193
1905.00,0.0193
1904.00,0.0192
1903.00,0.0192
1902.00,0.0192
1901.00,0.0191
1900.00,0.0191
1899.00,0.0191
1898.00,0.0191
1897.00,0.0190
1896.00,0.0189
1895.00,0.0188
1894.00,0.0187
1893.00,0.0188
1892.00,0.0189
1891.00,0.0189
1890.00,0.0187
1889.00,0.0185
1888.00,0.0184
1887.00,0.0184
1886.00,0.0185
1885.00,0.0185
1884.00,0.0184
1883.00,0.0183
1882.00,0.0183
1881.00,0.0183
1880.00,0.0182
1879.00,0.0182
1878.00,0.0181
1877.00,0.0181
1876.00,0.0181
1875.00,0.0180
1874.00,0.0181
1873.00,0.0181
1872.00,0.0183
1871.00,0.0184
1870.00,0.0183
1869.00,0.0181
1868.00,0.0177
1867.00,0.0175
1866.00,0.0175
1865.00,0.0176
1864.00,0.0177
1863.00,0.0177
1862.00,0.0176
1861.00,0.0175
1860.00,0.0174
1859.00,0.0173
1858.00,0.0172
1857.00,0.0172
1856.00,0.0171
1855.00,0.0171
1854.00,0.0171
1853.00,0.0171
1852.00,0.0171
1851.00,0.0171
1850.00,0.0171
1849.00,0.0171
1848.00,0.0171
1847.00,0.0171
1846.00,0.0171
1845.00,0.0169
1844.00,0.0166
1843.00,0.0164
1842.00,0.0164
1841.00,0.0165
1840.00,0.0166
1839.00,0.0166
1838.00,0.0165
1837.00,0.0164
1836.00,0.0163
1835.00,0.0163
1834.00,0.0163
1833.00,0.0164
1832.00,0.0165
1831.00,0.0163
1830.00,0.0160
1829.00,0.0157
1828.00,0.0156
1827.00,0.0156
1826.00,0.0156
1825.00,0.0156
1824.00,0.0155
1823.00,0.0155
1822.00,0.0156
1821.00,0.0157
1820.00,0.0156
1819.00,0.0156
1818.00,0.0155
1817.00,0.0154
1816.00,0.0154
1815.00,0.0153
1814.00,0.0153
1813.00,0.0153
1812.00,0.0153
1811.00,0.0151
1810.00,0.0150
1809.00,0.0150
1808.00,0.0150
1807.00,0.0150
1806.00,0.0150
1805.00,0.0151
1804.00,0.0152
1803.00,0.0152
1802.00,0.0152
1801.00,0.0151
1800.00,0.0150
1799.00,0.0150
1798.00,0.0152
1797.00,0.0154
1796.00,0.0155
1795.00,0.0157
1794.00,0.0158
1793.00,0.0157
1792.00,0.0155
1791.00,0.0152
1790.00,0.0152
1789.00,0.0154
1788.00,0.0156
1787.00,0.0158
1786.00,0.0160
1785.00,0.0161
1784.00,0.0162
1783.00,0.0163
1782.00,0.0164
1781.00,0.0165
1780.00,0.0166
1779.00,0.0167
1778.00,0.0170
1777.00,0.0173
1776.00,0.0176
1775.00,0.0178
1774.00,0.0180
1773.00,0.0180
1772.00,0.0179
1771.00,0.0178
1770.00,0.0180
1769.00,0.0183
1768.00,0.0185
1767.00,0.0187
1766.00,0.0188
1765.00,0.0189
1764.00,0.0191
1763.00,0.0192
1762.00,0.0192
1761.00,0.0193
1760.00,0.0195
1759.00,0.0198
1758.00,0.0200
1757.00,0.0202
1756.00,0.0204
1755.00,0.0206
1754.00,0.0209
1753.00,0.0213
1752.00,0.0217
1751.00,0.0220
1750.00,0.0221
1749.00,0.0221
1748.00,0.0222
1747.00,0.0224
1746.00,0.0227
1745.00,0.0230
1744.00,0.0233
1743.00,0.0235
1742.00,0.0238
1741.00,0.0241
1740.00,0.0244
1739.00,0.0247
1738.00,0.0249
1737.00,0.0253
1736.00,0.0258
1735.00,0.0264
1734.00,0.0267
1733.00,0.0267
1732.00,0.0268
1731.00,0.0268
1730.00,0.0269
1729.00,0.0272
1728.00,0.0275
1727.00,0.0278
1726.00,0.0281
1725.00,0.0284
1724.00,0.0287
1723.00,0.0290
1722.00,0.0292
1721.00,0.0293
1720.00,0.0295
1719.00,0.0297
1718.00,0.0301
1717.00,0.0304
1716.00,0.0304
1715.00,0.0304
1714.00,0.0305
1713.00,0.0307
1712.00,0.0309
1711.00,0.0310
1710.00,0.0312
1709.00,0.0314
1708.00,0.0315
1707.00,0.0316
1706.00,0.0316
1705.00,0.0317
1704.00,0.0317
1703.00,0.0318
1702.00,0.0319
1701.00,0.0321
1700.00,0.0323
1699.00,0.0324
1698.00,0.0324
1697.00,0.0324
1696.00,0.0322
1695.00,0.0321
1694.00,0.0321
1693.00,0.0322
1692.00,0.0323
1691.00,0.0324
1690.00,0.0324
1689.00,0.0324
1688.00,0.0325
1687.00,0.0325
1686.00,0.0324
1685.00,0.0323
1684.00,0.0321
1683.00,0.0321
1682.00,0.0324
1681.00,0.0327
1680.00,0.0329
1679.00,0.0331
1678.00,0.0333
1677.00,0.0334
1676.00,0.0336
1675.00,0.0338
1674.00,0.0339
1673.00,0.0340
1672.00,0.0341
1671.00,0.0343
1670.00,0.0344
1669.00,0.0345
1668.00,0.0346
1667.00,0.0349
1666.00,0.0351
1665.00,0.0353
1664.00,0.0355
1663.00,0.0358
1662.00,0.0360
1661.00,0.0363
1660.00,0.0365
1659.00,0.0368
1658.00,0.0371
1657.00,0.0371
1656.00,0.0372
1655.00,0.0372
1654.00,0.0375
1653.00,0.0377
1652.00,0.0380
1651.00,0.0383
1650.00,0.0384
1649.00,0.0386
1648.00,0.0390
1647.00,0.0393
1646.00,0.0396
1645.00,0.0399
1644.00,0.0402
1643.00,0.0404
1642.00,0.0406
1641.00,0.0407
1640.00,0.0409
1639.00,0.0410
1638.00,0.0411
1637.00,0.0413
1636.00,0.0415
1635.00,0.0418
1634.00,0.0422
1633.00,0.0426
1632.00,0.0429
1631.00,0.0431
1630.00,0.0433
1629.00,0.0435
1628.00,0.0438
1627.00,0.0440
1626.00,0.0443
1625.00,0.0445
1624.00,0.0448
1623.00,0.0451
1622.00,0.0454
1621.00,0.0455
1620.00,0.0456
1619.00,0.0458
1618.00,0.0461
1617.00,0.0465
1616.00,0.0468
1615.00,0.0470
1614.00,0.0471
1613.00,0.0473
1612.00,0.0474
1611.00,0.0477
1610.00,0.0479
1609.00,0.0480
1608.00,0.0482
1607.00,0.0484
1606.00,0.0485
1605.00,0.0486
1604.00,0.0487
1603.00,0.0489
1602.00,0.0491
1601.00,0.0492
1600.00,0.0494
1599.00,0.0495
1598.00,0.0497
1597.00,0.0498
1596.00,0.0499
1595.00,0.0500
1594.00,0.0501
1593.00,0.0502
1592.00,0.0503
1591.00,0.0505
1590.00,0.0506
1589.00,0.0507
1588.00,0.0508
1587.00,0.0509
1586.00,0.0510
1585.00,0.0510
1584.00,0.0511
1583.00,0.0512
1582.00,0.0513
1581.00,0.0514
1580.00,0.0514
1579.00,0.0514
1578.00,0.0514
1577.00,0.0516
1576.00,0.0518
1575.00,0.0519
1574.00,0.0519
1573.00,0.0517
1572.00,0.0516
1571.00,0.0516
1570.00,0.0516
1569.00,0.0517
1568.00,0.0518
1567.00,0.0519
1566.00,0.0519
1565.00,0.0518
1564.00,0.0518
1563.00,0.0516
1562.00,0.0513
1561.00,0.0507
1560.00,0.0506
1559.00,0.0512
1558.00,0.0514
1557.00,0.0515
1556.00,0.0516
1555.00,0.0515
1554.00,0.0514
1553.00,0.0512
1552.00,0.0510
1551.00,0.0508
1550.00,0.0506
1549.00,0.0505
1548.00,0.0504
1547.00,0.0503
1546.00,0.0501
1545.00,0.0500
1544.00,0.0498
1543.00,0.0496
1542.00,0.0494
1541.00,0.0491
1540.00,0.0484
1539.00,0.0479
1538.00,0.0478
1537.00,0.0478
1536.00,0.0477
1535.00,0.0475
1534.00,0.0473
1533.00,0.0471
1532.00,0.0469
1531.00,0.0468
1530.00,0.0468
1529.00,0.0467
1528.00,0.0466
1527.00,0.0465
1526.00,0.0464
1525.00,0.0462
1524.00,0.0460
1523.00,0.0458
1522.00,0.0456
1521.00,0.0452
1520.00,0.0448
1519.00,0.0444
1518.00,0.0441
1517.00,0.0438
1516.00,0.0437
1515.00,0.0436
1514.00,0.0436
1513.00,0.0436
1512.00,0.0435
1511.00,0.0433
1510.00,0.0431
1509.00,0.0429
1508.00,0.0428
1507.00,0.0423
1506.00,0.0417
1505.00,0.0417
1504.00,0.0418
1503.00,0.0417
1502.00,0.0415
1501.00,0.0413
1500.00,0.0411
1499.00,0.0409
1498.00,0.0408
1497.00,0.0407
1496.00,0.0407
1495.00,0.0406
1494.00,0.0406
1493.00,0.0406
1492.00,0.0406
1491.00,0.0406
1490.00,0.0404
1489.00,0.0401
1488.00,0.0399
1487.00,0.0398
1486.00,0.0399
1485.00,0.0400
1484.00,0.0400
1483.00,0.0400
1482.00,0.0401
1481.00,0.0401
1480.00,0.0401
1479.00,0.0401
1478.00,0.0401
1477.00,0.0401
1476.00,0.0403
1475.00,0.0405
1474.00,0.0409
1473.00,0.0411
1472.00,0.0411
1471.00,0.0410
1470.00,0.0410
1469.00,0.0410
1468.00,0.0410
1467.00,0.0410
1466.00,0.0411
1465.00,0.0413
1464.00,0.0414
1463.00,0.0415
1462.00,0.0415
1461.00,0.0416
1460.00,0.0416
1459.00,0.0417
1458.00,0.0420
1457.00,0.0422
1456.00,0.0424
1455.00,0.0424
1454.00,0.0424
1453.00,0.0425
1452.00,0.0426
1451.00,0.0427
1450.00,0.0428
1449.00,0.0430
1448.00,0.0431
1447.00,0.0432
1446.00,0.0433
1445.00,0.0434
1444.00,0.0435
1443.00,0.0437
1442.00,0.0437
1441.00,0.0439
1440.00,0.0440
1439.00,0.0441
1438.00,0.0442
1437.00,0.0444
1436.00,0.0447
1435.00,0.0448
1434.00,0.0448
1433.00,0.0449
1432.00,0.0450
1431.00,0.0450
1430.00,0.0451
1429.00,0.0451
1428.00,0.0452
1427.00,0.0453
1426.00,0.0454
1425.00,0.0454
1424.00,0.0455
1423.00,0.0456
1422.00,0.0457
1421.00,0.0458
1420.00,0.0459
1419.00,0.0461
1418.00,0.0462
1417.00,0.0463
1416.00,0.0464
1415.00,0.0465
1414.00,0.0465
1413.00,0.0466
1412.00,0.0467
1411.00,0.0468
1410.00,0.0468
1409.00,0.0468
1408.00,0.0468
1407.00,0.0468
1406.00,0.0469
1405.00,0.0470
1404.00,0.0472
1403.00,0.0473
1402.00,0.0473
1401.00,0.0474
1400.00,0.0475
1399.00,0.0477
1398.00,0.0478
1397.00,0.0479
1396.00,0.0480
1395.00,0.0481
1394.00,0.0481
1393.00,0.0482
1392.00,0.0483
1391.00,0.0483
1390.00,0.0484
1389.00,0.0485
1388.00,0.0486
1387.00,0.0487
1386.00,0.0487
1385.00,0.0488
1384.00,0.0489
1383.00,0.0490
1382.00,0.0492
1381.00,0.0493
1380.00,0.0494
1379.00,0.0495
1378.00,0.0495
1377.00,0.0495
1376.00,0.0495
1375.00,0.0495
1374.00,0.0496
1373.00,0.0496
1372.00,0.0497
1371.00,0.0498
1370.00,0.0498
1369.00,0.0498
1368.00,0.0498
1367.00,0.0498
1366.00,0.0497
1365.00,0.0497
1364.00,0.0497
1363.00,0.0497
1362.00,0.0497
1361.00,0.0497
1360.00,0.0497
1359.00,0.0497
1358.00,0.0496
1357.00,0.0496
1356.00,0.0495
1355.00,0.0495
1354.00,0.0495
1353.00,0.0494
1352.00,0.0494
1351.00,0.0493
1350.00,0.0493
1349.00,0.0492
1348.00,0.0492
1347.00,0.0492
1346.00,0.0491
1345.00,0.0490
1344.00,0.0490
1343.00,0.0489
1342.00,0.0489
1341.00,0.0488
1340.00,0.0488
1339.00,0.0488
1338.00,0.0487
1337.00,0.0487
1336.00,0.0486
1335.00,0.0485
1334.00,0.0484
1333.00,0.0484
1332.00,0.0483
1331.00,0.0483
1330.00,0.0483
1329.00,0.0483
1328.00,0.0482
1327.00,0.0482
1326.00,0.0481
1325.00,0.0480
1324.00,0.0480
1323.00,0.0480
1322.00,0.0480
1321.00,0.0480
1320.00,0.0480
1319.00,0.0479
1318.00,0.0479
1317.00,0.0479
1316.00,0.0479
1315.00,0.0479
1314.00,0.0479
1313.00,0.0479
1312.00,0.0479
1311.00,0.0478
1310.00,0.0478
1309.00,0.0477
1308.00,0.0477
1307.00,0.0477
1306.00,0.0477
1305.00,0.0478
1304.00,0.0478
1303.00,0.0479
1302.00,0.0479
1301.00,0.0479
1300.00,0.0479
1299.00,0.0480
1298.00,0.0480
1297.00,0.0480
1296.00,0.0481
1295.00,0.0481
1294.00,0.0482
1293.00,0.0482
1292.00,0.0483
1291.00,0.0484
1290.00,0.0485
1289.00,0.0485
1288.00,0.0485
1287.00,0.0486
1286.00,0.0485
1285.00,0.0485
1284.00,0.0486
1283.00,0.0487
1282.00,0.0488
1281.00,0.0488
1280.00,0.0489
1279.00,0.0490
1278.00,0.0491
1277.00,0.0491
1276.00,0.0492
1275.00,0.0493
1274.00,0.0494
1273.00,0.0494
1272.00,0.0494
1271.00,0.0494
1270.00,0.0494
1269.00,0.0494
1268.00,0.0495
1267.00,0.0496
1266.00,0.0497
1265.00,0.0498
1264.00,0.0499
1263.00,0.0500
1262.00,0.0501
1261.00,0.0501
1260.00,0.0502
1259.00,0.0503
1258.00,0.0503
1257.00,0.0504
1256.00,0.0504
1255.00,0.0505
1254.00,0.0505
1253.00,0.0506
1252.00,0.0507
1251.00,0.0508
1250.00,0.0509
1249.00,0.0510
1248.00,0.0511
1247.00,0.0512
1246.00,0.0512
1245.00,0.0512
1244.00,0.0512
1243.00,0.0513
1242.00,0.0513
1241.00,0.0514
1240.00,0.0515
1239.00,0.0515
1238.00,0.0516
1237.00,0.0516
1236.00,0.0517
1235.00,0.0518
1234.00,0.0518
1233.00,0.0518
1232.00,0.0518
1231.00,0.0518
1230.00,0.0518
1229.00,0.0517
1228.00,0.0518
1227.00,0.0518
1226.00,0.0518
1225.00,0.0518
1224.00,0.0519
1223.00,0.0519
1222.00,0.0518
1221.00,0.0518
1220.00,0.0518
1219.00,0.0517
1218.00,0.0517
1217.00,0.0516
1216.00,0.0516
1215.00,0.0516
1214.00,0.0516
1213.00,0.0517
1212.00,0.0518
1211.00,0.0518
1210.00,0.0518
1209.00,0.0518
1208.00,0.0518
1207.00,0.0518
1206.00,0.0518
1205.00,0.0518
1204.00,0.0518
1203.00,0.0519
1202.00,0.0519
1201.00,0.0519
1200.00,0.0519
1199.00,0.0520
1198.00,0.0520
1197.00,0.0520
1196.00,0.0520
1195.00,0.0520
1194.00,0.0519
1193.00,0.0519
1192.00,0.0519
1191.00,0.0519
1190.00,0.0519
1189.00,0.0519
1188.00,0.0520
1187.00,0.0520
1186.00,0.0520
1185.00,0.0520
1184.00,0.0521
1183.00,0.0522
1182.00,0.0523
1181.00,0.0523
1180.00,0.0524
1179.00,0.0524
1178.00,0.0524
1177.00,0.0524
1176.00,0.0524
1175.00,0.0525
1174.00,0.0525
1173.00,0.0526
1172.00,0.0526
1171.00,0.0527
1170.00,0.0528
1169.00,0.0529
1168.00,0.0531
1167.00,0.0531
1166.00,0.0531
1165.00,0.0531
1164.00,0.0531
1163.00,0.0531
1162.00,0.0530
1161.00,0.0529
1160.00,0.0529
1159.00,0.0529
1158.00,0.0529
1157.00,0.0530
1156.00,0.0530
1155.00,0.0531
1154.00,0.0531
1153.00,0.0532
1152.00,0.0532
1151.00,0.0531
1150.00,0.0531
1149.00,0.0530
1148.00,0.0531
1147.00,0.0531
1146.00,0.0533
1145.00,0.0534
1144.00,0.0535
1143.00,0.0536
1142.00,0.0537
1141.00,0.0537
1140.00,0.0538
1139.00,0.0539
1138.00,0.0539
1137.00,0.0540
1136.00,0.0542
1135.00,0.0544
1134.00,0.0546
1133.00,0.0547
1132.00,0.0548
1131.00,0.0549
1130.00,0.0551
1129.00,0.0553
1128.00,0.0555
1127.00,0.0558
1126.00,0.0560
1125.00,0.0564
1124.00,0.0568
1123.00,0.0572
1122.00,0.0577
1121.00,0.0582
1120.00,0.0587
1119.00,0.0592
1118.00,0.0597
1117.00,0.0601
1116.00,0.0604
1115.00,0.0605
1114.00,0.0605
1113.00,0.0605
1112.00,0.0606
1111.00,0.0607
1110.00,0.0609
1109.00,0.0611
1108.00,0.0614
1107.00,0.0617
1106.00,0.0620
1105.00,0.0623
1104.00,0.0626
1103.00,0.0629
1102.00,0.0631
1101.00,0.0633
1100.00,0.0635
1099.00,0.0636
1098.00,0.0637
1097.00,0.0639
1096.00,0.0640
1095.00,0.0641
1094.00,0.0642
1093.00,0.0644
1092.00,0.0647
1091.00,0.0649
1090.00,0.0651
1089.00,0.0652
1088.00,0.0652
1087.00,0.0652
1086.00,0.0651
1085.00,0.0651
1084.00,0.0652
1083.00,0.0653
1082.00,0.0654
1081.00,0.0655
1080.00,0.0656
1079.00,0.0657
1078.00,0.0658
1077.00,0.0658
1076.00,0.0660
1075.00,0.0662
1074.00,0.0663
1073.00,0.0664
1072.00,0.0665
1071.00,0.0666
1070.00,0.0667
1069.00,0.0669
1068.00,0.0672
1067.00,0.0675
1066.00,0.0677
1065.00,0.0678
1064.00,0.0680
1063.00,0.0682
1062.00,0.0684
1061.00,0.0686
1060.00,0.0689
1059.00,0.0691
1058.00,0.0693
1057.00,0.0694
1056.00,0.0695
1055.00,0.0697
1054.00,0.0700
1053.00,0.0703
1052.00,0.0707
1051.00,0.0710
1050.00,0.0714
1049.00,0.0718
1048.00,0.0722
1047.00,0.0725
1046.00,0.0729
1045.00,0.0732
1044.00,0.0737
1043.00,0.0741
1042.00,0.0746
1041.00,0.0751
1040.00,0.0756
1039.00,0.0761
1038.00,0.0766
1037.00,0.0770
1036.00,0.0775
1035.00,0.0778
1034.00,0.0780
1033.00,0.0781
1032.00,0.0781
1031.00,0.0780
1030.00,0.0778
1029.00,0.0775
1028.00,0.0771
1027.00,0.0766
1026.00,0.0760
1025.00,0.0754
1024.00,0.0749
1023.00,0.0745
1022.00,0.0742
1021.00,0.0740
1020.00,0.0739
1019.00,0.0737
1018.00,0.0736
1017.00,0.0736
1016.00,0.0737
1015.00,0.0739
1014.00,0.0742
1013.00,0.0745
1012.00,0.0748
1011.00,0.0751
1010.00,0.0754
1009.00,0.0756
1008.00,0.0756
1007.00,0.0756
1006.00,0.0754
1005.00,0.0753
1004.00,0.0751
1003.00,0.0748
1002.00,0.0746
1001.00,0.0742
1000.00,0.0738
999.00,0.0732
998.00,0.0725
997.00,0.0718
996.00,0.0711
995.00,0.0704
994.00,0.0696
993.00,0.0690
992.00,0.0684
991.00,0.0679
990.00,0.0674
989.00,0.0668
988.00,0.0662
987.00,0.0656
986.00,0.0651
985.00,0.0646
984.00,0.0642
983.00,0.0638
982.00,0.0634
981.00,0.0631
980.00,0.0627
979.00,0.0624
978.00,0.0621
977.00,0.0618
976.00,0.0616
975.00,0.0614
974.00,0.0611
973.00,0.0608
972.00,0.0605
971.00,0.0602
970.00,0.0599
969.00,0.0597
968.00,0.0596
967.00,0.0595
966.00,0.0593
965.00,0.0591
964.00,0.0590
963.00,0.0588
962.00,0.0587
961.00,0.0586
960.00,0.0584
959.00,0.0583
958.00,0.0582
957.00,0.0580
956.00,0.0579
955.00,0.0579
954.00,0.0579
953.00,0.0579
952.00,0.0578
951.00,0.0577
950.00,0.0576
949.00,0.0577
948.00,0.0578
947.00,0.0580
946.00,0.0582
945.00,0.0585
944.00,0.0588
943.00,0.0590
942.00,0.0591
941.00,0.0592
940.00,0.0594
939.00,0.0595
938.00,0.0596
937.00,0.0597
936.00,0.0597
935.00,0.0596
934.00,0.0595
933.00,0.0594
932.00,0.0594
931.00,0.0593
930.00,0.0592
929.00,0.0592
928.00,0.0592
927.00,0.0593
926.00,0.0594
925.00,0.0596
924.00,0.0599
923.00,0.0602
922.00,0.0605
921.00,0.0607
920.00,0.0610
919.00,0.0614
918.00,0.0620
917.00,0.0625
916.00,0.0630
915.00,0.0634
914.00,0.0636
913.00,0.0636
912.00,0.0636
911.00,0.0634
910.00,0.0631
909.00,0.0629
908.00,0.0626
907.00,0.0623
906.00,0.0620
905.00,0.0617
904.00,0.0613
903.00,0.0609
902.00,0.0605
901.00,0.0601
900.00,0.0598
899.00,0.0596
898.00,0.0594
897.00,0.0591
896.00,0.0588
895.00,0.0585
894.00,0.0582
893.00,0.0580
892.00,0.0577
891.00,0.0575
890.00,0.0574
889.00,0.0573
888.00,0.0573
887.00,0.0571
886.00,0.0570
885.00,0.0568
884.00,0.0567
883.00,0.0565
882.00,0.0563
881.00,0.0561
880.00,0.0561
879.00,0.0561
878.00,0.0560
877.00,0.0559
876.00,0.0557
875.00,0.0555
874.00,0.0553
873.00,0.0551
872.00,0.0550
871.00,0.0550
870.00,0.0551
869.00,0.0551
868.00,0.0551
867.00,0.0550
866.00,0.0549
865.00,0.0547
864.00,0.0546
863.00,0.0546
862.00,0.0545
861.00,0.0545
860.00,0.0544
859.00,0.0544
858.00,0.0543
857.00,0.0543
856.00,0.0542
855.00,0.0542
854.00,0.0542
853.00,0.0543
852.00,0.0544
851.00,0.0545
850.00,0.0546
849.00,0.0547
848.00,0.0547
847.00,0.0547
846.00,0.0547
845.00,0.0548
844.00,0.0550
843.00,0.0552
842.00,0.0552
841.00,0.0553
840.00,0.0554
839.00,0.0557
838.00,0.0559
837.00,0.0559
836.00,0.0559
835.00,0.0557
834.00,0.0556
833.00,0.0555
832.00,0.0557
831.00,0.0560
830.00,0.0564
829.00,0.0568
828.00,0.0571
827.00,0.0573
826.00,0.0573
825.00,0.0573
824.00,0.0573
823.00,0.0574
822.00,0.0576
821.00,0.0578
820.00,0.0580
819.00,0.0582
818.00,0.0584
817.00,0.0586
816.00,0.0587
815.00,0.0588
814.00,0.0588
813.00,0.0589
812.00,0.0591
811.00,0.0593
810.00,0.0594
809.00,0.0596
808.00,0.0599
807.00,0.0603
806.00,0.0607
805.00,0.0612
804.00,0.0619
803.00,0.0625
802.00,0.0630
801.00,0.0633
800.00,0.0635
799.00,0.0637
798.00,0.0638
797.00,0.0639
796.00,0.0639
795.00,0.0639
794.00,0.0638
793.00,0.0637
792.00,0.0637
791.00,0.0637
790.00,0.0638
789.00,0.0638
788.00,0.0637
787.00,0.0637
786.00,0.0637
785.00,0.0637
784.00,0.0638
783.00,0.0639
782.00,0.0640
781.00,0.0641
780.00,0.0642
779.00,0.0644
778.00,0.0645
777.00,0.0645
776.00,0.0645
775.00,0.0644
774.00,0.0644
773.00,0.0644
772.00,0.0643
771.00,0.0641
770.00,0.0639
769.00,0.0640
768.00,0.0641
767.00,0.0644
766.00,0.0645
765.00,0.0645
764.00,0.0645
763.00,0.0645
762.00,0.0645
761.00,0.0646
760.00,0.0648
759.00,0.0651
758.00,0.0652
757.00,0.0653
756.00,0.0655
755.00,0.0655
754.00,0.0655
753.00,0.0655
752.00,0.0656
751.00,0.0656
750.00,0.0657
749.00,0.0657
748.00,0.0658
747.00,0.0658
746.00,0.0659
745.00,0.0660
744.00,0.0660
743.00,0.0659
742.00,0.0658
741.00,0.0656
740.00,0.0655
739.00,0.0654
738.00,0.0654
737.00,0.0653
736.00,0.0653
735.00,0.0653
734.00,0.0652
733.00,0.0652
732.00,0.0652
731.00,0.0654
730.00,0.0656
729.00,0.0657
728.00,0.0658
727.00,0.0657
726.00,0.0656
725.00,0.0655
724.00,0.0655
723.00,0.0655
722.00,0.0655
721.00,0.0656
720.00,0.0658
719.00,0.0660
718.00,0.0663
717.00,0.0665
716.00,0.0666
715.00,0.0666
714.00,0.0666
713.00,0.0666
712.00,0.0669
711.00,0.0673
710.00,0.0678
709.00,0.0682
708.00,0.0685
707.00,0.0688
706.00,0.0691
705.00,0.0695
704.00,0.0699
703.00,0.0703
702.00,0.0707
701.00,0.0713
700.00,0.0718
699.00,0.0721
698.00,0.0722
697.00,0.0722
696.00,0.0724
695.00,0.0727
694.00,0.0729
693.00,0.0730
692.00,0.0732
691.00,0.0734
690.00,0.0737
689.00,0.0739
688.00,0.0740
687.00,0.0740
686.00,0.0741
685.00,0.0743
684.00,0.0746
683.00,0.0747
682.00,0.0746
681.00,0.0745
680.00,0.0745
679.00,0.0745
678.00,0.0744
677.00,0.0742
676.00,0.0741
675.00,0.0743
674.00,0.0747
673.00,0.0753
672.00,0.0757
671.00,0.0758
670.00,0.0755
669.00,0.0752
668.00,0.0753
667.00,0.0755
666.00,0.0755
665.00,0.0753
664.00,0.0752
663.00,0.0753
662.00,0.0756
661.00,0.0761
660.00,0.0766
659.00,0.0769
658.00,0.0768
657.00,0.0766
656.00,0.0765
655.00,0.0764
654.00,0.0763
653.00,0.0761
652.00,0.0760
651.00,0.0758
650.00,0.0757
