Created as New Dataset,Monday, April 03 2023
cm-1,A
4000.00,0.0085
3999.00,0.0085
3998.00,0.0085
3997.00,0.0085
3996.00,0.0085
3995.00,0.0085
3994.00,0.0085
3993.00,0.0085
3992.00,0.0085
3991.00,0.0085
3990.00,0.0085
3989.00,0.0085
3988.00,0.0084
3987.00,0.0084
3986.00,0.0084
3985.00,0.0084
3984.00,0.0084
3983.00,0.0084
3982.00,0.0084
3981.00,0.0084
3980.00,0.0084
3979.00,0.0084
3978.00,0.0085
3977.00,0.0084
3976.00,0.0084
3975.00,0.0084
3974.00,0.0084
3973.00,0.0084
3972.00,0.0084
3971.00,0.0084
3970.00,0.0084
3969.00,0.0083
3968.00,0.0083
3967.00,0.0083
3966.00,0.0084
3965.00,0.0084
3964.00,0.0084
3963.00,0.0084
3962.00,0.0084
3961.00,0.0084
3960.00,0.0084
3959.00,0.0084
3958.00,0.0084
3957.00,0.0083
3956.00,0.0083
3955.00,0.0083
3954.00,0.0083
3953.00,0.0084
3952.00,0.0084
3951.00,0.0084
3950.00,0.0084
3949.00,0.0084
3948.00,0.0084
3947.00,0.0084
3946.00,0.0084
3945.00,0.0084
3944.00,0.0083
3943.00,0.0082
3942.00,0.0082
3941.00,0.0082
3940.00,0.0082
3939.00,0.0083
3938.00,0.0083
3937.00,0.0083
3936.00,0.0084
3935.00,0.0085
3934.00,0.0085
3933.00,0.0085
3932.00,0.0084
3931.00,0.0083
3930.00,0.0082
3929.00,0.0082
3928.00,0.0082
3927.00,0.0081
3926.00,0.0081
3925.00,0.0081
3924.00,0.0081
3923.00,0.0081
3922.00,0.0082
3921.00,0.0082
3920.00,0.0083
3919.00,0.0083
3918.00,0.0083
3917.00,0.0082
3916.00,0.0081
3915.00,0.0081
3914.00,0.0081
3913.00,0.0081
3912.00,0.0081
3911.00,0.0081
3910.00,0.0082
3909.00,0.0082
3908.00,0.0083
3907.00,0.0083
3906.00,0.0084
3905.00,0.0085
3904.00,0.0085
3903.00,0.0085
3902.00,0.0085
3901.00,0.0084
3900.00,0.0083
3899.00,0.0082
3898.00,0.0082
3897.00,0.0083
3896.00,0.0083
3895.00,0.0083
3894.00,0.0083
3893.00,0.0082
3892.00,0.0081
3891.00,0.0081
3890.00,0.0081
3889.00,0.0082
3888.00,0.0083
3887.00,0.0084
3886.00,0.0084
3885.00,0.0084
3884.00,0.0083
3883.00,0.0083
3882.00,0.0081
3881.00,0.0080
3880.00,0.0079
3879.00,0.0080
3878.00,0.0081
3877.00,0.0082
3876.00,0.0082
3875.00,0.0081
3874.00,0.0081
3873.00,0.0081
3872.00,0.0082
3871.00,0.0081
3870.00,0.0081
3869.00,0.0081
3868.00,0.0082
3867.00,0.0084
3866.00,0.0084
3865.00,0.0083
3864.00,0.0081
3863.00,0.0080
3862.00,0.0080
3861.00,0.0081
3860.00,0.0082
3859.00,0.0082
3858.00,0.0081
3857.00,0.0080
3856.00,0.0081
3855.00,0.0083
3854.00,0.0082
3853.00,0.0080
3852.00,0.0079
3851.00,0.0079
3850.00,0.0080
3849.00,0.0081
3848.00,0.0081
3847.00,0.0081
3846.00,0.0081
3845.00,0.0081
3844.00,0.0081
3843.00,0.0081
3842.00,0.0081
3841.00,0.0082
3840.00,0.0081
3839.00,0.0080
3838.00,0.0079
3837.00,0.0078
3836.00,0.0078
3835.00,0.0078
3834.00,0.0078
3833.00,0.0078
3832.00,0.0079
3831.00,0.0080
3830.00,0.0081
3829.00,0.0081
3828.00,0.0081
3827.00,0.0080
3826.00,0.0080
3825.00,0.0081
3824.00,0.0082
3823.00,0.0083
3822.00,0.0082
3821.00,0.0081
3820.00,0.0080
3819.00,0.0079
3818.00,0.0079
3817.00,0.0078
3816.00,0.0077
3815.00,0.0077
3814.00,0.0077
3813.00,0.0078
3812.00,0.0078
3811.00,0.0079
3810.00,0.0078
3809.00,0.0079
3808.00,0.0079
3807.00,0.0080
3806.00,0.0080
3805.00,0.0080
3804.00,0.0080
3803.00,0.0080
3802.00,0.0079
3801.00,0.0077
3800.00,0.0077
3799.00,0.0077
3798.00,0.0077
3797.00,0.0076
3796.00,0.0076
3795.00,0.0076
3794.00,0.0077
3793.00,0.0077
3792.00,0.0077
3791.00,0.0076
3790.00,0.0076
3789.00,0.0077
3788.00,0.0077
3787.00,0.0077
3786.00,0.0077
3785.00,0.0077
3784.00,0.0077
3783.00,0.0077
3782.00,0.0078
3781.00,0.0077
3780.00,0.0076
3779.00,0.0075
3778.00,0.0075
3777.00,0.0075
3776.00,0.0076
3775.00,0.0076
3774.00,0.0077
3773.00,0.0077
3772.00,0.0077
3771.00,0.0078
3770.00,0.0078
3769.00,0.0078
3768.00,0.0078
3767.00,0.0078
3766.00,0.0078
3765.00,0.0078
3764.00,0.0078
3763.00,0.0078
3762.00,0.0079
3761.00,0.0079
3760.00,0.0079
3759.00,0.0079
3758.00,0.0079
3757.00,0.0079
3756.00,0.0080
3755.00,0.0081
3754.00,0.0082
3753.00,0.0084
3752.00,0.0086
3751.00,0.0086
3750.00,0.0086
3749.00,0.0085
3748.00,0.0083
3747.00,0.0081
3746.00,0.0080
3745.00,0.0080
3744.00,0.0081
3743.00,0.0082
3742.00,0.0083
3741.00,0.0084
3740.00,0.0085
3739.00,0.0086
3738.00,0.0087
3737.00,0.0087
3736.00,0.0086
3735.00,0.0084
3734.00,0.0082
3733.00,0.0082
3732.00,0.0083
3731.00,0.0084
3730.00,0.0085
3729.00,0.0086
3728.00,0.0087
3727.00,0.0088
3726.00,0.0088
3725.00,0.0087
3724.00,0.0087
3723.00,0.0087
3722.00,0.0087
3721.00,0.0088
3720.00,0.0089
3719.00,0.0091
3718.00,0.0093
3717.00,0.0096
3716.00,0.0098
3715.00,0.0101
3714.00,0.0105
3713.00,0.0108
3712.00,0.0112
3711.00,0.0115
3710.00,0.0118
3709.00,0.0122
3708.00,0.0125
3707.00,0.0129
3706.00,0.0133
3705.00,0.0136
3704.00,0.0141
3703.00,0.0146
3702.00,0.0151
3701.00,0.0156
3700.00,0.0161
3699.00,0.0164
3698.00,0.0168
3697.00,0.0170
3696.00,0.0172
3695.00,0.0173
3694.00,0.0173
3693.00,0.0172
3692.00,0.0171
3691.00,0.0170
3690.00,0.0168
3689.00,0.0168
3688.00,0.0167
3687.00,0.0165
3686.00,0.0163
3685.00,0.0160
3684.00,0.0157
3683.00,0.0155
3682.00,0.0152
3681.00,0.0150
3680.00,0.0147
3679.00,0.0145
3678.00,0.0143
3677.00,0.0143
3676.00,0.0143
3675.00,0.0144
3674.00,0.0145
3673.00,0.0147
3672.00,0.0148
3671.00,0.0148
3670.00,0.0148
3669.00,0.0148
3668.00,0.0149
3667.00,0.0150
3666.00,0.0150
3665.00,0.0151
3664.00,0.0152
3663.00,0.0154
3662.00,0.0156
3661.00,0.0158
3660.00,0.0160
3659.00,0.0162
3658.00,0.0166
3657.00,0.0170
3656.00,0.0175
3655.00,0.0178
3654.00,0.0179
3653.00,0.0179
3652.00,0.0180
3651.00,0.0183
3650.00,0.0187
3649.00,0.0188
3648.00,0.0187
3647.00,0.0186
3646.00,0.0186
3645.00,0.0185
3644.00,0.0184
3643.00,0.0182
3642.00,0.0180
3641.00,0.0178
3640.00,0.0177
3639.00,0.0175
3638.00,0.0174
3637.00,0.0173
3636.00,0.0173
3635.00,0.0173
3634.00,0.0173
3633.00,0.0174
3632.00,0.0175
3631.00,0.0177
3630.00,0.0182
3629.00,0.0187
3628.00,0.0192
3627.00,0.0197
3626.00,0.0203
3625.00,0.0208
3624.00,0.0214
3623.00,0.0220
3622.00,0.0226
3621.00,0.0229
3620.00,0.0230
3619.00,0.0227
3618.00,0.0222
3617.00,0.0216
3616.00,0.0209
3615.00,0.0203
3614.00,0.0198
3613.00,0.0194
3612.00,0.0192
3611.00,0.0191
3610.00,0.0190
3609.00,0.0188
3608.00,0.0185
3607.00,0.0183
3606.00,0.0182
3605.00,0.0181
3604.00,0.0180
3603.00,0.0179
3602.00,0.0179
3601.00,0.0178
3600.00,0.0177
3599.00,0.0177
3598.00,0.0176
3597.00,0.0175
3596.00,0.0175
3595.00,0.0175
3594.00,0.0176
3593.00,0.0177
3592.00,0.0177
3591.00,0.0177
3590.00,0.0176
3589.00,0.0176
3588.00,0.0175
3587.00,0.0175
3586.00,0.0176
3585.00,0.0176
3584.00,0.0176
3583.00,0.0176
3582.00,0.0176
3581.00,0.0176
3580.00,0.0176
3579.00,0.0176
3578.00,0.0176
3577.00,0.0176
3576.00,0.0176
3575.00,0.0176
3574.00,0.0177
3573.00,0.0177
3572.00,0.0177
3571.00,0.0177
3570.00,0.0177
3569.00,0.0178
3568.00,0.0180
3567.00,0.0181
3566.00,0.0181
3565.00,0.0181
3564.00,0.0181
3563.00,0.0181
3562.00,0.0181
3561.00,0.0181
3560.00,0.0181
3559.00,0.0181
3558.00,0.0182
3557.00,0.0182
3556.00,0.0183
3555.00,0.0183
3554.00,0.0184
3553.00,0.0184
3552.00,0.0184
3551.00,0.0185
3550.00,0.0186
3549.00,0.0187
3548.00,0.0187
3547.00,0.0188
3546.00,0.0189
3545.00,0.0189
3544.00,0.0189
3543.00,0.0189
3542.00,0.0189
3541.00,0.0189
3540.00,0.0189
3539.00,0.0189
3538.00,0.0189
3537.00,0.0189
3536.00,0.0190
3535.00,0.0191
3534.00,0.0192
3533.00,0.0193
3532.00,0.0193
3531.00,0.0193
3530.00,0.0194
3529.00,0.0195
3528.00,0.0195
3527.00,0.0197
3526.00,0.0198
3525.00,0.0198
3524.00,0.0198
3523.00,0.0198
3522.00,0.0197
3521.00,0.0198
3520.00,0.0198
3519.00,0.0198
3518.00,0.0198
3517.00,0.0198
3516.00,0.0199
3515.00,0.0199
3514.00,0.0199
3513.00,0.0199
3512.00,0.0200
3511.00,0.0200
3510.00,0.0201
3509.00,0.0202
3508.00,0.0203
3507.00,0.0203
3506.00,0.0203
3505.00,0.0203
3504.00,0.0204
3503.00,0.0205
3502.00,0.0206
3501.00,0.0206
3500.00,0.0206
3499.00,0.0206
3498.00,0.0206
3497.00,0.0207
3496.00,0.0207
3495.00,0.0208
3494.00,0.0209
3493.00,0.0209
3492.00,0.0209
3491.00,0.0210
3490.00,0.0210
3489.00,0.0211
3488.00,0.0211
3487.00,0.0212
3486.00,0.0212
3485.00,0.0213
3484.00,0.0212
3483.00,0.0212
3482.00,0.0213
3481.00,0.0213
3480.00,0.0214
3479.00,0.0215
3478.00,0.0215
3477.00,0.0215
3476.00,0.0215
3475.00,0.0216
3474.00,0.0216
3473.00,0.0217
3472.00,0.0217
3471.00,0.0217
3470.00,0.0218
3469.00,0.0218
3468.00,0.0219
3467.00,0.0219
3466.00,0.0219
3465.00,0.0219
3464.00,0.0219
3463.00,0.0220
3462.00,0.0220
3461.00,0.0221
3460.00,0.0221
3459.00,0.0222
3458.00,0.0222
3457.00,0.0223
3456.00,0.0223
3455.00,0.0223
3454.00,0.0223
3453.00,0.0223
3452.00,0.0224
3451.00,0.0225
3450.00,0.0225
3449.00,0.0226
3448.00,0.0226
3447.00,0.0226
3446.00,0.0227
3445.00,0.0227
3444.00,0.0228
3443.00,0.0228
3442.00,0.0228
3441.00,0.0228
3440.00,0.0228
3439.00,0.0228
3438.00,0.0228
3437.00,0.0229
3436.00,0.0229
3435.00,0.0230
3434.00,0.0230
3433.00,0.0231
3432.00,0.0232
3431.00,0.0232
3430.00,0.0232
3429.00,0.0232
3428.00,0.0232
3427.00,0.0232
3426.00,0.0232
3425.00,0.0232
3424.00,0.0233
3423.00,0.0233
3422.00,0.0234
3421.00,0.0234
3420.00,0.0234
3419.00,0.0235
3418.00,0.0235
3417.00,0.0235
3416.00,0.0235
3415.00,0.0235
3414.00,0.0234
3413.00,0.0234
3412.00,0.0234
3411.00,0.0235
3410.00,0.0235
3409.00,0.0235
3408.00,0.0235
3407.00,0.0235
3406.00,0.0236
3405.00,0.0236
3404.00,0.0237
3403.00,0.0237
3402.00,0.0237
3401.00,0.0238
3400.00,0.0238
3399.00,0.0238
3398.00,0.0238
3397.00,0.0238
3396.00,0.0239
3395.00,0.0239
3394.00,0.0240
3393.00,0.0240
3392.00,0.0240
3391.00,0.0240
3390.00,0.0240
3389.00,0.0240
3388.00,0.0240
3387.00,0.0240
3386.00,0.0240
3385.00,0.0240
3384.00,0.0240
3383.00,0.0239
3382.00,0.0239
3381.00,0.0239
3380.00,0.0240
3379.00,0.0240
3378.00,0.0240
3377.00,0.0240
3376.00,0.0241
3375.00,0.0241
3374.00,0.0241
3373.00,0.0241
3372.00,0.0241
3371.00,0.0241
3370.00,0.0241
3369.00,0.0241
3368.00,0.0241
3367.00,0.0241
3366.00,0.0242
3365.00,0.0242
3364.00,0.0242
3363.00,0.0242
3362.00,0.0242
3361.00,0.0242
3360.00,0.0243
3359.00,0.0243
3358.00,0.0243
3357.00,0.0243
3356.00,0.0243
3355.00,0.0243
3354.00,0.0242
3353.00,0.0243
3352.00,0.0243
3351.00,0.0244
3350.00,0.0244
3349.00,0.0244
3348.00,0.0244
3347.00,0.0243
3346.00,0.0243
3345.00,0.0243
3344.00,0.0243
3343.00,0.0243
3342.00,0.0244
3341.00,0.0244
3340.00,0.0244
3339.00,0.0244
3338.00,0.0244
3337.00,0.0243
3336.00,0.0243
3335.00,0.0243
3334.00,0.0243
3333.00,0.0243
3332.00,0.0243
3331.00,0.0243
3330.00,0.0243
3329.00,0.0243
3328.00,0.0244
3327.00,0.0244
3326.00,0.0244
3325.00,0.0244
3324.00,0.0244
3323.00,0.0243
3322.00,0.0243
3321.00,0.0242
3320.00,0.0242
3319.00,0.0242
3318.00,0.0243
3317.00,0.0244
3316.00,0.0244
3315.00,0.0244
3314.00,0.0244
3313.00,0.0243
3312.00,0.0243
3311.00,0.0242
3310.00,0.0242
3309.00,0.0242
3308.00,0.0242
3307.00,0.0243
3306.00,0.0242
3305.00,0.0242
3304.00,0.0242
3303.00,0.0242
3302.00,0.0243
3301.00,0.0243
3300.00,0.0243
3299.00,0.0243
3298.00,0.0243
3297.00,0.0243
3296.00,0.0243
3295.00,0.0243
3294.00,0.0243
3293.00,0.0243
3292.00,0.0243
3291.00,0.0243
3290.00,0.0242
3289.00,0.0242
3288.00,0.0242
3287.00,0.0242
3286.00,0.0242
3285.00,0.0242
3284.00,0.0242
3283.00,0.0242
3282.00,0.0242
3281.00,0.0242
3280.00,0.0242
3279.00,0.0242
3278.00,0.0242
3277.00,0.0242
3276.00,0.0242
3275.00,0.0242
3274.00,0.0241
3273.00,0.0241
3272.00,0.0241
3271.00,0.0241
3270.00,0.0241
3269.00,0.0241
3268.00,0.0241
3267.00,0.0240
3266.00,0.0240
3265.00,0.0240
3264.00,0.0240
3263.00,0.0240
3262.00,0.0239
3261.00,0.0239
3260.00,0.0239
3259.00,0.0238
3258.00,0.0238
3257.00,0.0238
3256.00,0.0238
3255.00,0.0239
3254.00,0.0239
3253.00,0.0239
3252.00,0.0239
3251.00,0.0239
3250.00,0.0239
3249.00,0.0239
3248.00,0.0240
3247.00,0.0240
3246.00,0.0240
3245.00,0.0240
3244.00,0.0239
3243.00,0.0239
3242.00,0.0238
3241.00,0.0238
3240.00,0.0238
3239.00,0.0238
3238.00,0.0238
3237.00,0.0238
3236.00,0.0238
3235.00,0.0238
3234.00,0.0238
3233.00,0.0237
3232.00,0.0237
3231.00,0.0237
3230.00,0.0237
3229.00,0.0237
3228.00,0.0237
3227.00,0.0237
3226.00,0.0236
3225.00,0.0236
3224.00,0.0236
3223.00,0.0235
3222.00,0.0235
3221.00,0.0235
3220.00,0.0236
3219.00,0.0235
3218.00,0.0235
3217.00,0.0235
3216.00,0.0234
3215.00,0.0234
3214.00,0.0234
3213.00,0.0234
3212.00,0.0234
3211.00,0.0234
3210.00,0.0234
3209.00,0.0234
3208.00,0.0233
3207.00,0.0233
3206.00,0.0233
3205.00,0.0233
3204.00,0.0232
3203.00,0.0232
3202.00,0.0232
3201.00,0.0232
3200.00,0.0232
3199.00,0.0232
3198.00,0.0232
3197.00,0.0231
3196.00,0.0231
3195.00,0.0231
3194.00,0.0231
3193.00,0.0231
3192.00,0.0230
3191.00,0.0230
3190.00,0.0230
3189.00,0.0230
3188.00,0.0230
3187.00,0.0229
3186.00,0.0229
3185.00,0.0229
3184.00,0.0228
3183.00,0.0228
3182.00,0.0227
3181.00,0.0227
3180.00,0.0227
3179.00,0.0227
3178.00,0.0226
3177.00,0.0226
3176.00,0.0226
3175.00,0.0226
3174.00,0.0226
3173.00,0.0226
3172.00,0.0226
3171.00,0.0226
3170.00,0.0226
3169.00,0.0225
3168.00,0.0225
3167.00,0.0224
3166.00,0.0223
3165.00,0.0223
3164.00,0.0223
3163.00,0.0223
3162.00,0.0223
3161.00,0.0223
3160.00,0.0223
3159.00,0.0222
3158.00,0.0222
3157.00,0.0221
3156.00,0.0221
3155.00,0.0221
3154.00,0.0221
3153.00,0.0220
3152.00,0.0220
3151.00,0.0220
3150.00,0.0220
3149.00,0.0220
3148.00,0.0219
3147.00,0.0219
3146.00,0.0219
3145.00,0.0218
3144.00,0.0218
3143.00,0.0218
3142.00,0.0218
3141.00,0.0217
3140.00,0.0217
3139.00,0.0217
3138.00,0.0217
3137.00,0.0217
3136.00,0.0217
3135.00,0.0216
3134.00,0.0216
3133.00,0.0216
3132.00,0.0216
3131.00,0.0216
3130.00,0.0216
3129.00,0.0215
3128.00,0.0215
3127.00,0.0215
3126.00,0.0214
3125.00,0.0214
3124.00,0.0214
3123.00,0.0213
3122.00,0.0213
3121.00,0.0213
3120.00,0.0214
3119.00,0.0214
3118.00,0.0214
3117.00,0.0214
3116.00,0.0213
3115.00,0.0212
3114.00,0.0212
3113.00,0.0211
3112.00,0.0211
3111.00,0.0210
3110.00,0.0210
3109.00,0.0210
3108.00,0.0210
3107.00,0.0210
3106.00,0.0210
3105.00,0.0210
3104.00,0.0210
3103.00,0.0210
3102.00,0.0210
3101.00,0.0210
3100.00,0.0209
3099.00,0.0209
3098.00,0.0208
3097.00,0.0208
3096.00,0.0208
3095.00,0.0208
3094.00,0.0208
3093.00,0.0208
3092.00,0.0208
3091.00,0.0208
3090.00,0.0207
3089.00,0.0207
3088.00,0.0207
3087.00,0.0207
3086.00,0.0207
3085.00,0.0206
3084.00,0.0206
3083.00,0.0206
3082.00,0.0206
3081.00,0.0206
3080.00,0.0206
3079.00,0.0206
3078.00,0.0206
3077.00,0.0205
3076.00,0.0205
3075.00,0.0204
3074.00,0.0204
3073.00,0.0204
3072.00,0.0203
3071.00,0.0203
3070.00,0.0203
3069.00,0.0203
3068.00,0.0203
3067.00,0.0203
3066.00,0.0203
3065.00,0.0203
3064.00,0.0203
3063.00,0.0203
3062.00,0.0202
3061.00,0.0202
3060.00,0.0202
3059.00,0.0201
3058.00,0.0201
3057.00,0.0200
3056.00,0.0200
3055.00,0.0200
3054.00,0.0199
3053.00,0.0199
3052.00,0.0199
3051.00,0.0199
3050.00,0.0199
3049.00,0.0199
3048.00,0.0199
3047.00,0.0199
3046.00,0.0199
3045.00,0.0198
3044.00,0.0198
3043.00,0.0198
3042.00,0.0197
3041.00,0.0197
3040.00,0.0197
3039.00,0.0197
3038.00,0.0197
3037.00,0.0196
3036.00,0.0196
3035.00,0.0196
3034.00,0.0195
3033.00,0.0195
3032.00,0.0194
3031.00,0.0194
3030.00,0.0194
3029.00,0.0193
3028.00,0.0193
3027.00,0.0193
3026.00,0.0193
3025.00,0.0193
3024.00,0.0193
3023.00,0.0193
3022.00,0.0192
3021.00,0.0192
3020.00,0.0191
3019.00,0.0191
3018.00,0.0191
3017.00,0.0191
3016.00,0.0191
3015.00,0.0191
3014.00,0.0192
3013.00,0.0192
3012.00,0.0192
3011.00,0.0191
3010.00,0.0191
3009.00,0.0190
3008.00,0.0190
3007.00,0.0190
3006.00,0.0190
3005.00,0.0190
3004.00,0.0190
3003.00,0.0190
3002.00,0.0190
3001.00,0.0190
3000.00,0.0190
2999.00,0.0190
2998.00,0.0190
2997.00,0.0189
2996.00,0.0189
2995.00,0.0189
2994.00,0.0190
2993.00,0.0190
2992.00,0.0189
2991.00,0.0189
2990.00,0.0189
2989.00,0.0189
2988.00,0.0189
2987.00,0.0189
2986.00,0.0189
2985.00,0.0190
2984.00,0.0190
2983.00,0.0190
2982.00,0.0190
2981.00,0.0189
2980.00,0.0189
2979.00,0.0189
2978.00,0.0189
2977.00,0.0189
2976.00,0.0189
2975.00,0.0189
2974.00,0.0189
2973.00,0.0189
2972.00,0.0189
2971.00,0.0189
2970.00,0.0188
2969.00,0.0188
2968.00,0.0188
2967.00,0.0188
2966.00,0.0187
2965.00,0.0187
2964.00,0.0187
2963.00,0.0186
2962.00,0.0186
2961.00,0.0186
2960.00,0.0185
2959.00,0.0185
2958.00,0.0185
2957.00,0.0185
2956.00,0.0185
2955.00,0.0186
2954.00,0.0186
2953.00,0.0187
2952.00,0.0187
2951.00,0.0188
2950.00,0.0188
2949.00,0.0188
2948.00,0.0188
2947.00,0.0189
2946.00,0.0189
2945.00,0.0189
2944.00,0.0189
2943.00,0.0190
2942.00,0.0190
2941.00,0.0190
2940.00,0.0190
2939.00,0.0189
2938.00,0.0189
2937.00,0.0189
2936.00,0.0189
2935.00,0.0189
2934.00,0.0188
2933.00,0.0188
2932.00,0.0188
2931.00,0.0187
2930.00,0.0186
2929.00,0.0186
2928.00,0.0185
2927.00,0.0185
2926.00,0.0184
2925.00,0.0184
2924.00,0.0184
2923.00,0.0183
2922.00,0.0182
2921.00,0.0181
2920.00,0.0180
2919.00,0.0179
2918.00,0.0178
2917.00,0.0178
2916.00,0.0178
2915.00,0.0179
2914.00,0.0179
2913.00,0.0180
2912.00,0.0181
2911.00,0.0181
2910.00,0.0181
2909.00,0.0181
2908.00,0.0181
2907.00,0.0182
2906.00,0.0182
2905.00,0.0182
2904.00,0.0182
2903.00,0.0181
2902.00,0.0181
2901.00,0.0181
2900.00,0.0181
2899.00,0.0180
2898.00,0.0180
2897.00,0.0180
2896.00,0.0180
2895.00,0.0180
2894.00,0.0180
2893.00,0.0179
2892.00,0.0179
2891.00,0.0179
2890.00,0.0178
2889.00,0.0178
2888.00,0.0178
2887.00,0.0178
2886.00,0.0178
2885.00,0.0177
2884.00,0.0177
2883.00,0.0177
2882.00,0.0176
2881.00,0.0176
2880.00,0.0176
2879.00,0.0176
2878.00,0.0175
2877.00,0.0175
2876.00,0.0174
2875.00,0.0173
2874.00,0.0173
2873.00,0.0173
2872.00,0.0173
2871.00,0.0173
2870.00,0.0173
2869.00,0.0173
2868.00,0.0173
2867.00,0.0173
2866.00,0.0172
2865.00,0.0172
2864.00,0.0171
2863.00,0.0171
2862.00,0.0171
2861.00,0.0171
2860.00,0.0171
2859.00,0.0171
2858.00,0.0170
2857.00,0.0170
2856.00,0.0170
2855.00,0.0169
2854.00,0.0169
2853.00,0.0168
2852.00,0.0168
2851.00,0.0167
2850.00,0.0167
2849.00,0.0166
2848.00,0.0166
2847.00,0.0166
2846.00,0.0166
2845.00,0.0167
2844.00,0.0166
2843.00,0.0166
2842.00,0.0166
2841.00,0.0165
2840.00,0.0165
2839.00,0.0164
2838.00,0.0164
2837.00,0.0164
2836.00,0.0163
2835.00,0.0163
2834.00,0.0163
2833.00,0.0162
2832.00,0.0162
2831.00,0.0161
2830.00,0.0161
2829.00,0.0161
2828.00,0.0161
2827.00,0.0160
2826.00,0.0160
2825.00,0.0159
2824.00,0.0159
2823.00,0.0159
2822.00,0.0159
2821.00,0.0159
2820.00,0.0159
2819.00,0.0159
2818.00,0.0158
2817.00,0.0158
2816.00,0.0158
2815.00,0.0158
2814.00,0.0157
2813.00,0.0157
2812.00,0.0157
2811.00,0.0157
2810.00,0.0156
2809.00,0.0156
2808.00,0.0156
2807.00,0.0155
2806.00,0.0155
2805.00,0.0154
2804.00,0.0154
2803.00,0.0154
2802.00,0.0154
2801.00,0.0154
2800.00,0.0154
2799.00,0.0154
2798.00,0.0154
2797.00,0.0153
2796.00,0.0153
2795.00,0.0153
2794.00,0.0153
2793.00,0.0153
2792.00,0.0152
2791.00,0.0152
2790.00,0.0152
2789.00,0.0151
2788.00,0.0151
2787.00,0.0151
2786.00,0.0151
2785.00,0.0151
2784.00,0.0150
2783.00,0.0150
2782.00,0.0150
2781.00,0.0150
2780.00,0.0149
2779.00,0.0149
2778.00,0.0148
2777.00,0.0148
2776.00,0.0148
2775.00,0.0148
2774.00,0.0148
2773.00,0.0148
2772.00,0.0148
2771.00,0.0147
2770.00,0.0147
2769.00,0.0147
2768.00,0.0147
2767.00,0.0147
2766.00,0.0147
2765.00,0.0146
2764.00,0.0146
2763.00,0.0146
2762.00,0.0146
2761.00,0.0145
2760.00,0.0145
2759.00,0.0145
2758.00,0.0145
2757.00,0.0145
2756.00,0.0145
2755.00,0.0145
2754.00,0.0145
2753.00,0.0145
2752.00,0.0144
2751.00,0.0144
2750.00,0.0144
2749.00,0.0144
2748.00,0.0143
2747.00,0.0143
2746.00,0.0143
2745.00,0.0143
2744.00,0.0142
2743.00,0.0142
2742.00,0.0142
2741.00,0.0142
2740.00,0.0142
2739.00,0.0142
2738.00,0.0142
2737.00,0.0141
2736.00,0.0141
2735.00,0.0141
2734.00,0.0141
2733.00,0.0140
2732.00,0.0140
2731.00,0.0140
2730.00,0.0140
2729.00,0.0140
2728.00,0.0140
2727.00,0.0140
2726.00,0.0139
2725.00,0.0139
2724.00,0.0139
2723.00,0.0139
2722.00,0.0139
2721.00,0.0139
2720.00,0.0139
2719.00,0.0139
2718.00,0.0139
2717.00,0.0138
2716.00,0.0138
2715.00,0.0137
2714.00,0.0137
2713.00,0.0137
2712.00,0.0137
2711.00,0.0137
2710.00,0.0137
2709.00,0.0136
2708.00,0.0136
2707.00,0.0136
2706.00,0.0136
2705.00,0.0136
2704.00,0.0136
2703.00,0.0135
2702.00,0.0135
2701.00,0.0135
2700.00,0.0135
2699.00,0.0135
2698.00,0.0135
2697.00,0.0135
2696.00,0.0135
2695.00,0.0135
2694.00,0.0134
2693.00,0.0134
2692.00,0.0134
2691.00,0.0134
2690.00,0.0134
2689.00,0.0133
2688.00,0.0133
2687.00,0.0133
2686.00,0.0133
2685.00,0.0133
2684.00,0.0133
2683.00,0.0133
2682.00,0.0133
2681.00,0.0133
2680.00,0.0133
2679.00,0.0132
2678.00,0.0132
2677.00,0.0132
2676.00,0.0131
2675.00,0.0131
2674.00,0.0131
2673.00,0.0131
2672.00,0.0131
2671.00,0.0131
2670.00,0.0131
2669.00,0.0131
2668.00,0.0131
2667.00,0.0131
2666.00,0.0132
2665.00,0.0132
2664.00,0.0132
2663.00,0.0132
2662.00,0.0132
2661.00,0.0132
2660.00,0.0132
2659.00,0.0132
2658.00,0.0132
2657.00,0.0132
2656.00,0.0132
2655.00,0.0133
2654.00,0.0133
2653.00,0.0133
2652.00,0.0133
2651.00,0.0133
2650.00,0.0133
2649.00,0.0132
2648.00,0.0132
2647.00,0.0132
2646.00,0.0132
2645.00,0.0131
2644.00,0.0131
2643.00,0.0131
2642.00,0.0131
2641.00,0.0131
2640.00,0.0131
2639.00,0.0131
2638.00,0.0131
2637.00,0.0131
2636.00,0.0131
2635.00,0.0131
2634.00,0.0131
2633.00,0.0131
2632.00,0.0131
2631.00,0.0131
2630.00,0.0131
2629.00,0.0131
2628.00,0.0131
2627.00,0.0131
2626.00,0.0130
2625.00,0.0130
2624.00,0.0130
2623.00,0.0130
2622.00,0.0130
2621.00,0.0130
2620.00,0.0130
2619.00,0.0129
2618.00,0.0129
2617.00,0.0129
2616.00,0.0129
2615.00,0.0129
2614.00,0.0129
2613.00,0.0129
2612.00,0.0129
2611.00,0.0129
2610.00,0.0129
2609.00,0.0129
2608.00,0.0130
2607.00,0.0130
2606.00,0.0130
2605.00,0.0130
2604.00,0.0130
2603.00,0.0130
2602.00,0.0130
2601.00,0.0129
2600.00,0.0129
2599.00,0.0128
2598.00,0.0128
2597.00,0.0128
2596.00,0.0128
2595.00,0.0128
2594.00,0.0128
2593.00,0.0128
2592.00,0.0128
2591.00,0.0128
2590.00,0.0128
2589.00,0.0128
2588.00,0.0128
2587.00,0.0128
2586.00,0.0127
2585.00,0.0128
2584.00,0.0128
2583.00,0.0128
2582.00,0.0128
2581.00,0.0128
2580.00,0.0128
2579.00,0.0128
2578.00,0.0128
2577.00,0.0128
2576.00,0.0127
2575.00,0.0127
2574.00,0.0127
2573.00,0.0127
2572.00,0.0127
2571.00,0.0127
2570.00,0.0126
2569.00,0.0126
2568.00,0.0126
2567.00,0.0126
2566.00,0.0126
2565.00,0.0127
2564.00,0.0127
2563.00,0.0127
2562.00,0.0126
2561.00,0.0125
2560.00,0.0125
2559.00,0.0125
2558.00,0.0125
2557.00,0.0125
2556.00,0.0125
2555.00,0.0125
2554.00,0.0125
2553.00,0.0125
2552.00,0.0125
2551.00,0.0125
2550.00,0.0125
2549.00,0.0125
2548.00,0.0125
2547.00,0.0124
2546.00,0.0124
2545.00,0.0124
2544.00,0.0123
2543.00,0.0123
2542.00,0.0124
2541.00,0.0124
2540.00,0.0124
2539.00,0.0124
2538.00,0.0124
2537.00,0.0124
2536.00,0.0124
2535.00,0.0123
2534.00,0.0123
2533.00,0.0123
2532.00,0.0123
2531.00,0.0123
2530.00,0.0123
2529.00,0.0123
2528.00,0.0123
2527.00,0.0122
2526.00,0.0122
2525.00,0.0122
2524.00,0.0123
2523.00,0.0123
2522.00,0.0123
2521.00,0.0123
2520.00,0.0123
2519.00,0.0122
2518.00,0.0122
2517.00,0.0122
2516.00,0.0122
2515.00,0.0123
2514.00,0.0123
2513.00,0.0123
2512.00,0.0124
2511.00,0.0123
2510.00,0.0122
2509.00,0.0122
2508.00,0.0122
2507.00,0.0122
2506.00,0.0122
2505.00,0.0122
2504.00,0.0122
2503.00,0.0122
2502.00,0.0122
2501.00,0.0122
2500.00,0.0121
2499.00,0.0121
2498.00,0.0121
2497.00,0.0121
2496.00,0.0121
2495.00,0.0122
2494.00,0.0122
2493.00,0.0122
2492.00,0.0122
2491.00,0.0121
2490.00,0.0121
2489.00,0.0120
2488.00,0.0120
2487.00,0.0120
2486.00,0.0120
2485.00,0.0120
2484.00,0.0120
2483.00,0.0120
2482.00,0.0120
2481.00,0.0120
2480.00,0.0120
2479.00,0.0120
2478.00,0.0121
2477.00,0.0121
2476.00,0.0121
2475.00,0.0121
2474.00,0.0120
2473.00,0.0120
2472.00,0.0119
2471.00,0.0119
2470.00,0.0119
2469.00,0.0119
2468.00,0.0119
2467.00,0.0119
2466.00,0.0119
2465.00,0.0119
2464.00,0.0119
2463.00,0.0119
2462.00,0.0120
2461.00,0.0120
2460.00,0.0120
2459.00,0.0120
2458.00,0.0120
2457.00,0.0120
2456.00,0.0119
2455.00,0.0120
2454.00,0.0120
2453.00,0.0120
2452.00,0.0120
2451.00,0.0120
2450.00,0.0120
2449.00,0.0120
2448.00,0.0120
2447.00,0.0120
2446.00,0.0120
2445.00,0.0119
2444.00,0.0119
2443.00,0.0119
2442.00,0.0119
2441.00,0.0119
2440.00,0.0118
2439.00,0.0118
2438.00,0.0118
2437.00,0.0118
2436.00,0.0118
2435.00,0.0118
2434.00,0.0118
2433.00,0.0117
2432.00,0.0117
2431.00,0.0117
2430.00,0.0116
2429.00,0.0116
2428.00,0.0117
2427.00,0.0117
2426.00,0.0117
2425.00,0.0117
2424.00,0.0117
2423.00,0.0116
2422.00,0.0115
2421.00,0.0115
2420.00,0.0115
2419.00,0.0115
2418.00,0.0115
2417.00,0.0115
2416.00,0.0115
2415.00,0.0115
2414.00,0.0115
2413.00,0.0115
2412.00,0.0115
2411.00,0.0115
2410.00,0.0115
2409.00,0.0115
2408.00,0.0114
2407.00,0.0114
2406.00,0.0114
2405.00,0.0113
2404.00,0.0113
2403.00,0.0113
2402.00,0.0113
2401.00,0.0112
2400.00,0.0112
2399.00,0.0112
2398.00,0.0112
2397.00,0.0112
2396.00,0.0112
2395.00,0.0112
2394.00,0.0112
2393.00,0.0111
2392.00,0.0111
2391.00,0.0111
2390.00,0.0111
2389.00,0.0111
2388.00,0.0111
2387.00,0.0111
2386.00,0.0110
2385.00,0.0111
2384.00,0.0111
2383.00,0.0111
2382.00,0.0111
2381.00,0.0111
2380.00,0.0110
2379.00,0.0109
2378.00,0.0109
2377.00,0.0109
2376.00,0.0109
2375.00,0.0108
2374.00,0.0107
2373.00,0.0106
2372.00,0.0105
2371.00,0.0105
2370.00,0.0106
2369.00,0.0107
2368.00,0.0107
2367.00,0.0108
2366.00,0.0109
2365.00,0.0110
2364.00,0.0109
2363.00,0.0108
2362.00,0.0108
2361.00,0.0108
2360.00,0.0109
2359.00,0.0110
2358.00,0.0108
2357.00,0.0107
2356.00,0.0106
2355.00,0.0107
2354.00,0.0107
2353.00,0.0107
2352.00,0.0107
2351.00,0.0107
2350.00,0.0107
2349.00,0.0107
2348.00,0.0107
2347.00,0.0107
2346.00,0.0107
2345.00,0.0107
2344.00,0.0108
2343.00,0.0108
2342.00,0.0109
2341.00,0.0109
2340.00,0.0107
2339.00,0.0106
2338.00,0.0106
2337.00,0.0106
2336.00,0.0106
2335.00,0.0105
2334.00,0.0106
2333.00,0.0106
2332.00,0.0107
2331.00,0.0107
2330.00,0.0108
2329.00,0.0108
2328.00,0.0109
2327.00,0.0111
2326.00,0.0113
2325.00,0.0114
2324.00,0.0114
2323.00,0.0114
2322.00,0.0113
2321.00,0.0112
2320.00,0.0112
2319.00,0.0112
2318.00,0.0112
2317.00,0.0112
2316.00,0.0111
2315.00,0.0111
2314.00,0.0110
2313.00,0.0110
2312.00,0.0110
2311.00,0.0110
2310.00,0.0110
2309.00,0.0110
2308.00,0.0110
2307.00,0.0110
2306.00,0.0110
2305.00,0.0110
2304.00,0.0109
2303.00,0.0109
2302.00,0.0109
2301.00,0.0109
2300.00,0.0110
2299.00,0.0110
2298.00,0.0110
2297.00,0.0110
2296.00,0.0110
2295.00,0.0110
2294.00,0.0111
2293.00,0.0111
2292.00,0.0111
2291.00,0.0112
2290.00,0.0112
2289.00,0.0113
2288.00,0.0114
2287.00,0.0114
2286.00,0.0113
2285.00,0.0113
2284.00,0.0112
2283.00,0.0111
2282.00,0.0111
2281.00,0.0110
2280.00,0.0110
2279.00,0.0110
2278.00,0.0109
2277.00,0.0108
2276.00,0.0108
2275.00,0.0107
2274.00,0.0107
2273.00,0.0107
2272.00,0.0108
2271.00,0.0108
2270.00,0.0109
2269.00,0.0109
2268.00,0.0108
2267.00,0.0108
2266.00,0.0108
2265.00,0.0108
2264.00,0.0109
2263.00,0.0108
2262.00,0.0108
2261.00,0.0108
2260.00,0.0109
2259.00,0.0110
2258.00,0.0110
2257.00,0.0109
2256.00,0.0107
2255.00,0.0106
2254.00,0.0106
2253.00,0.0107
2252.00,0.0108
2251.00,0.0109
2250.00,0.0108
2249.00,0.0107
2248.00,0.0106
2247.00,0.0105
2246.00,0.0105
2245.00,0.0105
2244.00,0.0105
2243.00,0.0105
2242.00,0.0106
2241.00,0.0106
2240.00,0.0107
2239.00,0.0108
2238.00,0.0108
2237.00,0.0107
2236.00,0.0106
2235.00,0.0105
2234.00,0.0105
2233.00,0.0106
2232.00,0.0106
2231.00,0.0106
2230.00,0.0106
2229.00,0.0106
2228.00,0.0106
2227.00,0.0106
2226.00,0.0105
2225.00,0.0105
2224.00,0.0105
2223.00,0.0105
2222.00,0.0105
2221.00,0.0105
2220.00,0.0106
2219.00,0.0106
2218.00,0.0106
2217.00,0.0106
2216.00,0.0107
2215.00,0.0107
2214.00,0.0107
2213.00,0.0107
2212.00,0.0106
2211.00,0.0105
2210.00,0.0105
2209.00,0.0105
2208.00,0.0105
2207.00,0.0104
2206.00,0.0104
2205.00,0.0103
2204.00,0.0104
2203.00,0.0105
2202.00,0.0105
2201.00,0.0106
2200.00,0.0107
2199.00,0.0108
2198.00,0.0108
2197.00,0.0108
2196.00,0.0107
2195.00,0.0107
2194.00,0.0107
2193.00,0.0107
2192.00,0.0107
2191.00,0.0106
2190.00,0.0106
2189.00,0.0107
2188.00,0.0108
2187.00,0.0109
2186.00,0.0110
2185.00,0.0109
2184.00,0.0107
2183.00,0.0105
2182.00,0.0103
2181.00,0.0103
2180.00,0.0103
2179.00,0.0103
2178.00,0.0103
2177.00,0.0101
2176.00,0.0101
2175.00,0.0101
2174.00,0.0103
2173.00,0.0105
2172.00,0.0109
2171.00,0.0111
2170.00,0.0113
2169.00,0.0114
2168.00,0.0113
2167.00,0.0112
2166.00,0.0111
2165.00,0.0111
2164.00,0.0112
2163.00,0.0112
2162.00,0.0110
2161.00,0.0106
2160.00,0.0100
2159.00,0.0095
2158.00,0.0093
2157.00,0.0092
2156.00,0.0092
2155.00,0.0091
2154.00,0.0091
2153.00,0.0092
2152.00,0.0092
2151.00,0.0092
2150.00,0.0092
2149.00,0.0091
2148.00,0.0090
2147.00,0.0090
2146.00,0.0090
2145.00,0.0090
2144.00,0.0090
2143.00,0.0090
2142.00,0.0089
2141.00,0.0089
2140.00,0.0090
2139.00,0.0090
2138.00,0.0090
2137.00,0.0089
2136.00,0.0088
2135.00,0.0087
2134.00,0.0086
2133.00,0.0086
2132.00,0.0086
2131.00,0.0087
2130.00,0.0087
2129.00,0.0087
2128.00,0.0088
2127.00,0.0089
2126.00,0.0090
2125.00,0.0091
2124.00,0.0091
2123.00,0.0091
2122.00,0.0092
2121.00,0.0092
2120.00,0.0092
2119.00,0.0093
2118.00,0.0094
2117.00,0.0095
2116.00,0.0096
2115.00,0.0096
2114.00,0.0095
2113.00,0.0095
2112.00,0.0096
2111.00,0.0096
2110.00,0.0096
2109.00,0.0095
2108.00,0.0094
2107.00,0.0093
2106.00,0.0093
2105.00,0.0093
2104.00,0.0093
2103.00,0.0093
2102.00,0.0093
2101.00,0.0093
2100.00,0.0092
2099.00,0.0091
2098.00,0.0091
2097.00,0.0091
2096.00,0.0090
2095.00,0.0090
2094.00,0.0089
2093.00,0.0089
2092.00,0.0090
2091.00,0.0091
2090.00,0.0092
2089.00,0.0092
2088.00,0.0091
2087.00,0.0091
2086.00,0.0091
2085.00,0.0091
2084.00,0.0092
2083.00,0.0092
2082.00,0.0091
2081.00,0.0090
2080.00,0.0090
2079.00,0.0090
2078.00,0.0091
2077.00,0.0091
2076.00,0.0091
2075.00,0.0090
2074.00,0.0090
2073.00,0.0091
2072.00,0.0091
2071.00,0.0092
2070.00,0.0092
2069.00,0.0091
2068.00,0.0090
2067.00,0.0089
2066.00,0.0089
2065.00,0.0088
2064.00,0.0088
2063.00,0.0088
2062.00,0.0088
2061.00,0.0088
2060.00,0.0087
2059.00,0.0088
2058.00,0.0089
2057.00,0.0090
2056.00,0.0091
2055.00,0.0091
2054.00,0.0093
2053.00,0.0095
2052.00,0.0096
2051.00,0.0096
2050.00,0.0096
2049.00,0.0094
2048.00,0.0093
2047.00,0.0092
2046.00,0.0092
2045.00,0.0092
2044.00,0.0093
2043.00,0.0094
2042.00,0.0094
2041.00,0.0094
2040.00,0.0093
2039.00,0.0092
2038.00,0.0092
2037.00,0.0093
2036.00,0.0094
2035.00,0.0094
2034.00,0.0094
2033.00,0.0093
2032.00,0.0092
2031.00,0.0092
2030.00,0.0092
2029.00,0.0092
2028.00,0.0090
2027.00,0.0088
2026.00,0.0086
2025.00,0.0085
2024.00,0.0085
2023.00,0.0085
2022.00,0.0086
2021.00,0.0087
2020.00,0.0087
2019.00,0.0088
2018.00,0.0088
2017.00,0.0089
2016.00,0.0090
2015.00,0.0090
2014.00,0.0090
2013.00,0.0090
2012.00,0.0090
2011.00,0.0091
2010.00,0.0090
2009.00,0.0089
2008.00,0.0087
2007.00,0.0084
2006.00,0.0083
2005.00,0.0082
2004.00,0.0082
2003.00,0.0083
2002.00,0.0084
2001.00,0.0084
2000.00,0.0085
1999.00,0.0086
1998.00,0.0086
1997.00,0.0087
1996.00,0.0087
1995.00,0.0087
1994.00,0.0086
1993.00,0.0086
1992.00,0.0086
1991.00,0.0086
1990.00,0.0086
1989.00,0.0087
1988.00,0.0087
1987.00,0.0087
1986.00,0.0088
1985.00,0.0090
1984.00,0.0091
1983.00,0.0093
1982.00,0.0094
1981.00,0.0096
1980.00,0.0096
1979.00,0.0094
1978.00,0.0090
1977.00,0.0087
1976.00,0.0084
1975.00,0.0082
1974.00,0.0081
1973.00,0.0081
1972.00,0.0081
1971.00,0.0081
1970.00,0.0081
1969.00,0.0081
1968.00,0.0082
1967.00,0.0082
1966.00,0.0082
1965.00,0.0082
1964.00,0.0083
1963.00,0.0082
1962.00,0.0081
1961.00,0.0080
1960.00,0.0079
1959.00,0.0078
1958.00,0.0078
1957.00,0.0078
1956.00,0.0078
1955.00,0.0078
1954.00,0.0079
1953.00,0.0079
1952.00,0.0079
1951.00,0.0079
1950.00,0.0078
1949.00,0.0078
1948.00,0.0079
1947.00,0.0080
1946.00,0.0081
1945.00,0.0081
1944.00,0.0080
1943.00,0.0079
1942.00,0.0078
1941.00,0.0077
1940.00,0.0077
1939.00,0.0076
1938.00,0.0075
1937.00,0.0075
1936.00,0.0076
1935.00,0.0076
1934.00,0.0075
1933.00,0.0075
1932.00,0.0074
1931.00,0.0074
1930.00,0.0074
1929.00,0.0074
1928.00,0.0074
1927.00,0.0074
1926.00,0.0074
1925.00,0.0075
1924.00,0.0075
1923.00,0.0075
1922.00,0.0075
1921.00,0.0076
1920.00,0.0076
1919.00,0.0076
1918.00,0.0075
1917.00,0.0073
1916.00,0.0073
1915.00,0.0073
1914.00,0.0074
1913.00,0.0074
1912.00,0.0074
1911.00,0.0074
1910.00,0.0074
1909.00,0.0073
1908.00,0.0073
1907.00,0.0073
1906.00,0.0072
1905.00,0.0072
1904.00,0.0071
1903.00,0.0071
1902.00,0.0071
1901.00,0.0071
1900.00,0.0071
1899.00,0.0072
1898.00,0.0072
1897.00,0.0071
1896.00,0.0070
1895.00,0.0069
1894.00,0.0069
1893.00,0.0069
1892.00,0.0070
1891.00,0.0069
1890.00,0.0068
1889.00,0.0067
1888.00,0.0067
1887.00,0.0068
1886.00,0.0068
1885.00,0.0068
1884.00,0.0068
1883.00,0.0068
1882.00,0.0068
1881.00,0.0068
1880.00,0.0067
1879.00,0.0067
1878.00,0.0066
1877.00,0.0066
1876.00,0.0066
1875.00,0.0066
1874.00,0.0067
1873.00,0.0067
1872.00,0.0068
1871.00,0.0068
1870.00,0.0068
1869.00,0.0067
1868.00,0.0065
1867.00,0.0065
1866.00,0.0065
1865.00,0.0065
1864.00,0.0065
1863.00,0.0065
1862.00,0.0064
1861.00,0.0064
1860.00,0.0063
1859.00,0.0063
1858.00,0.0063
1857.00,0.0063
1856.00,0.0063
1855.00,0.0063
1854.00,0.0063
1853.00,0.0062
1852.00,0.0062
1851.00,0.0062
1850.00,0.0062
1849.00,0.0062
1848.00,0.0062
1847.00,0.0063
1846.00,0.0063
1845.00,0.0062
1844.00,0.0061
1843.00,0.0059
1842.00,0.0059
1841.00,0.0059
1840.00,0.0060
1839.00,0.0060
1838.00,0.0059
1837.00,0.0059
1836.00,0.0059
1835.00,0.0058
1834.00,0.0058
1833.00,0.0059
1832.00,0.0058
1831.00,0.0057
1830.00,0.0056
1829.00,0.0055
1828.00,0.0054
1827.00,0.0055
1826.00,0.0055
1825.00,0.0055
1824.00,0.0055
1823.00,0.0056
1822.00,0.0056
1821.00,0.0056
1820.00,0.0056
1819.00,0.0055
1818.00,0.0054
1817.00,0.0053
1816.00,0.0053
1815.00,0.0054
1814.00,0.0054
1813.00,0.0054
1812.00,0.0054
1811.00,0.0053
1810.00,0.0053
1809.00,0.0053
1808.00,0.0054
1807.00,0.0054
1806.00,0.0055
1805.00,0.0055
1804.00,0.0056
1803.00,0.0056
1802.00,0.0056
1801.00,0.0056
1800.00,0.0056
1799.00,0.0056
1798.00,0.0057
1797.00,0.0058
1796.00,0.0060
1795.00,0.0061
1794.00,0.0062
1793.00,0.0062
1792.00,0.0061
1791.00,0.0059
1790.00,0.0059
1789.00,0.0060
1788.00,0.0061
1787.00,0.0063
1786.00,0.0064
1785.00,0.0064
1784.00,0.0064
1783.00,0.0064
1782.00,0.0063
1781.00,0.0064
1780.00,0.0065
1779.00,0.0066
1778.00,0.0068
1777.00,0.0070
1776.00,0.0071
1775.00,0.0073
1774.00,0.0075
1773.00,0.0076
1772.00,0.0075
1771.00,0.0074
1770.00,0.0075
1769.00,0.0077
1768.00,0.0078
1767.00,0.0079
1766.00,0.0079
1765.00,0.0080
1764.00,0.0082
1763.00,0.0082
1762.00,0.0083
1761.00,0.0084
1760.00,0.0085
1759.00,0.0087
1758.00,0.0088
1757.00,0.0089
1756.00,0.0090
1755.00,0.0092
1754.00,0.0094
1753.00,0.0097
1752.00,0.0100
1751.00,0.0102
1750.00,0.0102
1749.00,0.0103
1748.00,0.0104
1747.00,0.0107
1746.00,0.0109
1745.00,0.0111
1744.00,0.0113
1743.00,0.0115
1742.00,0.0117
1741.00,0.0120
1740.00,0.0123
1739.00,0.0125
1738.00,0.0127
1737.00,0.0131
1736.00,0.0136
1735.00,0.0141
1734.00,0.0143
1733.00,0.0142
1732.00,0.0141
1731.00,0.0141
1730.00,0.0142
1729.00,0.0144
1728.00,0.0146
1727.00,0.0149
1726.00,0.0151
1725.00,0.0153
1724.00,0.0154
1723.00,0.0156
1722.00,0.0157
1721.00,0.0157
1720.00,0.0157
1719.00,0.0157
1718.00,0.0159
1717.00,0.0161
1716.00,0.0161
1715.00,0.0161
1714.00,0.0161
1713.00,0.0161
1712.00,0.0162
1711.00,0.0162
1710.00,0.0163
1709.00,0.0164
1708.00,0.0164
1707.00,0.0165
1706.00,0.0166
1705.00,0.0167
1704.00,0.0168
1703.00,0.0170
1702.00,0.0173
1701.00,0.0176
1700.00,0.0178
1699.00,0.0179
1698.00,0.0179
1697.00,0.0179
1696.00,0.0178
1695.00,0.0178
1694.00,0.0179
1693.00,0.0180
1692.00,0.0181
1691.00,0.0182
1690.00,0.0184
1689.00,0.0186
1688.00,0.0187
1687.00,0.0188
1686.00,0.0188
1685.00,0.0188
1684.00,0.0188
1683.00,0.0190
1682.00,0.0192
1681.00,0.0195
1680.00,0.0197
1679.00,0.0199
1678.00,0.0200
1677.00,0.0202
1676.00,0.0205
1675.00,0.0208
1674.00,0.0210
1673.00,0.0211
1672.00,0.0212
1671.00,0.0214
1670.00,0.0216
1669.00,0.0218
1668.00,0.0220
1667.00,0.0221
1666.00,0.0223
1665.00,0.0225
1664.00,0.0227
1663.00,0.0229
1662.00,0.0232
1661.00,0.0233
1660.00,0.0235
1659.00,0.0237
1658.00,0.0238
1657.00,0.0238
1656.00,0.0238
1655.00,0.0238
1654.00,0.0241
1653.00,0.0245
1652.00,0.0248
1651.00,0.0249
1650.00,0.0249
1649.00,0.0250
1648.00,0.0254
1647.00,0.0258
1646.00,0.0260
1645.00,0.0262
1644.00,0.0262
1643.00,0.0263
1642.00,0.0264
1641.00,0.0265
1640.00,0.0265
1639.00,0.0265
1638.00,0.0265
1637.00,0.0267
1636.00,0.0269
1635.00,0.0272
1634.00,0.0273
1633.00,0.0275
1632.00,0.0276
1631.00,0.0276
1630.00,0.0277
1629.00,0.0278
1628.00,0.0278
1627.00,0.0279
1626.00,0.0280
1625.00,0.0281
1624.00,0.0282
1623.00,0.0284
1622.00,0.0285
1621.00,0.0285
1620.00,0.0284
1619.00,0.0285
1618.00,0.0287
1617.00,0.0290
1616.00,0.0291
1615.00,0.0290
1614.00,0.0290
1613.00,0.0289
1612.00,0.0290
1611.00,0.0290
1610.00,0.0291
1609.00,0.0291
1608.00,0.0292
1607.00,0.0292
1606.00,0.0293
1605.00,0.0293
1604.00,0.0293
1603.00,0.0293
1602.00,0.0293
1601.00,0.0293
1600.00,0.0293
1599.00,0.0293
1598.00,0.0293
1597.00,0.0293
1596.00,0.0293
1595.00,0.0294
1594.00,0.0294
1593.00,0.0294
1592.00,0.0293
1591.00,0.0293
1590.00,0.0293
1589.00,0.0293
1588.00,0.0293
1587.00,0.0293
1586.00,0.0292
1585.00,0.0292
1584.00,0.0291
1583.00,0.0292
1582.00,0.0292
1581.00,0.0292
1580.00,0.0291
1579.00,0.0290
1578.00,0.0289
1577.00,0.0290
1576.00,0.0291
1575.00,0.0290
1574.00,0.0289
1573.00,0.0287
1572.00,0.0285
1571.00,0.0285
1570.00,0.0285
1569.00,0.0285
1568.00,0.0284
1567.00,0.0284
1566.00,0.0283
1565.00,0.0283
1564.00,0.0282
1563.00,0.0280
1562.00,0.0277
1561.00,0.0273
1560.00,0.0271
1559.00,0.0275
1558.00,0.0276
1557.00,0.0276
1556.00,0.0276
1555.00,0.0276
1554.00,0.0274
1553.00,0.0272
1552.00,0.0269
1551.00,0.0266
1550.00,0.0264
1549.00,0.0263
1548.00,0.0263
1547.00,0.0262
1546.00,0.0261
1545.00,0.0260
1544.00,0.0260
1543.00,0.0259
1542.00,0.0258
1541.00,0.0256
1540.00,0.0250
1539.00,0.0246
1538.00,0.0244
1537.00,0.0243
1536.00,0.0243
1535.00,0.0242
1534.00,0.0241
1533.00,0.0240
1532.00,0.0239
1531.00,0.0239
1530.00,0.0238
1529.00,0.0238
1528.00,0.0237
1527.00,0.0237
1526.00,0.0237
1525.00,0.0236
1524.00,0.0235
1523.00,0.0235
1522.00,0.0234
1521.00,0.0232
1520.00,0.0229
1519.00,0.0225
1518.00,0.0223
1517.00,0.0221
1516.00,0.0220
1515.00,0.0220
1514.00,0.0220
1513.00,0.0220
1512.00,0.0220
1511.00,0.0219
1510.00,0.0218
1509.00,0.0217
1508.00,0.0217
1507.00,0.0214
1506.00,0.0210
1505.00,0.0209
1504.00,0.0210
1503.00,0.0209
1502.00,0.0209
1501.00,0.0208
1500.00,0.0207
1499.00,0.0206
1498.00,0.0205
1497.00,0.0205
1496.00,0.0204
1495.00,0.0203
1494.00,0.0202
1493.00,0.0203
1492.00,0.0204
1491.00,0.0205
1490.00,0.0204
1489.00,0.0203
1488.00,0.0201
1487.00,0.0200
1486.00,0.0201
1485.00,0.0201
1484.00,0.0202
1483.00,0.0203
1482.00,0.0204
1481.00,0.0204
1480.00,0.0205
1479.00,0.0205
1478.00,0.0205
1477.00,0.0207
1476.00,0.0209
1475.00,0.0211
1474.00,0.0215
1473.00,0.0218
1472.00,0.0218
1471.00,0.0217
1470.00,0.0217
1469.00,0.0217
1468.00,0.0217
1467.00,0.0218
1466.00,0.0218
1465.00,0.0220
1464.00,0.0221
1463.00,0.0221
1462.00,0.0221
1461.00,0.0221
1460.00,0.0221
1459.00,0.0223
1458.00,0.0226
1457.00,0.0229
1456.00,0.0229
1455.00,0.0227
1454.00,0.0226
1453.00,0.0226
1452.00,0.0227
1451.00,0.0228
1450.00,0.0229
1449.00,0.0230
1448.00,0.0230
1447.00,0.0230
1446.00,0.0230
1445.00,0.0230
1444.00,0.0230
1443.00,0.0231
1442.00,0.0232
1441.00,0.0232
1440.00,0.0233
1439.00,0.0234
1438.00,0.0235
1437.00,0.0236
1436.00,0.0237
1435.00,0.0237
1434.00,0.0237
1433.00,0.0237
1432.00,0.0238
1431.00,0.0238
1430.00,0.0238
1429.00,0.0238
1428.00,0.0239
1427.00,0.0240
1426.00,0.0240
1425.00,0.0240
1424.00,0.0241
1423.00,0.0241
1422.00,0.0241
1421.00,0.0241
1420.00,0.0242
1419.00,0.0242
1418.00,0.0243
1417.00,0.0243
1416.00,0.0244
1415.00,0.0245
1414.00,0.0245
1413.00,0.0245
1412.00,0.0245
1411.00,0.0245
1410.00,0.0245
1409.00,0.0246
1408.00,0.0246
1407.00,0.0246
1406.00,0.0246
1405.00,0.0246
1404.00,0.0247
1403.00,0.0248
1402.00,0.0248
1401.00,0.0248
1400.00,0.0249
1399.00,0.0250
1398.00,0.0250
1397.00,0.0250
1396.00,0.0251
1395.00,0.0251
1394.00,0.0251
1393.00,0.0252
1392.00,0.0252
1391.00,0.0252
1390.00,0.0252
1389.00,0.0253
1388.00,0.0254
1387.00,0.0254
1386.00,0.0255
1385.00,0.0255
1384.00,0.0256
1383.00,0.0257
1382.00,0.0257
1381.00,0.0258
1380.00,0.0258
1379.00,0.0258
1378.00,0.0257
1377.00,0.0257
1376.00,0.0257
1375.00,0.0257
1374.00,0.0257
1373.00,0.0257
1372.00,0.0257
1371.00,0.0257
1370.00,0.0257
1369.00,0.0257
1368.00,0.0256
1367.00,0.0256
1366.00,0.0256
1365.00,0.0255
1364.00,0.0254
1363.00,0.0253
1362.00,0.0252
1361.00,0.0252
1360.00,0.0252
1359.00,0.0252
1358.00,0.0252
1357.00,0.0252
1356.00,0.0251
1355.00,0.0250
1354.00,0.0250
1353.00,0.0249
1352.00,0.0249
1351.00,0.0248
1350.00,0.0248
1349.00,0.0247
1348.00,0.0247
1347.00,0.0246
1346.00,0.0246
1345.00,0.0246
1344.00,0.0245
1343.00,0.0245
1342.00,0.0244
1341.00,0.0244
1340.00,0.0243
1339.00,0.0243
1338.00,0.0243
1337.00,0.0242
1336.00,0.0242
1335.00,0.0242
1334.00,0.0241
1333.00,0.0241
1332.00,0.0240
1331.00,0.0241
1330.00,0.0241
1329.00,0.0241
1328.00,0.0241
1327.00,0.0241
1326.00,0.0240
1325.00,0.0240
1324.00,0.0240
1323.00,0.0240
1322.00,0.0240
1321.00,0.0240
1320.00,0.0240
1319.00,0.0241
1318.00,0.0241
1317.00,0.0241
1316.00,0.0242
1315.00,0.0242
1314.00,0.0241
1313.00,0.0241
1312.00,0.0241
1311.00,0.0241
1310.00,0.0241
1309.00,0.0241
1308.00,0.0241
1307.00,0.0241
1306.00,0.0241
1305.00,0.0241
1304.00,0.0242
1303.00,0.0242
1302.00,0.0242
1301.00,0.0242
1300.00,0.0242
1299.00,0.0242
1298.00,0.0243
1297.00,0.0243
1296.00,0.0243
1295.00,0.0244
1294.00,0.0244
1293.00,0.0245
1292.00,0.0246
1291.00,0.0247
1290.00,0.0248
1289.00,0.0248
1288.00,0.0249
1287.00,0.0249
1286.00,0.0250
1285.00,0.0250
1284.00,0.0250
1283.00,0.0251
1282.00,0.0252
1281.00,0.0252
1280.00,0.0253
1279.00,0.0253
1278.00,0.0254
1277.00,0.0255
1276.00,0.0256
1275.00,0.0257
1274.00,0.0257
1273.00,0.0258
1272.00,0.0259
1271.00,0.0260
1270.00,0.0262
1269.00,0.0263
1268.00,0.0264
1267.00,0.0265
1266.00,0.0266
1265.00,0.0268
1264.00,0.0269
1263.00,0.0270
1262.00,0.0272
1261.00,0.0274
1260.00,0.0276
1259.00,0.0278
1258.00,0.0279
1257.00,0.0281
1256.00,0.0283
1255.00,0.0285
1254.00,0.0287
1253.00,0.0288
1252.00,0.0290
1251.00,0.0292
1250.00,0.0294
1249.00,0.0296
1248.00,0.0299
1247.00,0.0301
1246.00,0.0302
1245.00,0.0304
1244.00,0.0305
1243.00,0.0307
1242.00,0.0309
1241.00,0.0311
1240.00,0.0312
1239.00,0.0314
1238.00,0.0316
1237.00,0.0318
1236.00,0.0320
1235.00,0.0322
1234.00,0.0323
1233.00,0.0324
1232.00,0.0325
1231.00,0.0326
1230.00,0.0328
1229.00,0.0329
1228.00,0.0331
1227.00,0.0332
1226.00,0.0333
1225.00,0.0334
1224.00,0.0335
1223.00,0.0337
1222.00,0.0338
1221.00,0.0339
1220.00,0.0340
1219.00,0.0341
1218.00,0.0342
1217.00,0.0342
1216.00,0.0344
1215.00,0.0345
1214.00,0.0347
1213.00,0.0349
1212.00,0.0350
1211.00,0.0351
1210.00,0.0352
1209.00,0.0354
1208.00,0.0355
1207.00,0.0357
1206.00,0.0359
1205.00,0.0361
1204.00,0.0364
1203.00,0.0366
1202.00,0.0367
1201.00,0.0369
1200.00,0.0370
1199.00,0.0371
1198.00,0.0372
1197.00,0.0374
1196.00,0.0376
1195.00,0.0378
1194.00,0.0380
1193.00,0.0382
1192.00,0.0384
1191.00,0.0386
1190.00,0.0387
1189.00,0.0389
1188.00,0.0391
1187.00,0.0393
1186.00,0.0396
1185.00,0.0398
1184.00,0.0401
1183.00,0.0403
1182.00,0.0406
1181.00,0.0408
1180.00,0.0411
1179.00,0.0414
1178.00,0.0417
1177.00,0.0420
1176.00,0.0422
1175.00,0.0424
1174.00,0.0426
1173.00,0.0428
1172.00,0.0431
1171.00,0.0434
1170.00,0.0437
1169.00,0.0440
1168.00,0.0444
1167.00,0.0447
1166.00,0.0450
1165.00,0.0453
1164.00,0.0454
1163.00,0.0456
1162.00,0.0456
1161.00,0.0455
1160.00,0.0454
1159.00,0.0454
1158.00,0.0455
1157.00,0.0456
1156.00,0.0459
1155.00,0.0461
1154.00,0.0463
1153.00,0.0465
1152.00,0.0467
1151.00,0.0469
1150.00,0.0472
1149.00,0.0475
1148.00,0.0478
1147.00,0.0481
1146.00,0.0484
1145.00,0.0487
1144.00,0.0490
1143.00,0.0493
1142.00,0.0496
1141.00,0.0499
1140.00,0.0503
1139.00,0.0507
1138.00,0.0511
1137.00,0.0515
1136.00,0.0520
1135.00,0.0526
1134.00,0.0531
1133.00,0.0536
1132.00,0.0542
1131.00,0.0548
1130.00,0.0553
1129.00,0.0560
1128.00,0.0566
1127.00,0.0573
1126.00,0.0581
1125.00,0.0591
1124.00,0.0602
1123.00,0.0614
1122.00,0.0627
1121.00,0.0640
1120.00,0.0654
1119.00,0.0666
1118.00,0.0677
1117.00,0.0686
1116.00,0.0693
1115.00,0.0696
1114.00,0.0697
1113.00,0.0697
1112.00,0.0698
1111.00,0.0700
1110.00,0.0703
1109.00,0.0707
1108.00,0.0712
1107.00,0.0718
1106.00,0.0725
1105.00,0.0732
1104.00,0.0739
1103.00,0.0746
1102.00,0.0753
1101.00,0.0760
1100.00,0.0766
1099.00,0.0772
1098.00,0.0778
1097.00,0.0784
1096.00,0.0790
1095.00,0.0795
1094.00,0.0799
1093.00,0.0804
1092.00,0.0808
1091.00,0.0812
1090.00,0.0816
1089.00,0.0820
1088.00,0.0824
1087.00,0.0828
1086.00,0.0831
1085.00,0.0834
1084.00,0.0836
1083.00,0.0839
1082.00,0.0842
1081.00,0.0845
1080.00,0.0848
1079.00,0.0851
1078.00,0.0853
1077.00,0.0856
1076.00,0.0861
1075.00,0.0865
1074.00,0.0869
1073.00,0.0873
1072.00,0.0877
1071.00,0.0881
1070.00,0.0885
1069.00,0.0890
1068.00,0.0895
1067.00,0.0900
1066.00,0.0906
1065.00,0.0912
1064.00,0.0919
1063.00,0.0925
1062.00,0.0931
1061.00,0.0936
1060.00,0.0943
1059.00,0.0949
1058.00,0.0955
1057.00,0.0961
1056.00,0.0968
1055.00,0.0974
1054.00,0.0980
1053.00,0.0988
1052.00,0.0997
1051.00,0.1007
1050.00,0.1017
1049.00,0.1026
1048.00,0.1037
1047.00,0.1046
1046.00,0.1055
1045.00,0.1063
1044.00,0.1073
1043.00,0.1082
1042.00,0.1092
1041.00,0.1104
1040.00,0.1116
1039.00,0.1129
1038.00,0.1142
1037.00,0.1154
1036.00,0.1166
1035.00,0.1176
1034.00,0.1185
1033.00,0.1192
1032.00,0.1196
1031.00,0.1197
1030.00,0.1196
1029.00,0.1192
1028.00,0.1186
1027.00,0.1177
1026.00,0.1166
1025.00,0.1155
1024.00,0.1145
1023.00,0.1136
1022.00,0.1128
1021.00,0.1122
1020.00,0.1118
1019.00,0.1116
1018.00,0.1114
1017.00,0.1114
1016.00,0.1116
1015.00,0.1120
1014.00,0.1124
1013.00,0.1130
1012.00,0.1137
1011.00,0.1144
1010.00,0.1152
1009.00,0.1159
1008.00,0.1165
1007.00,0.1169
1006.00,0.1172
1005.00,0.1174
1004.00,0.1175
1003.00,0.1173
1002.00,0.1169
1001.00,0.1163
1000.00,0.1156
999.00,0.1146
998.00,0.1134
997.00,0.1122
996.00,0.1108
995.00,0.1095
994.00,0.1080
993.00,0.1065
992.00,0.1051
991.00,0.1037
990.00,0.1024
989.00,0.1012
988.00,0.0999
987.00,0.0987
986.00,0.0974
985.00,0.0962
984.00,0.0950
983.00,0.0939
982.00,0.0929
981.00,0.0919
980.00,0.0910
979.00,0.0899
978.00,0.0889
977.00,0.0879
976.00,0.0870
975.00,0.0863
974.00,0.0854
973.00,0.0846
972.00,0.0838
971.00,0.0831
970.00,0.0825
969.00,0.0819
968.00,0.0814
967.00,0.0809
966.00,0.0804
965.00,0.0798
964.00,0.0793
963.00,0.0787
962.00,0.0781
961.00,0.0775
960.00,0.0771
959.00,0.0766
958.00,0.0762
957.00,0.0759
956.00,0.0756
955.00,0.0754
954.00,0.0752
953.00,0.0750
952.00,0.0748
951.00,0.0746
950.00,0.0745
949.00,0.0746
948.00,0.0748
947.00,0.0750
946.00,0.0753
945.00,0.0756
944.00,0.0760
943.00,0.0765
942.00,0.0770
941.00,0.0774
940.00,0.0777
939.00,0.0780
938.00,0.0782
937.00,0.0782
936.00,0.0782
935.00,0.0779
934.00,0.0775
933.00,0.0770
932.00,0.0766
931.00,0.0761
930.00,0.0757
929.00,0.0755
928.00,0.0754
927.00,0.0754
926.00,0.0756
925.00,0.0758
924.00,0.0761
923.00,0.0766
922.00,0.0771
921.00,0.0779
920.00,0.0788
919.00,0.0799
918.00,0.0811
917.00,0.0822
916.00,0.0833
915.00,0.0840
914.00,0.0845
913.00,0.0847
912.00,0.0847
911.00,0.0843
910.00,0.0836
909.00,0.0828
908.00,0.0819
907.00,0.0808
906.00,0.0797
905.00,0.0785
904.00,0.0775
903.00,0.0765
902.00,0.0754
901.00,0.0743
900.00,0.0734
899.00,0.0724
898.00,0.0715
897.00,0.0705
896.00,0.0695
895.00,0.0685
894.00,0.0675
893.00,0.0666
892.00,0.0657
891.00,0.0649
890.00,0.0642
889.00,0.0635
888.00,0.0628
887.00,0.0622
886.00,0.0616
885.00,0.0610
884.00,0.0604
883.00,0.0597
882.00,0.0591
881.00,0.0586
880.00,0.0582
879.00,0.0579
878.00,0.0575
877.00,0.0570
876.00,0.0565
875.00,0.0560
874.00,0.0555
873.00,0.0550
872.00,0.0547
871.00,0.0544
870.00,0.0540
869.00,0.0536
868.00,0.0532
867.00,0.0529
866.00,0.0525
865.00,0.0522
864.00,0.0519
863.00,0.0516
862.00,0.0514
861.00,0.0512
860.00,0.0510
859.00,0.0507
858.00,0.0503
857.00,0.0500
856.00,0.0499
855.00,0.0499
854.00,0.0498
853.00,0.0497
852.00,0.0496
851.00,0.0495
850.00,0.0494
849.00,0.0493
848.00,0.0492
847.00,0.0491
846.00,0.0491
845.00,0.0491
844.00,0.0492
843.00,0.0493
842.00,0.0494
841.00,0.0496
840.00,0.0498
839.00,0.0500
838.00,0.0501
837.00,0.0502
836.00,0.0502
835.00,0.0501
834.00,0.0501
833.00,0.0502
832.00,0.0504
831.00,0.0507
830.00,0.0510
829.00,0.0512
828.00,0.0514
827.00,0.0514
826.00,0.0514
825.00,0.0515
824.00,0.0517
823.00,0.0521
822.00,0.0524
821.00,0.0526
820.00,0.0527
819.00,0.0527
818.00,0.0528
817.00,0.0531
816.00,0.0535
815.00,0.0539
814.00,0.0542
813.00,0.0546
812.00,0.0551
811.00,0.0556
810.00,0.0563
809.00,0.0572
808.00,0.0584
807.00,0.0595
806.00,0.0606
805.00,0.0618
804.00,0.0631
803.00,0.0645
802.00,0.0658
801.00,0.0670
800.00,0.0680
799.00,0.0689
798.00,0.0695
797.00,0.0699
796.00,0.0700
795.00,0.0699
794.00,0.0696
793.00,0.0694
792.00,0.0692
791.00,0.0689
790.00,0.0686
789.00,0.0683
788.00,0.0682
787.00,0.0681
786.00,0.0680
785.00,0.0680
784.00,0.0681
783.00,0.0682
782.00,0.0684
781.00,0.0686
780.00,0.0689
779.00,0.0690
778.00,0.0689
777.00,0.0686
776.00,0.0680
775.00,0.0674
774.00,0.0669
773.00,0.0664
772.00,0.0659
771.00,0.0655
770.00,0.0652
769.00,0.0650
768.00,0.0649
767.00,0.0649
766.00,0.0649
765.00,0.0649
764.00,0.0647
763.00,0.0644
762.00,0.0642
761.00,0.0644
760.00,0.0649
759.00,0.0654
758.00,0.0657
757.00,0.0658
756.00,0.0657
755.00,0.0655
754.00,0.0654
753.00,0.0655
752.00,0.0656
751.00,0.0657
750.00,0.0657
749.00,0.0657
748.00,0.0657
747.00,0.0657
746.00,0.0655
745.00,0.0652
744.00,0.0647
743.00,0.0642
742.00,0.0638
741.00,0.0635
740.00,0.0634
739.00,0.0633
738.00,0.0631
737.00,0.0629
736.00,0.0626
735.00,0.0622
734.00,0.0619
733.00,0.0617
732.00,0.0616
731.00,0.0615
730.00,0.0614
729.00,0.0612
728.00,0.0610
727.00,0.0609
726.00,0.0606
725.00,0.0604
724.00,0.0602
723.00,0.0602
722.00,0.0602
721.00,0.0603
720.00,0.0603
719.00,0.0603
718.00,0.0605
717.00,0.0607
716.00,0.0608
715.00,0.0610
714.00,0.0612
713.00,0.0616
712.00,0.0621
711.00,0.0626
710.00,0.0631
709.00,0.0637
708.00,0.0644
707.00,0.0652
706.00,0.0660
705.00,0.0669
704.00,0.0678
703.00,0.0687
702.00,0.0696
701.00,0.0705
700.00,0.0716
699.00,0.0727
698.00,0.0739
697.00,0.0749
696.00,0.0758
695.00,0.0764
694.00,0.0768
693.00,0.0770
692.00,0.0770
691.00,0.0768
690.00,0.0766
689.00,0.0766
688.00,0.0767
687.00,0.0769
686.00,0.0772
685.00,0.0775
684.00,0.0777
683.00,0.0774
682.00,0.0768
681.00,0.0765
680.00,0.0764
679.00,0.0763
678.00,0.0761
677.00,0.0760
676.00,0.0760
675.00,0.0759
674.00,0.0758
673.00,0.0759
672.00,0.0760
671.00,0.0760
670.00,0.0758
669.00,0.0759
668.00,0.0760
667.00,0.0759
666.00,0.0758
665.00,0.0758
664.00,0.0759
663.00,0.0759
662.00,0.0757
661.00,0.0756
660.00,0.0756
659.00,0.0758
658.00,0.0759
657.00,0.0762
656.00,0.0772
655.00,0.0780
654.00,0.0785
653.00,0.0786
652.00,0.0782
651.00,0.0776
650.00,0.0770
