Created as New Dataset,Monday, April 03 2023
cm-1,A
4000.00,0.0177
3999.00,0.0177
3998.00,0.0177
3997.00,0.0177
3996.00,0.0177
3995.00,0.0176
3994.00,0.0176
3993.00,0.0175
3992.00,0.0175
3991.00,0.0175
3990.00,0.0175
3989.00,0.0175
3988.00,0.0175
3987.00,0.0174
3986.00,0.0175
3985.00,0.0175
3984.00,0.0176
3983.00,0.0176
3982.00,0.0176
3981.00,0.0176
3980.00,0.0175
3979.00,0.0175
3978.00,0.0175
3977.00,0.0175
3976.00,0.0175
3975.00,0.0175
3974.00,0.0174
3973.00,0.0175
3972.00,0.0175
3971.00,0.0175
3970.00,0.0175
3969.00,0.0175
3968.00,0.0175
3967.00,0.0174
3966.00,0.0174
3965.00,0.0174
3964.00,0.0175
3963.00,0.0175
3962.00,0.0176
3961.00,0.0176
3960.00,0.0175
3959.00,0.0174
3958.00,0.0174
3957.00,0.0174
3956.00,0.0174
3955.00,0.0174
3954.00,0.0174
3953.00,0.0174
3952.00,0.0174
3951.00,0.0175
3950.00,0.0176
3949.00,0.0176
3948.00,0.0176
3947.00,0.0176
3946.00,0.0176
3945.00,0.0175
3944.00,0.0174
3943.00,0.0173
3942.00,0.0172
3941.00,0.0172
3940.00,0.0172
3939.00,0.0173
3938.00,0.0173
3937.00,0.0173
3936.00,0.0174
3935.00,0.0174
3934.00,0.0174
3933.00,0.0174
3932.00,0.0174
3931.00,0.0174
3930.00,0.0174
3929.00,0.0174
3928.00,0.0174
3927.00,0.0174
3926.00,0.0174
3925.00,0.0174
3924.00,0.0174
3923.00,0.0174
3922.00,0.0174
3921.00,0.0174
3920.00,0.0174
3919.00,0.0174
3918.00,0.0174
3917.00,0.0174
3916.00,0.0173
3915.00,0.0173
3914.00,0.0173
3913.00,0.0173
3912.00,0.0173
3911.00,0.0173
3910.00,0.0173
3909.00,0.0173
3908.00,0.0173
3907.00,0.0173
3906.00,0.0173
3905.00,0.0173
3904.00,0.0173
3903.00,0.0173
3902.00,0.0174
3901.00,0.0174
3900.00,0.0173
3899.00,0.0172
3898.00,0.0172
3897.00,0.0172
3896.00,0.0173
3895.00,0.0174
3894.00,0.0174
3893.00,0.0173
3892.00,0.0172
3891.00,0.0170
3890.00,0.0170
3889.00,0.0170
3888.00,0.0170
3887.00,0.0170
3886.00,0.0170
3885.00,0.0170
3884.00,0.0171
3883.00,0.0171
3882.00,0.0170
3881.00,0.0168
3880.00,0.0167
3879.00,0.0167
3878.00,0.0170
3877.00,0.0173
3876.00,0.0174
3875.00,0.0173
3874.00,0.0172
3873.00,0.0172
3872.00,0.0172
3871.00,0.0172
3870.00,0.0171
3869.00,0.0171
3868.00,0.0171
3867.00,0.0172
3866.00,0.0173
3865.00,0.0173
3864.00,0.0173
3863.00,0.0172
3862.00,0.0173
3861.00,0.0173
3860.00,0.0173
3859.00,0.0173
3858.00,0.0171
3857.00,0.0169
3856.00,0.0167
3855.00,0.0167
3854.00,0.0169
3853.00,0.0169
3852.00,0.0169
3851.00,0.0170
3850.00,0.0171
3849.00,0.0171
3848.00,0.0170
3847.00,0.0170
3846.00,0.0171
3845.00,0.0171
3844.00,0.0171
3843.00,0.0171
3842.00,0.0172
3841.00,0.0173
3840.00,0.0173
3839.00,0.0173
3838.00,0.0172
3837.00,0.0171
3836.00,0.0171
3835.00,0.0171
3834.00,0.0170
3833.00,0.0170
3832.00,0.0170
3831.00,0.0170
3830.00,0.0171
3829.00,0.0172
3828.00,0.0171
3827.00,0.0170
3826.00,0.0170
3825.00,0.0170
3824.00,0.0171
3823.00,0.0172
3822.00,0.0172
3821.00,0.0172
3820.00,0.0170
3819.00,0.0171
3818.00,0.0171
3817.00,0.0170
3816.00,0.0170
3815.00,0.0169
3814.00,0.0170
3813.00,0.0171
3812.00,0.0170
3811.00,0.0169
3810.00,0.0168
3809.00,0.0168
3808.00,0.0169
3807.00,0.0169
3806.00,0.0171
3805.00,0.0172
3804.00,0.0174
3803.00,0.0174
3802.00,0.0173
3801.00,0.0171
3800.00,0.0170
3799.00,0.0170
3798.00,0.0169
3797.00,0.0167
3796.00,0.0166
3795.00,0.0166
3794.00,0.0167
3793.00,0.0168
3792.00,0.0169
3791.00,0.0169
3790.00,0.0169
3789.00,0.0169
3788.00,0.0170
3787.00,0.0170
3786.00,0.0171
3785.00,0.0170
3784.00,0.0170
3783.00,0.0170
3782.00,0.0169
3781.00,0.0169
3780.00,0.0168
3779.00,0.0167
3778.00,0.0166
3777.00,0.0167
3776.00,0.0168
3775.00,0.0168
3774.00,0.0168
3773.00,0.0168
3772.00,0.0168
3771.00,0.0168
3770.00,0.0168
3769.00,0.0167
3768.00,0.0167
3767.00,0.0168
3766.00,0.0168
3765.00,0.0167
3764.00,0.0168
3763.00,0.0169
3762.00,0.0170
3761.00,0.0170
3760.00,0.0169
3759.00,0.0168
3758.00,0.0167
3757.00,0.0167
3756.00,0.0167
3755.00,0.0167
3754.00,0.0167
3753.00,0.0168
3752.00,0.0169
3751.00,0.0169
3750.00,0.0169
3749.00,0.0169
3748.00,0.0170
3747.00,0.0170
3746.00,0.0169
3745.00,0.0167
3744.00,0.0166
3743.00,0.0166
3742.00,0.0168
3741.00,0.0169
3740.00,0.0169
3739.00,0.0170
3738.00,0.0170
3737.00,0.0171
3736.00,0.0171
3735.00,0.0170
3734.00,0.0167
3733.00,0.0165
3732.00,0.0164
3731.00,0.0164
3730.00,0.0165
3729.00,0.0166
3728.00,0.0167
3727.00,0.0168
3726.00,0.0168
3725.00,0.0168
3724.00,0.0168
3723.00,0.0167
3722.00,0.0167
3721.00,0.0167
3720.00,0.0168
3719.00,0.0169
3718.00,0.0169
3717.00,0.0169
3716.00,0.0169
3715.00,0.0170
3714.00,0.0172
3713.00,0.0174
3712.00,0.0176
3711.00,0.0177
3710.00,0.0175
3709.00,0.0175
3708.00,0.0176
3707.00,0.0179
3706.00,0.0182
3705.00,0.0184
3704.00,0.0186
3703.00,0.0187
3702.00,0.0187
3701.00,0.0189
3700.00,0.0191
3699.00,0.0193
3698.00,0.0194
3697.00,0.0195
3696.00,0.0195
3695.00,0.0195
3694.00,0.0195
3693.00,0.0195
3692.00,0.0195
3691.00,0.0196
3690.00,0.0197
3689.00,0.0196
3688.00,0.0194
3687.00,0.0193
3686.00,0.0192
3685.00,0.0191
3684.00,0.0189
3683.00,0.0187
3682.00,0.0186
3681.00,0.0184
3680.00,0.0182
3679.00,0.0180
3678.00,0.0178
3677.00,0.0177
3676.00,0.0177
3675.00,0.0176
3674.00,0.0176
3673.00,0.0177
3672.00,0.0179
3671.00,0.0180
3670.00,0.0180
3669.00,0.0180
3668.00,0.0180
3667.00,0.0181
3666.00,0.0181
3665.00,0.0181
3664.00,0.0181
3663.00,0.0182
3662.00,0.0182
3661.00,0.0183
3660.00,0.0185
3659.00,0.0187
3658.00,0.0189
3657.00,0.0190
3656.00,0.0192
3655.00,0.0193
3654.00,0.0195
3653.00,0.0195
3652.00,0.0196
3651.00,0.0196
3650.00,0.0198
3649.00,0.0198
3648.00,0.0196
3647.00,0.0194
3646.00,0.0194
3645.00,0.0195
3644.00,0.0196
3643.00,0.0196
3642.00,0.0196
3641.00,0.0195
3640.00,0.0195
3639.00,0.0194
3638.00,0.0194
3637.00,0.0194
3636.00,0.0194
3635.00,0.0195
3634.00,0.0195
3633.00,0.0195
3632.00,0.0195
3631.00,0.0195
3630.00,0.0197
3629.00,0.0199
3628.00,0.0201
3627.00,0.0202
3626.00,0.0205
3625.00,0.0207
3624.00,0.0209
3623.00,0.0211
3622.00,0.0213
3621.00,0.0216
3620.00,0.0217
3619.00,0.0216
3618.00,0.0214
3617.00,0.0212
3616.00,0.0211
3615.00,0.0210
3614.00,0.0208
3613.00,0.0206
3612.00,0.0205
3611.00,0.0205
3610.00,0.0206
3609.00,0.0207
3608.00,0.0207
3607.00,0.0207
3606.00,0.0206
3605.00,0.0205
3604.00,0.0205
3603.00,0.0205
3602.00,0.0206
3601.00,0.0207
3600.00,0.0207
3599.00,0.0207
3598.00,0.0206
3597.00,0.0205
3596.00,0.0205
3595.00,0.0205
3594.00,0.0205
3593.00,0.0205
3592.00,0.0205
3591.00,0.0205
3590.00,0.0205
3589.00,0.0206
3588.00,0.0207
3587.00,0.0207
3586.00,0.0207
3585.00,0.0208
3584.00,0.0208
3583.00,0.0209
3582.00,0.0209
3581.00,0.0209
3580.00,0.0209
3579.00,0.0209
3578.00,0.0210
3577.00,0.0210
3576.00,0.0211
3575.00,0.0211
3574.00,0.0211
3573.00,0.0211
3572.00,0.0211
3571.00,0.0211
3570.00,0.0211
3569.00,0.0212
3568.00,0.0214
3567.00,0.0216
3566.00,0.0216
3565.00,0.0215
3564.00,0.0214
3563.00,0.0214
3562.00,0.0214
3561.00,0.0215
3560.00,0.0215
3559.00,0.0216
3558.00,0.0216
3557.00,0.0217
3556.00,0.0219
3555.00,0.0219
3554.00,0.0219
3553.00,0.0220
3552.00,0.0220
3551.00,0.0221
3550.00,0.0222
3549.00,0.0223
3548.00,0.0224
3547.00,0.0225
3546.00,0.0225
3545.00,0.0225
3544.00,0.0225
3543.00,0.0225
3542.00,0.0225
3541.00,0.0225
3540.00,0.0224
3539.00,0.0224
3538.00,0.0223
3537.00,0.0224
3536.00,0.0224
3535.00,0.0225
3534.00,0.0227
3533.00,0.0228
3532.00,0.0229
3531.00,0.0229
3530.00,0.0229
3529.00,0.0228
3528.00,0.0227
3527.00,0.0227
3526.00,0.0228
3525.00,0.0230
3524.00,0.0232
3523.00,0.0233
3522.00,0.0233
3521.00,0.0232
3520.00,0.0231
3519.00,0.0230
3518.00,0.0229
3517.00,0.0229
3516.00,0.0229
3515.00,0.0230
3514.00,0.0231
3513.00,0.0233
3512.00,0.0234
3511.00,0.0234
3510.00,0.0234
3509.00,0.0234
3508.00,0.0234
3507.00,0.0234
3506.00,0.0235
3505.00,0.0236
3504.00,0.0236
3503.00,0.0237
3502.00,0.0237
3501.00,0.0237
3500.00,0.0238
3499.00,0.0238
3498.00,0.0239
3497.00,0.0239
3496.00,0.0240
3495.00,0.0240
3494.00,0.0239
3493.00,0.0239
3492.00,0.0239
3491.00,0.0239
3490.00,0.0239
3489.00,0.0239
3488.00,0.0239
3487.00,0.0240
3486.00,0.0240
3485.00,0.0240
3484.00,0.0241
3483.00,0.0241
3482.00,0.0242
3481.00,0.0242
3480.00,0.0243
3479.00,0.0243
3478.00,0.0243
3477.00,0.0244
3476.00,0.0244
3475.00,0.0245
3474.00,0.0245
3473.00,0.0246
3472.00,0.0246
3471.00,0.0247
3470.00,0.0247
3469.00,0.0248
3468.00,0.0248
3467.00,0.0248
3466.00,0.0249
3465.00,0.0249
3464.00,0.0249
3463.00,0.0248
3462.00,0.0247
3461.00,0.0247
3460.00,0.0247
3459.00,0.0249
3458.00,0.0250
3457.00,0.0250
3456.00,0.0250
3455.00,0.0249
3454.00,0.0249
3453.00,0.0250
3452.00,0.0250
3451.00,0.0251
3450.00,0.0252
3449.00,0.0253
3448.00,0.0253
3447.00,0.0253
3446.00,0.0254
3445.00,0.0254
3444.00,0.0254
3443.00,0.0254
3442.00,0.0254
3441.00,0.0253
3440.00,0.0253
3439.00,0.0253
3438.00,0.0253
3437.00,0.0253
3436.00,0.0254
3435.00,0.0254
3434.00,0.0253
3433.00,0.0253
3432.00,0.0254
3431.00,0.0255
3430.00,0.0256
3429.00,0.0256
3428.00,0.0256
3427.00,0.0256
3426.00,0.0257
3425.00,0.0257
3424.00,0.0259
3423.00,0.0259
3422.00,0.0260
3421.00,0.0260
3420.00,0.0260
3419.00,0.0260
3418.00,0.0260
3417.00,0.0260
3416.00,0.0259
3415.00,0.0258
3414.00,0.0259
3413.00,0.0259
3412.00,0.0260
3411.00,0.0261
3410.00,0.0261
3409.00,0.0262
3408.00,0.0262
3407.00,0.0263
3406.00,0.0263
3405.00,0.0263
3404.00,0.0262
3403.00,0.0262
3402.00,0.0261
3401.00,0.0262
3400.00,0.0263
3399.00,0.0263
3398.00,0.0264
3397.00,0.0263
3396.00,0.0263
3395.00,0.0262
3394.00,0.0262
3393.00,0.0263
3392.00,0.0263
3391.00,0.0264
3390.00,0.0265
3389.00,0.0265
3388.00,0.0265
3387.00,0.0265
3386.00,0.0265
3385.00,0.0265
3384.00,0.0265
3383.00,0.0266
3382.00,0.0266
3381.00,0.0266
3380.00,0.0267
3379.00,0.0267
3378.00,0.0267
3377.00,0.0267
3376.00,0.0267
3375.00,0.0267
3374.00,0.0267
3373.00,0.0267
3372.00,0.0266
3371.00,0.0266
3370.00,0.0266
3369.00,0.0266
3368.00,0.0267
3367.00,0.0267
3366.00,0.0267
3365.00,0.0267
3364.00,0.0266
3363.00,0.0266
3362.00,0.0267
3361.00,0.0268
3360.00,0.0269
3359.00,0.0270
3358.00,0.0269
3357.00,0.0269
3356.00,0.0269
3355.00,0.0269
3354.00,0.0269
3353.00,0.0269
3352.00,0.0270
3351.00,0.0270
3350.00,0.0270
3349.00,0.0270
3348.00,0.0270
3347.00,0.0270
3346.00,0.0270
3345.00,0.0270
3344.00,0.0270
3343.00,0.0270
3342.00,0.0270
3341.00,0.0270
3340.00,0.0270
3339.00,0.0271
3338.00,0.0271
3337.00,0.0270
3336.00,0.0270
3335.00,0.0270
3334.00,0.0270
3333.00,0.0270
3332.00,0.0270
3331.00,0.0269
3330.00,0.0269
3329.00,0.0269
3328.00,0.0269
3327.00,0.0269
3326.00,0.0270
3325.00,0.0271
3324.00,0.0271
3323.00,0.0271
3322.00,0.0271
3321.00,0.0271
3320.00,0.0270
3319.00,0.0271
3318.00,0.0271
3317.00,0.0271
3316.00,0.0271
3315.00,0.0271
3314.00,0.0271
3313.00,0.0271
3312.00,0.0270
3311.00,0.0271
3310.00,0.0271
3309.00,0.0272
3308.00,0.0273
3307.00,0.0272
3306.00,0.0272
3305.00,0.0271
3304.00,0.0271
3303.00,0.0270
3302.00,0.0270
3301.00,0.0270
3300.00,0.0271
3299.00,0.0271
3298.00,0.0271
3297.00,0.0271
3296.00,0.0272
3295.00,0.0272
3294.00,0.0272
3293.00,0.0272
3292.00,0.0272
3291.00,0.0272
3290.00,0.0272
3289.00,0.0272
3288.00,0.0272
3287.00,0.0272
3286.00,0.0272
3285.00,0.0272
3284.00,0.0272
3283.00,0.0273
3282.00,0.0272
3281.00,0.0272
3280.00,0.0272
3279.00,0.0272
3278.00,0.0272
3277.00,0.0271
3276.00,0.0271
3275.00,0.0271
3274.00,0.0272
3273.00,0.0272
3272.00,0.0273
3271.00,0.0273
3270.00,0.0273
3269.00,0.0273
3268.00,0.0274
3267.00,0.0274
3266.00,0.0273
3265.00,0.0272
3264.00,0.0271
3263.00,0.0271
3262.00,0.0271
3261.00,0.0272
3260.00,0.0273
3259.00,0.0273
3258.00,0.0273
3257.00,0.0272
3256.00,0.0271
3255.00,0.0271
3254.00,0.0271
3253.00,0.0272
3252.00,0.0272
3251.00,0.0272
3250.00,0.0272
3249.00,0.0272
3248.00,0.0272
3247.00,0.0271
3246.00,0.0271
3245.00,0.0271
3244.00,0.0272
3243.00,0.0271
3242.00,0.0271
3241.00,0.0271
3240.00,0.0271
3239.00,0.0272
3238.00,0.0272
3237.00,0.0273
3236.00,0.0274
3235.00,0.0274
3234.00,0.0274
3233.00,0.0274
3232.00,0.0274
3231.00,0.0273
3230.00,0.0273
3229.00,0.0272
3228.00,0.0271
3227.00,0.0271
3226.00,0.0271
3225.00,0.0271
3224.00,0.0271
3223.00,0.0271
3222.00,0.0271
3221.00,0.0271
3220.00,0.0271
3219.00,0.0270
3218.00,0.0270
3217.00,0.0270
3216.00,0.0271
3215.00,0.0272
3214.00,0.0272
3213.00,0.0272
3212.00,0.0271
3211.00,0.0270
3210.00,0.0270
3209.00,0.0270
3208.00,0.0270
3207.00,0.0270
3206.00,0.0270
3205.00,0.0271
3204.00,0.0271
3203.00,0.0271
3202.00,0.0271
3201.00,0.0271
3200.00,0.0271
3199.00,0.0271
3198.00,0.0271
3197.00,0.0271
3196.00,0.0271
3195.00,0.0270
3194.00,0.0270
3193.00,0.0269
3192.00,0.0269
3191.00,0.0268
3190.00,0.0268
3189.00,0.0267
3188.00,0.0267
3187.00,0.0266
3186.00,0.0266
3185.00,0.0267
3184.00,0.0267
3183.00,0.0268
3182.00,0.0268
3181.00,0.0268
3180.00,0.0268
3179.00,0.0267
3178.00,0.0266
3177.00,0.0266
3176.00,0.0265
3175.00,0.0265
3174.00,0.0266
3173.00,0.0266
3172.00,0.0267
3171.00,0.0266
3170.00,0.0266
3169.00,0.0266
3168.00,0.0265
3167.00,0.0265
3166.00,0.0266
3165.00,0.0267
3164.00,0.0267
3163.00,0.0267
3162.00,0.0266
3161.00,0.0265
3160.00,0.0264
3159.00,0.0263
3158.00,0.0262
3157.00,0.0262
3156.00,0.0262
3155.00,0.0263
3154.00,0.0264
3153.00,0.0264
3152.00,0.0264
3151.00,0.0264
3150.00,0.0263
3149.00,0.0262
3148.00,0.0262
3147.00,0.0262
3146.00,0.0262
3145.00,0.0262
3144.00,0.0262
3143.00,0.0263
3142.00,0.0263
3141.00,0.0262
3140.00,0.0262
3139.00,0.0262
3138.00,0.0262
3137.00,0.0262
3136.00,0.0262
3135.00,0.0261
3134.00,0.0261
3133.00,0.0261
3132.00,0.0261
3131.00,0.0261
3130.00,0.0261
3129.00,0.0261
3128.00,0.0260
3127.00,0.0260
3126.00,0.0260
3125.00,0.0260
3124.00,0.0260
3123.00,0.0260
3122.00,0.0259
3121.00,0.0259
3120.00,0.0259
3119.00,0.0259
3118.00,0.0259
3117.00,0.0259
3116.00,0.0258
3115.00,0.0258
3114.00,0.0258
3113.00,0.0258
3112.00,0.0258
3111.00,0.0257
3110.00,0.0257
3109.00,0.0256
3108.00,0.0256
3107.00,0.0257
3106.00,0.0257
3105.00,0.0258
3104.00,0.0258
3103.00,0.0258
3102.00,0.0257
3101.00,0.0257
3100.00,0.0256
3099.00,0.0255
3098.00,0.0255
3097.00,0.0255
3096.00,0.0255
3095.00,0.0256
3094.00,0.0257
3093.00,0.0257
3092.00,0.0257
3091.00,0.0257
3090.00,0.0256
3089.00,0.0255
3088.00,0.0254
3087.00,0.0254
3086.00,0.0255
3085.00,0.0256
3084.00,0.0256
3083.00,0.0256
3082.00,0.0256
3081.00,0.0255
3080.00,0.0255
3079.00,0.0255
3078.00,0.0255
3077.00,0.0255
3076.00,0.0255
3075.00,0.0255
3074.00,0.0255
3073.00,0.0255
3072.00,0.0255
3071.00,0.0255
3070.00,0.0255
3069.00,0.0255
3068.00,0.0255
3067.00,0.0255
3066.00,0.0255
3065.00,0.0254
3064.00,0.0253
3063.00,0.0252
3062.00,0.0253
3061.00,0.0253
3060.00,0.0253
3059.00,0.0253
3058.00,0.0253
3057.00,0.0253
3056.00,0.0253
3055.00,0.0252
3054.00,0.0252
3053.00,0.0252
3052.00,0.0251
3051.00,0.0252
3050.00,0.0252
3049.00,0.0252
3048.00,0.0253
3047.00,0.0252
3046.00,0.0252
3045.00,0.0252
3044.00,0.0251
3043.00,0.0250
3042.00,0.0250
3041.00,0.0249
3040.00,0.0249
3039.00,0.0249
3038.00,0.0249
3037.00,0.0249
3036.00,0.0250
3035.00,0.0250
3034.00,0.0250
3033.00,0.0250
3032.00,0.0249
3031.00,0.0248
3030.00,0.0247
3029.00,0.0246
3028.00,0.0246
3027.00,0.0246
3026.00,0.0246
3025.00,0.0246
3024.00,0.0246
3023.00,0.0246
3022.00,0.0246
3021.00,0.0246
3020.00,0.0245
3019.00,0.0244
3018.00,0.0244
3017.00,0.0243
3016.00,0.0242
3015.00,0.0242
3014.00,0.0241
3013.00,0.0240
3012.00,0.0239
3011.00,0.0238
3010.00,0.0237
3009.00,0.0236
3008.00,0.0234
3007.00,0.0232
3006.00,0.0231
3005.00,0.0229
3004.00,0.0228
3003.00,0.0226
3002.00,0.0224
3001.00,0.0223
3000.00,0.0222
2999.00,0.0220
2998.00,0.0219
2997.00,0.0217
2996.00,0.0216
2995.00,0.0216
2994.00,0.0215
2993.00,0.0214
2992.00,0.0213
2991.00,0.0212
2990.00,0.0211
2989.00,0.0210
2988.00,0.0209
2987.00,0.0207
2986.00,0.0204
2985.00,0.0199
2984.00,0.0195
2983.00,0.0191
2982.00,0.0189
2981.00,0.0189
2980.00,0.0190
2979.00,0.0193
2978.00,0.0195
2977.00,0.0198
2976.00,0.0199
2975.00,0.0200
2974.00,0.0200
2973.00,0.0199
2972.00,0.0198
2971.00,0.0199
2970.00,0.0200
2969.00,0.0202
2968.00,0.0205
2967.00,0.0206
2966.00,0.0207
2965.00,0.0207
2964.00,0.0208
2963.00,0.0209
2962.00,0.0211
2961.00,0.0212
2960.00,0.0213
2959.00,0.0213
2958.00,0.0213
2957.00,0.0214
2956.00,0.0215
2955.00,0.0216
2954.00,0.0217
2953.00,0.0219
2952.00,0.0220
2951.00,0.0221
2950.00,0.0222
2949.00,0.0223
2948.00,0.0223
2947.00,0.0224
2946.00,0.0224
2945.00,0.0225
2944.00,0.0226
2943.00,0.0227
2942.00,0.0228
2941.00,0.0229
2940.00,0.0229
2939.00,0.0229
2938.00,0.0228
2937.00,0.0229
2936.00,0.0229
2935.00,0.0229
2934.00,0.0229
2933.00,0.0229
2932.00,0.0229
2931.00,0.0229
2930.00,0.0229
2929.00,0.0229
2928.00,0.0229
2927.00,0.0229
2926.00,0.0229
2925.00,0.0228
2924.00,0.0228
2923.00,0.0228
2922.00,0.0227
2921.00,0.0227
2920.00,0.0226
2919.00,0.0224
2918.00,0.0223
2917.00,0.0223
2916.00,0.0223
2915.00,0.0223
2914.00,0.0223
2913.00,0.0224
2912.00,0.0225
2911.00,0.0225
2910.00,0.0226
2909.00,0.0226
2908.00,0.0226
2907.00,0.0226
2906.00,0.0226
2905.00,0.0225
2904.00,0.0225
2903.00,0.0224
2902.00,0.0224
2901.00,0.0224
2900.00,0.0223
2899.00,0.0223
2898.00,0.0222
2897.00,0.0222
2896.00,0.0222
2895.00,0.0221
2894.00,0.0221
2893.00,0.0221
2892.00,0.0220
2891.00,0.0220
2890.00,0.0220
2889.00,0.0220
2888.00,0.0220
2887.00,0.0220
2886.00,0.0220
2885.00,0.0219
2884.00,0.0218
2883.00,0.0218
2882.00,0.0219
2881.00,0.0219
2880.00,0.0220
2879.00,0.0221
2878.00,0.0221
2877.00,0.0222
2876.00,0.0222
2875.00,0.0222
2874.00,0.0222
2873.00,0.0222
2872.00,0.0222
2871.00,0.0222
2870.00,0.0222
2869.00,0.0222
2868.00,0.0222
2867.00,0.0222
2866.00,0.0222
2865.00,0.0223
2864.00,0.0223
2863.00,0.0223
2862.00,0.0224
2861.00,0.0224
2860.00,0.0225
2859.00,0.0226
2858.00,0.0227
2857.00,0.0227
2856.00,0.0227
2855.00,0.0227
2854.00,0.0226
2853.00,0.0226
2852.00,0.0226
2851.00,0.0227
2850.00,0.0227
2849.00,0.0227
2848.00,0.0226
2847.00,0.0226
2846.00,0.0226
2845.00,0.0226
2844.00,0.0227
2843.00,0.0226
2842.00,0.0226
2841.00,0.0225
2840.00,0.0224
2839.00,0.0224
2838.00,0.0223
2837.00,0.0224
2836.00,0.0224
2835.00,0.0225
2834.00,0.0226
2833.00,0.0225
2832.00,0.0224
2831.00,0.0223
2830.00,0.0223
2829.00,0.0223
2828.00,0.0223
2827.00,0.0223
2826.00,0.0223
2825.00,0.0223
2824.00,0.0223
2823.00,0.0223
2822.00,0.0223
2821.00,0.0222
2820.00,0.0222
2819.00,0.0221
2818.00,0.0221
2817.00,0.0221
2816.00,0.0221
2815.00,0.0220
2814.00,0.0220
2813.00,0.0220
2812.00,0.0220
2811.00,0.0220
2810.00,0.0220
2809.00,0.0220
2808.00,0.0220
2807.00,0.0220
2806.00,0.0220
2805.00,0.0220
2804.00,0.0220
2803.00,0.0220
2802.00,0.0219
2801.00,0.0219
2800.00,0.0219
2799.00,0.0219
2798.00,0.0219
2797.00,0.0219
2796.00,0.0219
2795.00,0.0219
2794.00,0.0219
2793.00,0.0219
2792.00,0.0218
2791.00,0.0218
2790.00,0.0218
2789.00,0.0218
2788.00,0.0218
2787.00,0.0218
2786.00,0.0218
2785.00,0.0217
2784.00,0.0217
2783.00,0.0217
2782.00,0.0216
2781.00,0.0216
2780.00,0.0215
2779.00,0.0215
2778.00,0.0216
2777.00,0.0216
2776.00,0.0216
2775.00,0.0216
2774.00,0.0216
2773.00,0.0216
2772.00,0.0216
2771.00,0.0215
2770.00,0.0214
2769.00,0.0213
2768.00,0.0213
2767.00,0.0213
2766.00,0.0214
2765.00,0.0214
2764.00,0.0214
2763.00,0.0214
2762.00,0.0214
2761.00,0.0214
2760.00,0.0214
2759.00,0.0214
2758.00,0.0214
2757.00,0.0213
2756.00,0.0213
2755.00,0.0213
2754.00,0.0213
2753.00,0.0213
2752.00,0.0213
2751.00,0.0213
2750.00,0.0213
2749.00,0.0213
2748.00,0.0213
2747.00,0.0213
2746.00,0.0213
2745.00,0.0213
2744.00,0.0213
2743.00,0.0213
2742.00,0.0213
2741.00,0.0213
2740.00,0.0213
2739.00,0.0212
2738.00,0.0212
2737.00,0.0212
2736.00,0.0211
2735.00,0.0211
2734.00,0.0211
2733.00,0.0212
2732.00,0.0212
2731.00,0.0212
2730.00,0.0211
2729.00,0.0211
2728.00,0.0210
2727.00,0.0210
2726.00,0.0210
2725.00,0.0210
2724.00,0.0210
2723.00,0.0210
2722.00,0.0210
2721.00,0.0209
2720.00,0.0210
2719.00,0.0210
2718.00,0.0210
2717.00,0.0210
2716.00,0.0210
2715.00,0.0210
2714.00,0.0210
2713.00,0.0210
2712.00,0.0209
2711.00,0.0209
2710.00,0.0209
2709.00,0.0209
2708.00,0.0208
2707.00,0.0208
2706.00,0.0208
2705.00,0.0208
2704.00,0.0208
2703.00,0.0208
2702.00,0.0208
2701.00,0.0208
2700.00,0.0208
2699.00,0.0208
2698.00,0.0208
2697.00,0.0207
2696.00,0.0207
2695.00,0.0207
2694.00,0.0207
2693.00,0.0208
2692.00,0.0208
2691.00,0.0208
2690.00,0.0208
2689.00,0.0207
2688.00,0.0207
2687.00,0.0207
2686.00,0.0207
2685.00,0.0207
2684.00,0.0207
2683.00,0.0207
2682.00,0.0207
2681.00,0.0206
2680.00,0.0206
2679.00,0.0206
2678.00,0.0205
2677.00,0.0205
2676.00,0.0205
2675.00,0.0205
2674.00,0.0205
2673.00,0.0205
2672.00,0.0205
2671.00,0.0205
2670.00,0.0205
2669.00,0.0204
2668.00,0.0204
2667.00,0.0204
2666.00,0.0204
2665.00,0.0204
2664.00,0.0204
2663.00,0.0205
2662.00,0.0205
2661.00,0.0206
2660.00,0.0206
2659.00,0.0206
2658.00,0.0206
2657.00,0.0206
2656.00,0.0205
2655.00,0.0205
2654.00,0.0205
2653.00,0.0205
2652.00,0.0206
2651.00,0.0206
2650.00,0.0206
2649.00,0.0206
2648.00,0.0206
2647.00,0.0205
2646.00,0.0205
2645.00,0.0205
2644.00,0.0205
2643.00,0.0205
2642.00,0.0205
2641.00,0.0206
2640.00,0.0206
2639.00,0.0206
2638.00,0.0206
2637.00,0.0206
2636.00,0.0205
2635.00,0.0205
2634.00,0.0205
2633.00,0.0206
2632.00,0.0206
2631.00,0.0206
2630.00,0.0205
2629.00,0.0205
2628.00,0.0204
2627.00,0.0204
2626.00,0.0204
2625.00,0.0205
2624.00,0.0205
2623.00,0.0206
2622.00,0.0206
2621.00,0.0207
2620.00,0.0207
2619.00,0.0207
2618.00,0.0207
2617.00,0.0207
2616.00,0.0207
2615.00,0.0206
2614.00,0.0206
2613.00,0.0206
2612.00,0.0206
2611.00,0.0207
2610.00,0.0207
2609.00,0.0206
2608.00,0.0206
2607.00,0.0206
2606.00,0.0207
2605.00,0.0207
2604.00,0.0208
2603.00,0.0208
2602.00,0.0208
2601.00,0.0208
2600.00,0.0207
2599.00,0.0207
2598.00,0.0206
2597.00,0.0206
2596.00,0.0205
2595.00,0.0205
2594.00,0.0205
2593.00,0.0206
2592.00,0.0206
2591.00,0.0207
2590.00,0.0207
2589.00,0.0207
2588.00,0.0206
2587.00,0.0206
2586.00,0.0205
2585.00,0.0204
2584.00,0.0204
2583.00,0.0204
2582.00,0.0205
2581.00,0.0205
2580.00,0.0205
2579.00,0.0206
2578.00,0.0206
2577.00,0.0206
2576.00,0.0205
2575.00,0.0205
2574.00,0.0205
2573.00,0.0205
2572.00,0.0205
2571.00,0.0205
2570.00,0.0205
2569.00,0.0204
2568.00,0.0204
2567.00,0.0205
2566.00,0.0206
2565.00,0.0206
2564.00,0.0206
2563.00,0.0206
2562.00,0.0207
2561.00,0.0207
2560.00,0.0207
2559.00,0.0207
2558.00,0.0206
2557.00,0.0206
2556.00,0.0207
2555.00,0.0206
2554.00,0.0206
2553.00,0.0205
2552.00,0.0204
2551.00,0.0204
2550.00,0.0203
2549.00,0.0202
2548.00,0.0202
2547.00,0.0201
2546.00,0.0202
2545.00,0.0202
2544.00,0.0203
2543.00,0.0203
2542.00,0.0203
2541.00,0.0202
2540.00,0.0201
2539.00,0.0201
2538.00,0.0200
2537.00,0.0200
2536.00,0.0200
2535.00,0.0201
2534.00,0.0202
2533.00,0.0202
2532.00,0.0202
2531.00,0.0202
2530.00,0.0201
2529.00,0.0200
2528.00,0.0200
2527.00,0.0200
2526.00,0.0200
2525.00,0.0199
2524.00,0.0200
2523.00,0.0200
2522.00,0.0200
2521.00,0.0201
2520.00,0.0201
2519.00,0.0201
2518.00,0.0202
2517.00,0.0203
2516.00,0.0203
2515.00,0.0203
2514.00,0.0201
2513.00,0.0200
2512.00,0.0200
2511.00,0.0201
2510.00,0.0202
2509.00,0.0203
2508.00,0.0203
2507.00,0.0203
2506.00,0.0202
2505.00,0.0201
2504.00,0.0201
2503.00,0.0200
2502.00,0.0201
2501.00,0.0202
2500.00,0.0202
2499.00,0.0203
2498.00,0.0203
2497.00,0.0203
2496.00,0.0202
2495.00,0.0203
2494.00,0.0203
2493.00,0.0203
2492.00,0.0203
2491.00,0.0203
2490.00,0.0203
2489.00,0.0203
2488.00,0.0203
2487.00,0.0203
2486.00,0.0203
2485.00,0.0201
2484.00,0.0200
2483.00,0.0200
2482.00,0.0201
2481.00,0.0201
2480.00,0.0202
2479.00,0.0201
2478.00,0.0201
2477.00,0.0201
2476.00,0.0200
2475.00,0.0200
2474.00,0.0200
2473.00,0.0200
2472.00,0.0200
2471.00,0.0201
2470.00,0.0201
2469.00,0.0201
2468.00,0.0201
2467.00,0.0200
2466.00,0.0199
2465.00,0.0199
2464.00,0.0198
2463.00,0.0198
2462.00,0.0198
2461.00,0.0198
2460.00,0.0199
2459.00,0.0200
2458.00,0.0201
2457.00,0.0201
2456.00,0.0201
2455.00,0.0201
2454.00,0.0201
2453.00,0.0202
2452.00,0.0202
2451.00,0.0202
2450.00,0.0201
2449.00,0.0201
2448.00,0.0200
2447.00,0.0200
2446.00,0.0199
2445.00,0.0199
2444.00,0.0199
2443.00,0.0199
2442.00,0.0199
2441.00,0.0199
2440.00,0.0199
2439.00,0.0199
2438.00,0.0199
2437.00,0.0199
2436.00,0.0199
2435.00,0.0198
2434.00,0.0197
2433.00,0.0197
2432.00,0.0197
2431.00,0.0197
2430.00,0.0197
2429.00,0.0197
2428.00,0.0197
2427.00,0.0197
2426.00,0.0197
2425.00,0.0197
2424.00,0.0197
2423.00,0.0197
2422.00,0.0197
2421.00,0.0197
2420.00,0.0197
2419.00,0.0197
2418.00,0.0197
2417.00,0.0197
2416.00,0.0196
2415.00,0.0196
2414.00,0.0196
2413.00,0.0196
2412.00,0.0196
2411.00,0.0196
2410.00,0.0196
2409.00,0.0196
2408.00,0.0196
2407.00,0.0196
2406.00,0.0195
2405.00,0.0195
2404.00,0.0195
2403.00,0.0194
2402.00,0.0194
2401.00,0.0194
2400.00,0.0193
2399.00,0.0193
2398.00,0.0193
2397.00,0.0193
2396.00,0.0193
2395.00,0.0193
2394.00,0.0193
2393.00,0.0193
2392.00,0.0192
2391.00,0.0192
2390.00,0.0192
2389.00,0.0192
2388.00,0.0192
2387.00,0.0192
2386.00,0.0191
2385.00,0.0191
2384.00,0.0190
2383.00,0.0189
2382.00,0.0189
2381.00,0.0190
2380.00,0.0191
2379.00,0.0192
2378.00,0.0191
2377.00,0.0191
2376.00,0.0190
2375.00,0.0190
2374.00,0.0190
2373.00,0.0191
2372.00,0.0191
2371.00,0.0191
2370.00,0.0189
2369.00,0.0187
2368.00,0.0184
2367.00,0.0184
2366.00,0.0186
2365.00,0.0188
2364.00,0.0189
2363.00,0.0188
2362.00,0.0188
2361.00,0.0190
2360.00,0.0193
2359.00,0.0194
2358.00,0.0193
2357.00,0.0191
2356.00,0.0190
2355.00,0.0188
2354.00,0.0187
2353.00,0.0187
2352.00,0.0187
2351.00,0.0188
2350.00,0.0187
2349.00,0.0187
2348.00,0.0187
2347.00,0.0185
2346.00,0.0184
2345.00,0.0185
2344.00,0.0188
2343.00,0.0190
2342.00,0.0192
2341.00,0.0192
2340.00,0.0191
2339.00,0.0189
2338.00,0.0186
2337.00,0.0184
2336.00,0.0184
2335.00,0.0185
2334.00,0.0186
2333.00,0.0187
2332.00,0.0187
2331.00,0.0186
2330.00,0.0185
2329.00,0.0184
2328.00,0.0185
2327.00,0.0186
2326.00,0.0186
2325.00,0.0187
2324.00,0.0186
2323.00,0.0185
2322.00,0.0186
2321.00,0.0186
2320.00,0.0185
2319.00,0.0184
2318.00,0.0184
2317.00,0.0184
2316.00,0.0185
2315.00,0.0185
2314.00,0.0186
2313.00,0.0186
2312.00,0.0187
2311.00,0.0188
2310.00,0.0189
2309.00,0.0190
2308.00,0.0189
2307.00,0.0189
2306.00,0.0188
2305.00,0.0188
2304.00,0.0188
2303.00,0.0187
2302.00,0.0185
2301.00,0.0185
2300.00,0.0185
2299.00,0.0186
2298.00,0.0187
2297.00,0.0187
2296.00,0.0187
2295.00,0.0186
2294.00,0.0187
2293.00,0.0189
2292.00,0.0191
2291.00,0.0192
2290.00,0.0191
2289.00,0.0191
2288.00,0.0190
2287.00,0.0191
2286.00,0.0192
2285.00,0.0193
2284.00,0.0195
2283.00,0.0195
2282.00,0.0195
2281.00,0.0195
2280.00,0.0195
2279.00,0.0195
2278.00,0.0196
2277.00,0.0196
2276.00,0.0195
2275.00,0.0193
2274.00,0.0192
2273.00,0.0191
2272.00,0.0190
2271.00,0.0190
2270.00,0.0191
2269.00,0.0191
2268.00,0.0191
2267.00,0.0192
2266.00,0.0192
2265.00,0.0193
2264.00,0.0193
2263.00,0.0194
2262.00,0.0194
2261.00,0.0195
2260.00,0.0195
2259.00,0.0194
2258.00,0.0192
2257.00,0.0189
2256.00,0.0188
2255.00,0.0187
2254.00,0.0188
2253.00,0.0189
2252.00,0.0189
2251.00,0.0190
2250.00,0.0191
2249.00,0.0191
2248.00,0.0190
2247.00,0.0190
2246.00,0.0191
2245.00,0.0192
2244.00,0.0193
2243.00,0.0193
2242.00,0.0192
2241.00,0.0192
2240.00,0.0191
2239.00,0.0190
2238.00,0.0190
2237.00,0.0190
2236.00,0.0190
2235.00,0.0191
2234.00,0.0192
2233.00,0.0192
2232.00,0.0191
2231.00,0.0189
2230.00,0.0188
2229.00,0.0188
2228.00,0.0188
2227.00,0.0189
2226.00,0.0190
2225.00,0.0190
2224.00,0.0190
2223.00,0.0188
2222.00,0.0187
2221.00,0.0187
2220.00,0.0187
2219.00,0.0188
2218.00,0.0189
2217.00,0.0190
2216.00,0.0190
2215.00,0.0191
2214.00,0.0192
2213.00,0.0193
2212.00,0.0192
2211.00,0.0190
2210.00,0.0188
2209.00,0.0188
2208.00,0.0187
2207.00,0.0187
2206.00,0.0187
2205.00,0.0186
2204.00,0.0186
2203.00,0.0187
2202.00,0.0187
2201.00,0.0186
2200.00,0.0186
2199.00,0.0186
2198.00,0.0185
2197.00,0.0185
2196.00,0.0184
2195.00,0.0183
2194.00,0.0183
2193.00,0.0183
2192.00,0.0182
2191.00,0.0181
2190.00,0.0178
2189.00,0.0177
2188.00,0.0178
2187.00,0.0182
2186.00,0.0186
2185.00,0.0188
2184.00,0.0186
2183.00,0.0183
2182.00,0.0182
2181.00,0.0182
2180.00,0.0184
2179.00,0.0185
2178.00,0.0186
2177.00,0.0187
2176.00,0.0188
2175.00,0.0187
2174.00,0.0187
2173.00,0.0186
2172.00,0.0186
2171.00,0.0187
2170.00,0.0190
2169.00,0.0192
2168.00,0.0194
2167.00,0.0194
2166.00,0.0195
2165.00,0.0196
2164.00,0.0196
2163.00,0.0197
2162.00,0.0196
2161.00,0.0193
2160.00,0.0187
2159.00,0.0181
2158.00,0.0178
2157.00,0.0177
2156.00,0.0178
2155.00,0.0179
2154.00,0.0181
2153.00,0.0182
2152.00,0.0182
2151.00,0.0181
2150.00,0.0178
2149.00,0.0177
2148.00,0.0178
2147.00,0.0180
2146.00,0.0182
2145.00,0.0183
2144.00,0.0183
2143.00,0.0183
2142.00,0.0185
2141.00,0.0187
2140.00,0.0187
2139.00,0.0186
2138.00,0.0184
2137.00,0.0181
2136.00,0.0179
2135.00,0.0177
2134.00,0.0176
2133.00,0.0176
2132.00,0.0176
2131.00,0.0176
2130.00,0.0178
2129.00,0.0180
2128.00,0.0183
2127.00,0.0184
2126.00,0.0183
2125.00,0.0182
2124.00,0.0180
2123.00,0.0178
2122.00,0.0177
2121.00,0.0177
2120.00,0.0177
2119.00,0.0177
2118.00,0.0177
2117.00,0.0177
2116.00,0.0177
2115.00,0.0176
2114.00,0.0174
2113.00,0.0174
2112.00,0.0174
2111.00,0.0175
2110.00,0.0177
2109.00,0.0179
2108.00,0.0181
2107.00,0.0182
2106.00,0.0182
2105.00,0.0182
2104.00,0.0181
2103.00,0.0181
2102.00,0.0181
2101.00,0.0180
2100.00,0.0179
2099.00,0.0176
2098.00,0.0174
2097.00,0.0174
2096.00,0.0174
2095.00,0.0175
2094.00,0.0176
2093.00,0.0177
2092.00,0.0177
2091.00,0.0176
2090.00,0.0175
2089.00,0.0175
2088.00,0.0175
2087.00,0.0175
2086.00,0.0177
2085.00,0.0178
2084.00,0.0179
2083.00,0.0179
2082.00,0.0179
2081.00,0.0178
2080.00,0.0178
2079.00,0.0179
2078.00,0.0178
2077.00,0.0178
2076.00,0.0178
2075.00,0.0179
2074.00,0.0179
2073.00,0.0178
2072.00,0.0177
2071.00,0.0177
2070.00,0.0178
2069.00,0.0177
2068.00,0.0176
2067.00,0.0174
2066.00,0.0174
2065.00,0.0175
2064.00,0.0176
2063.00,0.0177
2062.00,0.0178
2061.00,0.0179
2060.00,0.0178
2059.00,0.0176
2058.00,0.0175
2057.00,0.0175
2056.00,0.0175
2055.00,0.0175
2054.00,0.0177
2053.00,0.0180
2052.00,0.0181
2051.00,0.0181
2050.00,0.0179
2049.00,0.0177
2048.00,0.0175
2047.00,0.0176
2046.00,0.0178
2045.00,0.0180
2044.00,0.0182
2043.00,0.0182
2042.00,0.0181
2041.00,0.0179
2040.00,0.0177
2039.00,0.0176
2038.00,0.0176
2037.00,0.0178
2036.00,0.0180
2035.00,0.0180
2034.00,0.0178
2033.00,0.0177
2032.00,0.0179
2031.00,0.0182
2030.00,0.0184
2029.00,0.0182
2028.00,0.0180
2027.00,0.0178
2026.00,0.0178
2025.00,0.0177
2024.00,0.0174
2023.00,0.0170
2022.00,0.0168
2021.00,0.0167
2020.00,0.0166
2019.00,0.0165
2018.00,0.0163
2017.00,0.0162
2016.00,0.0164
2015.00,0.0167
2014.00,0.0170
2013.00,0.0171
2012.00,0.0171
2011.00,0.0170
2010.00,0.0170
2009.00,0.0171
2008.00,0.0171
2007.00,0.0171
2006.00,0.0171
2005.00,0.0170
2004.00,0.0169
2003.00,0.0170
2002.00,0.0174
2001.00,0.0177
2000.00,0.0177
1999.00,0.0176
1998.00,0.0174
1997.00,0.0174
1996.00,0.0176
1995.00,0.0179
1994.00,0.0181
1993.00,0.0182
1992.00,0.0180
1991.00,0.0176
1990.00,0.0172
1989.00,0.0169
1988.00,0.0169
1987.00,0.0169
1986.00,0.0170
1985.00,0.0171
1984.00,0.0171
1983.00,0.0172
1982.00,0.0172
1981.00,0.0172
1980.00,0.0170
1979.00,0.0167
1978.00,0.0163
1977.00,0.0160
1976.00,0.0160
1975.00,0.0163
1974.00,0.0166
1973.00,0.0168
1972.00,0.0167
1971.00,0.0165
1970.00,0.0166
1969.00,0.0168
1968.00,0.0171
1967.00,0.0170
1966.00,0.0168
1965.00,0.0165
1964.00,0.0165
1963.00,0.0165
1962.00,0.0164
1961.00,0.0164
1960.00,0.0165
1959.00,0.0167
1958.00,0.0167
1957.00,0.0166
1956.00,0.0164
1955.00,0.0163
1954.00,0.0163
1953.00,0.0163
1952.00,0.0162
1951.00,0.0161
1950.00,0.0159
1949.00,0.0158
1948.00,0.0158
1947.00,0.0159
1946.00,0.0160
1945.00,0.0160
1944.00,0.0159
1943.00,0.0157
1942.00,0.0155
1941.00,0.0155
1940.00,0.0154
1939.00,0.0153
1938.00,0.0153
1937.00,0.0154
1936.00,0.0155
1935.00,0.0155
1934.00,0.0154
1933.00,0.0154
1932.00,0.0154
1931.00,0.0155
1930.00,0.0157
1929.00,0.0159
1928.00,0.0160
1927.00,0.0161
1926.00,0.0161
1925.00,0.0161
1924.00,0.0160
1923.00,0.0159
1922.00,0.0157
1921.00,0.0156
1920.00,0.0156
1919.00,0.0154
1918.00,0.0153
1917.00,0.0153
1916.00,0.0153
1915.00,0.0153
1914.00,0.0154
1913.00,0.0154
1912.00,0.0154
1911.00,0.0154
1910.00,0.0153
1909.00,0.0151
1908.00,0.0149
1907.00,0.0149
1906.00,0.0149
1905.00,0.0150
1904.00,0.0151
1903.00,0.0151
1902.00,0.0151
1901.00,0.0151
1900.00,0.0150
1899.00,0.0150
1898.00,0.0151
1897.00,0.0151
1896.00,0.0150
1895.00,0.0148
1894.00,0.0147
1893.00,0.0147
1892.00,0.0148
1891.00,0.0149
1890.00,0.0148
1889.00,0.0148
1888.00,0.0147
1887.00,0.0147
1886.00,0.0147
1885.00,0.0147
1884.00,0.0148
1883.00,0.0147
1882.00,0.0147
1881.00,0.0146
1880.00,0.0146
1879.00,0.0145
1878.00,0.0144
1877.00,0.0144
1876.00,0.0144
1875.00,0.0144
1874.00,0.0145
1873.00,0.0146
1872.00,0.0147
1871.00,0.0147
1870.00,0.0147
1869.00,0.0146
1868.00,0.0144
1867.00,0.0142
1866.00,0.0142
1865.00,0.0142
1864.00,0.0141
1863.00,0.0141
1862.00,0.0140
1861.00,0.0139
1860.00,0.0139
1859.00,0.0138
1858.00,0.0138
1857.00,0.0139
1856.00,0.0139
1855.00,0.0140
1854.00,0.0139
1853.00,0.0138
1852.00,0.0138
1851.00,0.0138
1850.00,0.0138
1849.00,0.0139
1848.00,0.0139
1847.00,0.0139
1846.00,0.0139
1845.00,0.0139
1844.00,0.0137
1843.00,0.0135
1842.00,0.0135
1841.00,0.0136
1840.00,0.0136
1839.00,0.0136
1838.00,0.0135
1837.00,0.0135
1836.00,0.0135
1835.00,0.0134
1834.00,0.0134
1833.00,0.0134
1832.00,0.0135
1831.00,0.0136
1830.00,0.0135
1829.00,0.0133
1828.00,0.0132
1827.00,0.0132
1826.00,0.0131
1825.00,0.0130
1824.00,0.0129
1823.00,0.0129
1822.00,0.0129
1821.00,0.0129
1820.00,0.0129
1819.00,0.0128
1818.00,0.0127
1817.00,0.0127
1816.00,0.0127
1815.00,0.0126
1814.00,0.0127
1813.00,0.0127
1812.00,0.0127
1811.00,0.0126
1810.00,0.0125
1809.00,0.0125
1808.00,0.0125
1807.00,0.0125
1806.00,0.0125
1805.00,0.0126
1804.00,0.0126
1803.00,0.0127
1802.00,0.0127
1801.00,0.0127
1800.00,0.0126
1799.00,0.0125
1798.00,0.0125
1797.00,0.0126
1796.00,0.0127
1795.00,0.0127
1794.00,0.0128
1793.00,0.0128
1792.00,0.0128
1791.00,0.0127
1790.00,0.0126
1789.00,0.0127
1788.00,0.0128
1787.00,0.0130
1786.00,0.0131
1785.00,0.0132
1784.00,0.0132
1783.00,0.0132
1782.00,0.0133
1781.00,0.0132
1780.00,0.0132
1779.00,0.0133
1778.00,0.0134
1777.00,0.0136
1776.00,0.0138
1775.00,0.0139
1774.00,0.0140
1773.00,0.0140
1772.00,0.0139
1771.00,0.0138
1770.00,0.0140
1769.00,0.0142
1768.00,0.0143
1767.00,0.0143
1766.00,0.0144
1765.00,0.0145
1764.00,0.0146
1763.00,0.0146
1762.00,0.0146
1761.00,0.0146
1760.00,0.0146
1759.00,0.0147
1758.00,0.0148
1757.00,0.0148
1756.00,0.0149
1755.00,0.0151
1754.00,0.0153
1753.00,0.0154
1752.00,0.0155
1751.00,0.0156
1750.00,0.0155
1749.00,0.0155
1748.00,0.0155
1747.00,0.0156
1746.00,0.0158
1745.00,0.0160
1744.00,0.0162
1743.00,0.0163
1742.00,0.0164
1741.00,0.0166
1740.00,0.0168
1739.00,0.0169
1738.00,0.0171
1737.00,0.0173
1736.00,0.0176
1735.00,0.0179
1734.00,0.0181
1733.00,0.0181
1732.00,0.0181
1731.00,0.0182
1730.00,0.0183
1729.00,0.0184
1728.00,0.0186
1727.00,0.0188
1726.00,0.0191
1725.00,0.0193
1724.00,0.0196
1723.00,0.0197
1722.00,0.0199
1721.00,0.0200
1720.00,0.0200
1719.00,0.0202
1718.00,0.0204
1717.00,0.0206
1716.00,0.0207
1715.00,0.0209
1714.00,0.0210
1713.00,0.0212
1712.00,0.0213
1711.00,0.0214
1710.00,0.0214
1709.00,0.0215
1708.00,0.0216
1707.00,0.0216
1706.00,0.0216
1705.00,0.0217
1704.00,0.0218
1703.00,0.0219
1702.00,0.0220
1701.00,0.0222
1700.00,0.0224
1699.00,0.0224
1698.00,0.0224
1697.00,0.0225
1696.00,0.0223
1695.00,0.0223
1694.00,0.0224
1693.00,0.0225
1692.00,0.0225
1691.00,0.0226
1690.00,0.0226
1689.00,0.0227
1688.00,0.0227
1687.00,0.0227
1686.00,0.0226
1685.00,0.0227
1684.00,0.0226
1683.00,0.0226
1682.00,0.0228
1681.00,0.0229
1680.00,0.0229
1679.00,0.0230
1678.00,0.0232
1677.00,0.0234
1676.00,0.0237
1675.00,0.0239
1674.00,0.0240
1673.00,0.0240
1672.00,0.0240
1671.00,0.0240
1670.00,0.0240
1669.00,0.0241
1668.00,0.0242
1667.00,0.0243
1666.00,0.0243
1665.00,0.0244
1664.00,0.0245
1663.00,0.0246
1662.00,0.0247
1661.00,0.0249
1660.00,0.0251
1659.00,0.0253
1658.00,0.0255
1657.00,0.0255
1656.00,0.0254
1655.00,0.0252
1654.00,0.0252
1653.00,0.0254
1652.00,0.0256
1651.00,0.0260
1650.00,0.0261
1649.00,0.0261
1648.00,0.0262
1647.00,0.0264
1646.00,0.0266
1645.00,0.0269
1644.00,0.0272
1643.00,0.0273
1642.00,0.0274
1641.00,0.0274
1640.00,0.0275
1639.00,0.0275
1638.00,0.0275
1637.00,0.0277
1636.00,0.0280
1635.00,0.0282
1634.00,0.0284
1633.00,0.0285
1632.00,0.0285
1631.00,0.0285
1630.00,0.0285
1629.00,0.0287
1628.00,0.0288
1627.00,0.0290
1626.00,0.0292
1625.00,0.0295
1624.00,0.0297
1623.00,0.0299
1622.00,0.0300
1621.00,0.0300
1620.00,0.0300
1619.00,0.0300
1618.00,0.0301
1617.00,0.0303
1616.00,0.0305
1615.00,0.0307
1614.00,0.0308
1613.00,0.0309
1612.00,0.0310
1611.00,0.0311
1610.00,0.0313
1609.00,0.0314
1608.00,0.0314
1607.00,0.0316
1606.00,0.0317
1605.00,0.0319
1604.00,0.0320
1603.00,0.0321
1602.00,0.0322
1601.00,0.0322
1600.00,0.0322
1599.00,0.0323
1598.00,0.0325
1597.00,0.0326
1596.00,0.0328
1595.00,0.0329
1594.00,0.0331
1593.00,0.0331
1592.00,0.0332
1591.00,0.0333
1590.00,0.0333
1589.00,0.0334
1588.00,0.0336
1587.00,0.0338
1586.00,0.0339
1585.00,0.0340
1584.00,0.0341
1583.00,0.0342
1582.00,0.0342
1581.00,0.0342
1580.00,0.0342
1579.00,0.0343
1578.00,0.0343
1577.00,0.0345
1576.00,0.0346
1575.00,0.0346
1574.00,0.0346
1573.00,0.0345
1572.00,0.0344
1571.00,0.0345
1570.00,0.0346
1569.00,0.0347
1568.00,0.0347
1567.00,0.0347
1566.00,0.0346
1565.00,0.0345
1564.00,0.0344
1563.00,0.0342
1562.00,0.0339
1561.00,0.0335
1560.00,0.0337
1559.00,0.0342
1558.00,0.0342
1557.00,0.0342
1556.00,0.0341
1555.00,0.0341
1554.00,0.0340
1553.00,0.0340
1552.00,0.0340
1551.00,0.0338
1550.00,0.0336
1549.00,0.0333
1548.00,0.0331
1547.00,0.0330
1546.00,0.0328
1545.00,0.0327
1544.00,0.0325
1543.00,0.0323
1542.00,0.0321
1541.00,0.0319
1540.00,0.0315
1539.00,0.0311
1538.00,0.0310
1537.00,0.0311
1536.00,0.0310
1535.00,0.0309
1534.00,0.0308
1533.00,0.0307
1532.00,0.0305
1531.00,0.0304
1530.00,0.0303
1529.00,0.0301
1528.00,0.0300
1527.00,0.0299
1526.00,0.0298
1525.00,0.0296
1524.00,0.0295
1523.00,0.0293
1522.00,0.0291
1521.00,0.0289
1520.00,0.0289
1519.00,0.0289
1518.00,0.0287
1517.00,0.0284
1516.00,0.0282
1515.00,0.0281
1514.00,0.0280
1513.00,0.0280
1512.00,0.0279
1511.00,0.0278
1510.00,0.0277
1509.00,0.0275
1508.00,0.0274
1507.00,0.0270
1506.00,0.0266
1505.00,0.0266
1504.00,0.0268
1503.00,0.0267
1502.00,0.0265
1501.00,0.0264
1500.00,0.0263
1499.00,0.0262
1498.00,0.0262
1497.00,0.0262
1496.00,0.0262
1495.00,0.0260
1494.00,0.0259
1493.00,0.0257
1492.00,0.0257
1491.00,0.0257
1490.00,0.0257
1489.00,0.0256
1488.00,0.0255
1487.00,0.0253
1486.00,0.0252
1485.00,0.0251
1484.00,0.0251
1483.00,0.0250
1482.00,0.0250
1481.00,0.0251
1480.00,0.0250
1479.00,0.0250
1478.00,0.0249
1477.00,0.0250
1476.00,0.0251
1475.00,0.0251
1474.00,0.0252
1473.00,0.0253
1472.00,0.0253
1471.00,0.0254
1470.00,0.0256
1469.00,0.0257
1468.00,0.0258
1467.00,0.0258
1466.00,0.0258
1465.00,0.0258
1464.00,0.0258
1463.00,0.0257
1462.00,0.0257
1461.00,0.0256
1460.00,0.0256
1459.00,0.0257
1458.00,0.0260
1457.00,0.0263
1456.00,0.0264
1455.00,0.0265
1454.00,0.0265
1453.00,0.0265
1452.00,0.0266
1451.00,0.0267
1450.00,0.0268
1449.00,0.0270
1448.00,0.0271
1447.00,0.0272
1446.00,0.0273
1445.00,0.0273
1444.00,0.0273
1443.00,0.0273
1442.00,0.0274
1441.00,0.0274
1440.00,0.0275
1439.00,0.0277
1438.00,0.0279
1437.00,0.0282
1436.00,0.0284
1435.00,0.0284
1434.00,0.0283
1433.00,0.0283
1432.00,0.0283
1431.00,0.0283
1430.00,0.0283
1429.00,0.0283
1428.00,0.0284
1427.00,0.0285
1426.00,0.0286
1425.00,0.0287
1424.00,0.0288
1423.00,0.0288
1422.00,0.0289
1421.00,0.0290
1420.00,0.0292
1419.00,0.0294
1418.00,0.0295
1417.00,0.0295
1416.00,0.0295
1415.00,0.0295
1414.00,0.0294
1413.00,0.0293
1412.00,0.0293
1411.00,0.0293
1410.00,0.0293
1409.00,0.0293
1408.00,0.0293
1407.00,0.0294
1406.00,0.0294
1405.00,0.0294
1404.00,0.0294
1403.00,0.0293
1402.00,0.0292
1401.00,0.0291
1400.00,0.0291
1399.00,0.0292
1398.00,0.0292
1397.00,0.0292
1396.00,0.0292
1395.00,0.0292
1394.00,0.0293
1393.00,0.0293
1392.00,0.0294
1391.00,0.0294
1390.00,0.0295
1389.00,0.0295
1388.00,0.0296
1387.00,0.0297
1386.00,0.0297
1385.00,0.0297
1384.00,0.0296
1383.00,0.0296
1382.00,0.0298
1381.00,0.0299
1380.00,0.0300
1379.00,0.0302
1378.00,0.0302
1377.00,0.0303
1376.00,0.0304
1375.00,0.0306
1374.00,0.0306
1373.00,0.0307
1372.00,0.0309
1371.00,0.0310
1370.00,0.0310
1369.00,0.0311
1368.00,0.0311
1367.00,0.0312
1366.00,0.0311
1365.00,0.0311
1364.00,0.0311
1363.00,0.0312
1362.00,0.0313
1361.00,0.0313
1360.00,0.0314
1359.00,0.0314
1358.00,0.0314
1357.00,0.0314
1356.00,0.0315
1355.00,0.0315
1354.00,0.0315
1353.00,0.0315
1352.00,0.0314
1351.00,0.0313
1350.00,0.0312
1349.00,0.0312
1348.00,0.0312
1347.00,0.0312
1346.00,0.0312
1345.00,0.0311
1344.00,0.0310
1343.00,0.0310
1342.00,0.0310
1341.00,0.0311
1340.00,0.0313
1339.00,0.0314
1338.00,0.0313
1337.00,0.0312
1336.00,0.0311
1335.00,0.0311
1334.00,0.0310
1333.00,0.0310
1332.00,0.0309
1331.00,0.0309
1330.00,0.0309
1329.00,0.0309
1328.00,0.0309
1327.00,0.0308
1326.00,0.0308
1325.00,0.0308
1324.00,0.0308
1323.00,0.0309
1322.00,0.0310
1321.00,0.0311
1320.00,0.0311
1319.00,0.0311
1318.00,0.0309
1317.00,0.0308
1316.00,0.0308
1315.00,0.0307
1314.00,0.0308
1313.00,0.0308
1312.00,0.0309
1311.00,0.0310
1310.00,0.0310
1309.00,0.0311
1308.00,0.0310
1307.00,0.0310
1306.00,0.0309
1305.00,0.0309
1304.00,0.0310
1303.00,0.0311
1302.00,0.0311
1301.00,0.0311
1300.00,0.0311
1299.00,0.0311
1298.00,0.0310
1297.00,0.0310
1296.00,0.0310
1295.00,0.0310
1294.00,0.0311
1293.00,0.0312
1292.00,0.0313
1291.00,0.0313
1290.00,0.0314
1289.00,0.0314
1288.00,0.0315
1287.00,0.0315
1286.00,0.0315
1285.00,0.0315
1284.00,0.0316
1283.00,0.0316
1282.00,0.0316
1281.00,0.0316
1280.00,0.0316
1279.00,0.0316
1278.00,0.0316
1277.00,0.0316
1276.00,0.0316
1275.00,0.0317
1274.00,0.0317
1273.00,0.0317
1272.00,0.0317
1271.00,0.0318
1270.00,0.0318
1269.00,0.0319
1268.00,0.0319
1267.00,0.0320
1266.00,0.0321
1265.00,0.0321
1264.00,0.0322
1263.00,0.0322
1262.00,0.0322
1261.00,0.0322
1260.00,0.0323
1259.00,0.0324
1258.00,0.0325
1257.00,0.0326
1256.00,0.0326
1255.00,0.0326
1254.00,0.0326
1253.00,0.0328
1252.00,0.0329
1251.00,0.0330
1250.00,0.0330
1249.00,0.0330
1248.00,0.0331
1247.00,0.0333
1246.00,0.0335
1245.00,0.0337
1244.00,0.0338
1243.00,0.0339
1242.00,0.0340
1241.00,0.0340
1240.00,0.0340
1239.00,0.0340
1238.00,0.0342
1237.00,0.0343
1236.00,0.0345
1235.00,0.0346
1234.00,0.0347
1233.00,0.0347
1232.00,0.0348
1231.00,0.0348
1230.00,0.0349
1229.00,0.0349
1228.00,0.0350
1227.00,0.0351
1226.00,0.0352
1225.00,0.0352
1224.00,0.0351
1223.00,0.0351
1222.00,0.0352
1221.00,0.0354
1220.00,0.0355
1219.00,0.0355
1218.00,0.0356
1217.00,0.0356
1216.00,0.0357
1215.00,0.0357
1214.00,0.0358
1213.00,0.0359
1212.00,0.0360
1211.00,0.0361
1210.00,0.0362
1209.00,0.0363
1208.00,0.0363
1207.00,0.0364
1206.00,0.0364
1205.00,0.0364
1204.00,0.0364
1203.00,0.0364
1202.00,0.0364
1201.00,0.0365
1200.00,0.0366
1199.00,0.0367
1198.00,0.0367
1197.00,0.0367
1196.00,0.0367
1195.00,0.0367
1194.00,0.0367
1193.00,0.0368
1192.00,0.0369
1191.00,0.0370
1190.00,0.0369
1189.00,0.0369
1188.00,0.0368
1187.00,0.0369
1186.00,0.0370
1185.00,0.0370
1184.00,0.0370
1183.00,0.0369
1182.00,0.0368
1181.00,0.0367
1180.00,0.0366
1179.00,0.0366
1178.00,0.0367
1177.00,0.0368
1176.00,0.0369
1175.00,0.0370
1174.00,0.0371
1173.00,0.0371
1172.00,0.0371
1171.00,0.0371
1170.00,0.0371
1169.00,0.0371
1168.00,0.0372
1167.00,0.0373
1166.00,0.0374
1165.00,0.0375
1164.00,0.0376
1163.00,0.0376
1162.00,0.0376
1161.00,0.0376
1160.00,0.0375
1159.00,0.0375
1158.00,0.0374
1157.00,0.0374
1156.00,0.0375
1155.00,0.0377
1154.00,0.0378
1153.00,0.0379
1152.00,0.0378
1151.00,0.0377
1150.00,0.0377
1149.00,0.0377
1148.00,0.0378
1147.00,0.0380
1146.00,0.0381
1145.00,0.0382
1144.00,0.0384
1143.00,0.0385
1142.00,0.0387
1141.00,0.0389
1140.00,0.0391
1139.00,0.0392
1138.00,0.0394
1137.00,0.0395
1136.00,0.0398
1135.00,0.0401
1134.00,0.0404
1133.00,0.0406
1132.00,0.0408
1131.00,0.0410
1130.00,0.0413
1129.00,0.0417
1128.00,0.0421
1127.00,0.0423
1126.00,0.0425
1125.00,0.0427
1124.00,0.0430
1123.00,0.0437
1122.00,0.0445
1121.00,0.0453
1120.00,0.0461
1119.00,0.0466
1118.00,0.0470
1117.00,0.0473
1116.00,0.0477
1115.00,0.0480
1114.00,0.0483
1113.00,0.0485
1112.00,0.0486
1111.00,0.0488
1110.00,0.0490
1109.00,0.0493
1108.00,0.0497
1107.00,0.0500
1106.00,0.0502
1105.00,0.0505
1104.00,0.0508
1103.00,0.0512
1102.00,0.0517
1101.00,0.0520
1100.00,0.0523
1099.00,0.0525
1098.00,0.0527
1097.00,0.0529
1096.00,0.0530
1095.00,0.0531
1094.00,0.0531
1093.00,0.0533
1092.00,0.0536
1091.00,0.0538
1090.00,0.0538
1089.00,0.0537
1088.00,0.0536
1087.00,0.0536
1086.00,0.0537
1085.00,0.0539
1084.00,0.0541
1083.00,0.0542
1082.00,0.0543
1081.00,0.0544
1080.00,0.0545
1079.00,0.0547
1078.00,0.0550
1077.00,0.0552
1076.00,0.0553
1075.00,0.0551
1074.00,0.0548
1073.00,0.0546
1072.00,0.0546
1071.00,0.0546
1070.00,0.0545
1069.00,0.0545
1068.00,0.0545
1067.00,0.0548
1066.00,0.0551
1065.00,0.0555
1064.00,0.0558
1063.00,0.0560
1062.00,0.0560
1061.00,0.0559
1060.00,0.0559
1059.00,0.0560
1058.00,0.0563
1057.00,0.0567
1056.00,0.0571
1055.00,0.0573
1054.00,0.0576
1053.00,0.0578
1052.00,0.0581
1051.00,0.0582
1050.00,0.0584
1049.00,0.0587
1048.00,0.0591
1047.00,0.0594
1046.00,0.0597
1045.00,0.0600
1044.00,0.0604
1043.00,0.0607
1042.00,0.0609
1041.00,0.0611
1040.00,0.0614
1039.00,0.0619
1038.00,0.0625
1037.00,0.0630
1036.00,0.0635
1035.00,0.0638
1034.00,0.0639
1033.00,0.0641
1032.00,0.0641
1031.00,0.0640
1030.00,0.0636
1029.00,0.0631
1028.00,0.0625
1027.00,0.0619
1026.00,0.0613
1025.00,0.0608
1024.00,0.0603
1023.00,0.0599
1022.00,0.0594
1021.00,0.0591
1020.00,0.0588
1019.00,0.0585
1018.00,0.0584
1017.00,0.0583
1016.00,0.0584
1015.00,0.0587
1014.00,0.0589
1013.00,0.0592
1012.00,0.0594
1011.00,0.0596
1010.00,0.0599
1009.00,0.0600
1008.00,0.0601
1007.00,0.0601
1006.00,0.0600
1005.00,0.0599
1004.00,0.0599
1003.00,0.0597
1002.00,0.0594
1001.00,0.0588
1000.00,0.0580
999.00,0.0570
998.00,0.0561
997.00,0.0553
996.00,0.0546
995.00,0.0540
994.00,0.0532
993.00,0.0524
992.00,0.0516
991.00,0.0508
990.00,0.0502
989.00,0.0496
988.00,0.0491
987.00,0.0488
986.00,0.0484
985.00,0.0481
984.00,0.0476
983.00,0.0470
982.00,0.0464
981.00,0.0459
980.00,0.0455
979.00,0.0452
978.00,0.0447
977.00,0.0442
976.00,0.0438
975.00,0.0434
974.00,0.0432
973.00,0.0430
972.00,0.0427
971.00,0.0424
970.00,0.0420
969.00,0.0416
968.00,0.0413
967.00,0.0410
966.00,0.0408
965.00,0.0406
964.00,0.0404
963.00,0.0403
962.00,0.0402
961.00,0.0401
960.00,0.0399
959.00,0.0397
958.00,0.0394
957.00,0.0392
956.00,0.0391
955.00,0.0390
954.00,0.0390
953.00,0.0389
952.00,0.0390
951.00,0.0391
950.00,0.0392
949.00,0.0393
948.00,0.0392
947.00,0.0392
946.00,0.0392
945.00,0.0392
944.00,0.0393
943.00,0.0394
942.00,0.0395
941.00,0.0397
940.00,0.0400
939.00,0.0402
938.00,0.0405
937.00,0.0405
936.00,0.0404
935.00,0.0403
934.00,0.0401
933.00,0.0401
932.00,0.0402
931.00,0.0403
930.00,0.0404
929.00,0.0404
928.00,0.0406
927.00,0.0408
926.00,0.0410
925.00,0.0412
924.00,0.0414
923.00,0.0415
922.00,0.0416
921.00,0.0418
920.00,0.0420
919.00,0.0424
918.00,0.0428
917.00,0.0432
916.00,0.0437
915.00,0.0440
914.00,0.0442
913.00,0.0442
912.00,0.0441
911.00,0.0439
910.00,0.0436
909.00,0.0432
908.00,0.0426
907.00,0.0421
906.00,0.0418
905.00,0.0416
904.00,0.0416
903.00,0.0417
902.00,0.0416
901.00,0.0414
900.00,0.0410
899.00,0.0406
898.00,0.0404
897.00,0.0402
896.00,0.0401
895.00,0.0398
894.00,0.0395
893.00,0.0392
892.00,0.0389
891.00,0.0387
890.00,0.0386
889.00,0.0385
888.00,0.0384
887.00,0.0381
886.00,0.0377
885.00,0.0375
884.00,0.0375
883.00,0.0376
882.00,0.0377
881.00,0.0376
880.00,0.0374
879.00,0.0371
878.00,0.0369
877.00,0.0365
876.00,0.0362
875.00,0.0360
874.00,0.0359
873.00,0.0360
872.00,0.0360
871.00,0.0361
870.00,0.0362
869.00,0.0361
868.00,0.0359
867.00,0.0356
866.00,0.0355
865.00,0.0356
864.00,0.0357
863.00,0.0357
862.00,0.0357
861.00,0.0357
860.00,0.0356
859.00,0.0354
858.00,0.0352
857.00,0.0350
856.00,0.0350
855.00,0.0352
854.00,0.0355
853.00,0.0356
852.00,0.0356
851.00,0.0356
850.00,0.0357
849.00,0.0359
848.00,0.0361
847.00,0.0364
846.00,0.0366
845.00,0.0369
844.00,0.0370
843.00,0.0369
842.00,0.0367
841.00,0.0366
840.00,0.0364
839.00,0.0363
838.00,0.0363
837.00,0.0364
836.00,0.0367
835.00,0.0369
834.00,0.0370
833.00,0.0370
832.00,0.0370
831.00,0.0371
830.00,0.0371
829.00,0.0371
828.00,0.0372
827.00,0.0374
826.00,0.0377
825.00,0.0381
824.00,0.0385
823.00,0.0387
822.00,0.0388
821.00,0.0389
820.00,0.0390
819.00,0.0391
818.00,0.0391
817.00,0.0390
816.00,0.0388
815.00,0.0388
814.00,0.0391
813.00,0.0395
812.00,0.0399
811.00,0.0401
810.00,0.0402
809.00,0.0404
808.00,0.0406
807.00,0.0408
806.00,0.0411
805.00,0.0414
804.00,0.0418
803.00,0.0421
802.00,0.0426
801.00,0.0431
800.00,0.0437
799.00,0.0442
798.00,0.0444
797.00,0.0443
796.00,0.0442
795.00,0.0439
794.00,0.0438
793.00,0.0437
792.00,0.0438
791.00,0.0441
790.00,0.0444
789.00,0.0445
788.00,0.0444
787.00,0.0443
786.00,0.0444
785.00,0.0446
784.00,0.0449
783.00,0.0450
782.00,0.0450
781.00,0.0449
780.00,0.0449
779.00,0.0449
778.00,0.0450
777.00,0.0451
776.00,0.0451
775.00,0.0450
774.00,0.0446
773.00,0.0442
772.00,0.0439
771.00,0.0440
770.00,0.0441
769.00,0.0444
768.00,0.0446
767.00,0.0446
766.00,0.0445
765.00,0.0444
764.00,0.0443
763.00,0.0443
762.00,0.0442
761.00,0.0441
760.00,0.0442
759.00,0.0445
758.00,0.0449
757.00,0.0453
756.00,0.0456
755.00,0.0456
754.00,0.0455
753.00,0.0455
752.00,0.0456
751.00,0.0458
750.00,0.0460
749.00,0.0462
748.00,0.0464
747.00,0.0465
746.00,0.0465
745.00,0.0462
744.00,0.0459
743.00,0.0456
742.00,0.0455
741.00,0.0454
740.00,0.0453
739.00,0.0452
738.00,0.0452
737.00,0.0452
736.00,0.0452
735.00,0.0449
734.00,0.0447
733.00,0.0446
732.00,0.0446
731.00,0.0447
730.00,0.0449
729.00,0.0452
728.00,0.0456
727.00,0.0460
726.00,0.0463
725.00,0.0465
724.00,0.0464
723.00,0.0461
722.00,0.0459
721.00,0.0459
720.00,0.0461
719.00,0.0462
718.00,0.0463
717.00,0.0464
716.00,0.0465
715.00,0.0466
714.00,0.0467
713.00,0.0469
712.00,0.0471
711.00,0.0472
710.00,0.0473
709.00,0.0474
708.00,0.0478
707.00,0.0482
706.00,0.0488
705.00,0.0494
704.00,0.0500
703.00,0.0504
702.00,0.0506
701.00,0.0507
700.00,0.0509
699.00,0.0512
698.00,0.0516
697.00,0.0520
696.00,0.0523
695.00,0.0525
694.00,0.0527
693.00,0.0528
692.00,0.0528
691.00,0.0528
690.00,0.0529
689.00,0.0531
688.00,0.0531
687.00,0.0530
686.00,0.0528
685.00,0.0527
684.00,0.0526
683.00,0.0524
682.00,0.0519
681.00,0.0517
680.00,0.0517
679.00,0.0520
678.00,0.0522
677.00,0.0523
676.00,0.0523
675.00,0.0522
674.00,0.0520
673.00,0.0520
672.00,0.0522
671.00,0.0524
670.00,0.0525
669.00,0.0527
668.00,0.0532
667.00,0.0537
666.00,0.0540
665.00,0.0541
664.00,0.0539
663.00,0.0534
662.00,0.0528
661.00,0.0523
660.00,0.0520
659.00,0.0520
658.00,0.0523
657.00,0.0527
656.00,0.0532
655.00,0.0531
654.00,0.0527
653.00,0.0509
652.00,0.0503
651.00,0.0505
650.00,0.0509
