Created as New Dataset,Monday, April 03 2023
cm-1,A
4000.00,0.0678
3999.00,0.0678
3998.00,0.0678
3997.00,0.0678
3996.00,0.0678
3995.00,0.0678
3994.00,0.0678
3993.00,0.0678
3992.00,0.0678
3991.00,0.0677
3990.00,0.0677
3989.00,0.0677
3988.00,0.0677
3987.00,0.0677
3986.00,0.0677
3985.00,0.0677
3984.00,0.0677
3983.00,0.0676
3982.00,0.0676
3981.00,0.0676
3980.00,0.0676
3979.00,0.0676
3978.00,0.0676
3977.00,0.0676
3976.00,0.0676
3975.00,0.0676
3974.00,0.0676
3973.00,0.0675
3972.00,0.0675
3971.00,0.0675
3970.00,0.0675
3969.00,0.0675
3968.00,0.0675
3967.00,0.0675
3966.00,0.0675
3965.00,0.0676
3964.00,0.0676
3963.00,0.0676
3962.00,0.0675
3961.00,0.0675
3960.00,0.0675
3959.00,0.0675
3958.00,0.0674
3957.00,0.0674
3956.00,0.0673
3955.00,0.0673
3954.00,0.0673
3953.00,0.0673
3952.00,0.0673
3951.00,0.0672
3950.00,0.0672
3949.00,0.0672
3948.00,0.0672
3947.00,0.0673
3946.00,0.0674
3945.00,0.0674
3944.00,0.0673
3943.00,0.0672
3942.00,0.0671
3941.00,0.0672
3940.00,0.0673
3939.00,0.0673
3938.00,0.0672
3937.00,0.0672
3936.00,0.0672
3935.00,0.0672
3934.00,0.0673
3933.00,0.0672
3932.00,0.0672
3931.00,0.0672
3930.00,0.0671
3929.00,0.0671
3928.00,0.0671
3927.00,0.0671
3926.00,0.0670
3925.00,0.0669
3924.00,0.0668
3923.00,0.0668
3922.00,0.0669
3921.00,0.0669
3920.00,0.0670
3919.00,0.0671
3918.00,0.0672
3917.00,0.0672
3916.00,0.0671
3915.00,0.0672
3914.00,0.0672
3913.00,0.0672
3912.00,0.0671
3911.00,0.0670
3910.00,0.0670
3909.00,0.0669
3908.00,0.0668
3907.00,0.0667
3906.00,0.0666
3905.00,0.0666
3904.00,0.0666
3903.00,0.0668
3902.00,0.0671
3901.00,0.0672
3900.00,0.0671
3899.00,0.0669
3898.00,0.0669
3897.00,0.0670
3896.00,0.0671
3895.00,0.0671
3894.00,0.0671
3893.00,0.0671
3892.00,0.0669
3891.00,0.0667
3890.00,0.0667
3889.00,0.0669
3888.00,0.0672
3887.00,0.0671
3886.00,0.0669
3885.00,0.0669
3884.00,0.0670
3883.00,0.0672
3882.00,0.0671
3881.00,0.0667
3880.00,0.0664
3879.00,0.0664
3878.00,0.0667
3877.00,0.0669
3876.00,0.0668
3875.00,0.0665
3874.00,0.0664
3873.00,0.0666
3872.00,0.0670
3871.00,0.0670
3870.00,0.0666
3869.00,0.0665
3868.00,0.0668
3867.00,0.0672
3866.00,0.0671
3865.00,0.0668
3864.00,0.0667
3863.00,0.0667
3862.00,0.0668
3861.00,0.0668
3860.00,0.0667
3859.00,0.0666
3858.00,0.0665
3857.00,0.0663
3856.00,0.0664
3855.00,0.0670
3854.00,0.0674
3853.00,0.0670
3852.00,0.0666
3851.00,0.0667
3850.00,0.0669
3849.00,0.0669
3848.00,0.0668
3847.00,0.0668
3846.00,0.0668
3845.00,0.0667
3844.00,0.0665
3843.00,0.0664
3842.00,0.0665
3841.00,0.0666
3840.00,0.0667
3839.00,0.0668
3838.00,0.0668
3837.00,0.0667
3836.00,0.0667
3835.00,0.0668
3834.00,0.0669
3833.00,0.0668
3832.00,0.0668
3831.00,0.0668
3830.00,0.0669
3829.00,0.0670
3828.00,0.0668
3827.00,0.0665
3826.00,0.0663
3825.00,0.0664
3824.00,0.0666
3823.00,0.0669
3822.00,0.0668
3821.00,0.0665
3820.00,0.0665
3819.00,0.0669
3818.00,0.0673
3817.00,0.0671
3816.00,0.0667
3815.00,0.0665
3814.00,0.0667
3813.00,0.0669
3812.00,0.0667
3811.00,0.0665
3810.00,0.0665
3809.00,0.0667
3808.00,0.0668
3807.00,0.0667
3806.00,0.0666
3805.00,0.0668
3804.00,0.0671
3803.00,0.0671
3802.00,0.0667
3801.00,0.0664
3800.00,0.0665
3799.00,0.0668
3798.00,0.0668
3797.00,0.0666
3796.00,0.0664
3795.00,0.0665
3794.00,0.0666
3793.00,0.0667
3792.00,0.0666
3791.00,0.0665
3790.00,0.0665
3789.00,0.0665
3788.00,0.0665
3787.00,0.0666
3786.00,0.0665
3785.00,0.0664
3784.00,0.0663
3783.00,0.0663
3782.00,0.0664
3781.00,0.0664
3780.00,0.0663
3779.00,0.0662
3778.00,0.0663
3777.00,0.0664
3776.00,0.0664
3775.00,0.0663
3774.00,0.0662
3773.00,0.0663
3772.00,0.0664
3771.00,0.0664
3770.00,0.0664
3769.00,0.0664
3768.00,0.0666
3767.00,0.0666
3766.00,0.0665
3765.00,0.0663
3764.00,0.0663
3763.00,0.0665
3762.00,0.0665
3761.00,0.0664
3760.00,0.0663
3759.00,0.0662
3758.00,0.0662
3757.00,0.0661
3756.00,0.0661
3755.00,0.0661
3754.00,0.0660
3753.00,0.0662
3752.00,0.0666
3751.00,0.0670
3750.00,0.0669
3749.00,0.0667
3748.00,0.0668
3747.00,0.0669
3746.00,0.0668
3745.00,0.0664
3744.00,0.0659
3743.00,0.0659
3742.00,0.0662
3741.00,0.0663
3740.00,0.0660
3739.00,0.0657
3738.00,0.0657
3737.00,0.0657
3736.00,0.0657
3735.00,0.0657
3734.00,0.0657
3733.00,0.0657
3732.00,0.0656
3731.00,0.0656
3730.00,0.0658
3729.00,0.0659
3728.00,0.0658
3727.00,0.0657
3726.00,0.0656
3725.00,0.0657
3724.00,0.0657
3723.00,0.0656
3722.00,0.0655
3721.00,0.0655
3720.00,0.0656
3719.00,0.0657
3718.00,0.0656
3717.00,0.0656
3716.00,0.0657
3715.00,0.0657
3714.00,0.0656
3713.00,0.0656
3712.00,0.0657
3711.00,0.0656
3710.00,0.0655
3709.00,0.0655
3708.00,0.0656
3707.00,0.0657
3706.00,0.0658
3705.00,0.0658
3704.00,0.0659
3703.00,0.0659
3702.00,0.0658
3701.00,0.0658
3700.00,0.0659
3699.00,0.0661
3698.00,0.0662
3697.00,0.0661
3696.00,0.0661
3695.00,0.0660
3694.00,0.0660
3693.00,0.0659
3692.00,0.0659
3691.00,0.0662
3690.00,0.0664
3689.00,0.0663
3688.00,0.0661
3687.00,0.0661
3686.00,0.0663
3685.00,0.0663
3684.00,0.0662
3683.00,0.0660
3682.00,0.0660
3681.00,0.0658
3680.00,0.0656
3679.00,0.0654
3678.00,0.0655
3677.00,0.0658
3676.00,0.0658
3675.00,0.0655
3674.00,0.0656
3673.00,0.0661
3672.00,0.0663
3671.00,0.0661
3670.00,0.0658
3669.00,0.0655
3668.00,0.0656
3667.00,0.0658
3666.00,0.0659
3665.00,0.0658
3664.00,0.0658
3663.00,0.0658
3662.00,0.0658
3661.00,0.0657
3660.00,0.0657
3659.00,0.0658
3658.00,0.0659
3657.00,0.0660
3656.00,0.0659
3655.00,0.0659
3654.00,0.0659
3653.00,0.0658
3652.00,0.0655
3651.00,0.0655
3650.00,0.0660
3649.00,0.0662
3648.00,0.0659
3647.00,0.0657
3646.00,0.0658
3645.00,0.0661
3644.00,0.0663
3643.00,0.0663
3642.00,0.0662
3641.00,0.0662
3640.00,0.0662
3639.00,0.0662
3638.00,0.0661
3637.00,0.0660
3636.00,0.0661
3635.00,0.0660
3634.00,0.0659
3633.00,0.0658
3632.00,0.0659
3631.00,0.0661
3630.00,0.0664
3629.00,0.0665
3628.00,0.0664
3627.00,0.0666
3626.00,0.0669
3625.00,0.0670
3624.00,0.0669
3623.00,0.0669
3622.00,0.0670
3621.00,0.0672
3620.00,0.0673
3619.00,0.0673
3618.00,0.0672
3617.00,0.0673
3616.00,0.0673
3615.00,0.0672
3614.00,0.0671
3613.00,0.0671
3612.00,0.0673
3611.00,0.0676
3610.00,0.0677
3609.00,0.0677
3608.00,0.0676
3607.00,0.0675
3606.00,0.0676
3605.00,0.0676
3604.00,0.0676
3603.00,0.0676
3602.00,0.0676
3601.00,0.0676
3600.00,0.0676
3599.00,0.0676
3598.00,0.0675
3597.00,0.0675
3596.00,0.0675
3595.00,0.0676
3594.00,0.0677
3593.00,0.0678
3592.00,0.0679
3591.00,0.0679
3590.00,0.0679
3589.00,0.0680
3588.00,0.0681
3587.00,0.0681
3586.00,0.0681
3585.00,0.0683
3584.00,0.0684
3583.00,0.0685
3582.00,0.0685
3581.00,0.0686
3580.00,0.0687
3579.00,0.0687
3578.00,0.0687
3577.00,0.0687
3576.00,0.0688
3575.00,0.0689
3574.00,0.0689
3573.00,0.0689
3572.00,0.0688
3571.00,0.0688
3570.00,0.0687
3569.00,0.0688
3568.00,0.0690
3567.00,0.0691
3566.00,0.0691
3565.00,0.0692
3564.00,0.0693
3563.00,0.0694
3562.00,0.0695
3561.00,0.0695
3560.00,0.0696
3559.00,0.0697
3558.00,0.0697
3557.00,0.0698
3556.00,0.0698
3555.00,0.0699
3554.00,0.0699
3553.00,0.0700
3552.00,0.0700
3551.00,0.0701
3550.00,0.0702
3549.00,0.0702
3548.00,0.0703
3547.00,0.0703
3546.00,0.0704
3545.00,0.0705
3544.00,0.0706
3543.00,0.0706
3542.00,0.0706
3541.00,0.0706
3540.00,0.0706
3539.00,0.0707
3538.00,0.0707
3537.00,0.0708
3536.00,0.0709
3535.00,0.0709
3534.00,0.0709
3533.00,0.0709
3532.00,0.0709
3531.00,0.0709
3530.00,0.0709
3529.00,0.0710
3528.00,0.0710
3527.00,0.0711
3526.00,0.0712
3525.00,0.0713
3524.00,0.0714
3523.00,0.0715
3522.00,0.0715
3521.00,0.0716
3520.00,0.0716
3519.00,0.0716
3518.00,0.0716
3517.00,0.0717
3516.00,0.0718
3515.00,0.0718
3514.00,0.0718
3513.00,0.0718
3512.00,0.0718
3511.00,0.0718
3510.00,0.0718
3509.00,0.0719
3508.00,0.0720
3507.00,0.0720
3506.00,0.0721
3505.00,0.0721
3504.00,0.0722
3503.00,0.0723
3502.00,0.0724
3501.00,0.0725
3500.00,0.0726
3499.00,0.0726
3498.00,0.0726
3497.00,0.0726
3496.00,0.0727
3495.00,0.0728
3494.00,0.0729
3493.00,0.0729
3492.00,0.0729
3491.00,0.0729
3490.00,0.0730
3489.00,0.0730
3488.00,0.0730
3487.00,0.0730
3486.00,0.0731
3485.00,0.0731
3484.00,0.0732
3483.00,0.0732
3482.00,0.0733
3481.00,0.0733
3480.00,0.0734
3479.00,0.0735
3478.00,0.0736
3477.00,0.0736
3476.00,0.0736
3475.00,0.0736
3474.00,0.0737
3473.00,0.0738
3472.00,0.0738
3471.00,0.0738
3470.00,0.0738
3469.00,0.0738
3468.00,0.0739
3467.00,0.0739
3466.00,0.0740
3465.00,0.0741
3464.00,0.0741
3463.00,0.0742
3462.00,0.0742
3461.00,0.0743
3460.00,0.0743
3459.00,0.0744
3458.00,0.0744
3457.00,0.0744
3456.00,0.0744
3455.00,0.0744
3454.00,0.0744
3453.00,0.0745
3452.00,0.0745
3451.00,0.0746
3450.00,0.0747
3449.00,0.0748
3448.00,0.0748
3447.00,0.0748
3446.00,0.0748
3445.00,0.0749
3444.00,0.0750
3443.00,0.0751
3442.00,0.0751
3441.00,0.0751
3440.00,0.0752
3439.00,0.0752
3438.00,0.0752
3437.00,0.0752
3436.00,0.0753
3435.00,0.0753
3434.00,0.0754
3433.00,0.0754
3432.00,0.0755
3431.00,0.0756
3430.00,0.0756
3429.00,0.0757
3428.00,0.0756
3427.00,0.0756
3426.00,0.0756
3425.00,0.0756
3424.00,0.0756
3423.00,0.0757
3422.00,0.0758
3421.00,0.0759
3420.00,0.0759
3419.00,0.0760
3418.00,0.0760
3417.00,0.0760
3416.00,0.0760
3415.00,0.0761
3414.00,0.0761
3413.00,0.0762
3412.00,0.0762
3411.00,0.0762
3410.00,0.0762
3409.00,0.0762
3408.00,0.0762
3407.00,0.0763
3406.00,0.0763
3405.00,0.0763
3404.00,0.0764
3403.00,0.0765
3402.00,0.0765
3401.00,0.0766
3400.00,0.0765
3399.00,0.0765
3398.00,0.0765
3397.00,0.0766
3396.00,0.0766
3395.00,0.0767
3394.00,0.0768
3393.00,0.0768
3392.00,0.0768
3391.00,0.0769
3390.00,0.0769
3389.00,0.0769
3388.00,0.0769
3387.00,0.0770
3386.00,0.0770
3385.00,0.0770
3384.00,0.0770
3383.00,0.0770
3382.00,0.0771
3381.00,0.0771
3380.00,0.0772
3379.00,0.0772
3378.00,0.0773
3377.00,0.0773
3376.00,0.0774
3375.00,0.0774
3374.00,0.0774
3373.00,0.0774
3372.00,0.0775
3371.00,0.0775
3370.00,0.0775
3369.00,0.0775
3368.00,0.0775
3367.00,0.0775
3366.00,0.0776
3365.00,0.0776
3364.00,0.0777
3363.00,0.0778
3362.00,0.0778
3361.00,0.0778
3360.00,0.0778
3359.00,0.0778
3358.00,0.0778
3357.00,0.0779
3356.00,0.0779
3355.00,0.0780
3354.00,0.0780
3353.00,0.0780
3352.00,0.0781
3351.00,0.0781
3350.00,0.0782
3349.00,0.0782
3348.00,0.0782
3347.00,0.0782
3346.00,0.0781
3345.00,0.0781
3344.00,0.0781
3343.00,0.0781
3342.00,0.0781
3341.00,0.0782
3340.00,0.0782
3339.00,0.0782
3338.00,0.0783
3337.00,0.0783
3336.00,0.0784
3335.00,0.0784
3334.00,0.0784
3333.00,0.0784
3332.00,0.0784
3331.00,0.0784
3330.00,0.0784
3329.00,0.0785
3328.00,0.0785
3327.00,0.0785
3326.00,0.0785
3325.00,0.0785
3324.00,0.0785
3323.00,0.0785
3322.00,0.0785
3321.00,0.0786
3320.00,0.0786
3319.00,0.0787
3318.00,0.0787
3317.00,0.0787
3316.00,0.0787
3315.00,0.0786
3314.00,0.0786
3313.00,0.0786
3312.00,0.0786
3311.00,0.0787
3310.00,0.0787
3309.00,0.0787
3308.00,0.0788
3307.00,0.0788
3306.00,0.0788
3305.00,0.0788
3304.00,0.0788
3303.00,0.0788
3302.00,0.0788
3301.00,0.0788
3300.00,0.0789
3299.00,0.0789
3298.00,0.0789
3297.00,0.0789
3296.00,0.0788
3295.00,0.0788
3294.00,0.0789
3293.00,0.0789
3292.00,0.0790
3291.00,0.0790
3290.00,0.0790
3289.00,0.0790
3288.00,0.0789
3287.00,0.0790
3286.00,0.0790
3285.00,0.0790
3284.00,0.0790
3283.00,0.0791
3282.00,0.0791
3281.00,0.0791
3280.00,0.0790
3279.00,0.0791
3278.00,0.0791
3277.00,0.0791
3276.00,0.0791
3275.00,0.0791
3274.00,0.0792
3273.00,0.0792
3272.00,0.0792
3271.00,0.0792
3270.00,0.0792
3269.00,0.0791
3268.00,0.0791
3267.00,0.0791
3266.00,0.0790
3265.00,0.0790
3264.00,0.0790
3263.00,0.0791
3262.00,0.0791
3261.00,0.0791
3260.00,0.0792
3259.00,0.0792
3258.00,0.0792
3257.00,0.0792
3256.00,0.0792
3255.00,0.0792
3254.00,0.0792
3253.00,0.0792
3252.00,0.0792
3251.00,0.0792
3250.00,0.0792
3249.00,0.0793
3248.00,0.0793
3247.00,0.0794
3246.00,0.0794
3245.00,0.0794
3244.00,0.0794
3243.00,0.0793
3242.00,0.0793
3241.00,0.0793
3240.00,0.0793
3239.00,0.0793
3238.00,0.0794
3237.00,0.0794
3236.00,0.0794
3235.00,0.0794
3234.00,0.0794
3233.00,0.0794
3232.00,0.0794
3231.00,0.0794
3230.00,0.0794
3229.00,0.0794
3228.00,0.0794
3227.00,0.0794
3226.00,0.0794
3225.00,0.0794
3224.00,0.0794
3223.00,0.0794
3222.00,0.0794
3221.00,0.0794
3220.00,0.0794
3219.00,0.0794
3218.00,0.0794
3217.00,0.0794
3216.00,0.0794
3215.00,0.0794
3214.00,0.0794
3213.00,0.0794
3212.00,0.0794
3211.00,0.0794
3210.00,0.0794
3209.00,0.0795
3208.00,0.0795
3207.00,0.0795
3206.00,0.0795
3205.00,0.0795
3204.00,0.0795
3203.00,0.0795
3202.00,0.0795
3201.00,0.0794
3200.00,0.0794
3199.00,0.0794
3198.00,0.0794
3197.00,0.0794
3196.00,0.0794
3195.00,0.0794
3194.00,0.0794
3193.00,0.0794
3192.00,0.0794
3191.00,0.0794
3190.00,0.0794
3189.00,0.0795
3188.00,0.0795
3187.00,0.0795
3186.00,0.0795
3185.00,0.0795
3184.00,0.0795
3183.00,0.0794
3182.00,0.0794
3181.00,0.0794
3180.00,0.0794
3179.00,0.0794
3178.00,0.0794
3177.00,0.0794
3176.00,0.0794
3175.00,0.0794
3174.00,0.0794
3173.00,0.0794
3172.00,0.0794
3171.00,0.0794
3170.00,0.0794
3169.00,0.0795
3168.00,0.0795
3167.00,0.0795
3166.00,0.0794
3165.00,0.0794
3164.00,0.0793
3163.00,0.0793
3162.00,0.0793
3161.00,0.0793
3160.00,0.0793
3159.00,0.0793
3158.00,0.0793
3157.00,0.0793
3156.00,0.0792
3155.00,0.0792
3154.00,0.0792
3153.00,0.0792
3152.00,0.0792
3151.00,0.0792
3150.00,0.0792
3149.00,0.0793
3148.00,0.0793
3147.00,0.0793
3146.00,0.0793
3145.00,0.0793
3144.00,0.0792
3143.00,0.0792
3142.00,0.0792
3141.00,0.0792
3140.00,0.0792
3139.00,0.0793
3138.00,0.0793
3137.00,0.0792
3136.00,0.0792
3135.00,0.0792
3134.00,0.0791
3133.00,0.0791
3132.00,0.0791
3131.00,0.0791
3130.00,0.0791
3129.00,0.0791
3128.00,0.0791
3127.00,0.0791
3126.00,0.0791
3125.00,0.0790
3124.00,0.0790
3123.00,0.0790
3122.00,0.0790
3121.00,0.0790
3120.00,0.0790
3119.00,0.0790
3118.00,0.0790
3117.00,0.0790
3116.00,0.0790
3115.00,0.0790
3114.00,0.0790
3113.00,0.0790
3112.00,0.0790
3111.00,0.0789
3110.00,0.0789
3109.00,0.0789
3108.00,0.0789
3107.00,0.0789
3106.00,0.0789
3105.00,0.0789
3104.00,0.0789
3103.00,0.0789
3102.00,0.0789
3101.00,0.0789
3100.00,0.0789
3099.00,0.0788
3098.00,0.0788
3097.00,0.0788
3096.00,0.0788
3095.00,0.0788
3094.00,0.0788
3093.00,0.0789
3092.00,0.0789
3091.00,0.0789
3090.00,0.0789
3089.00,0.0789
3088.00,0.0789
3087.00,0.0789
3086.00,0.0789
3085.00,0.0788
3084.00,0.0788
3083.00,0.0788
3082.00,0.0788
3081.00,0.0788
3080.00,0.0788
3079.00,0.0788
3078.00,0.0788
3077.00,0.0788
3076.00,0.0787
3075.00,0.0787
3074.00,0.0788
3073.00,0.0788
3072.00,0.0787
3071.00,0.0787
3070.00,0.0787
3069.00,0.0787
3068.00,0.0787
3067.00,0.0787
3066.00,0.0787
3065.00,0.0787
3064.00,0.0787
3063.00,0.0787
3062.00,0.0787
3061.00,0.0787
3060.00,0.0786
3059.00,0.0786
3058.00,0.0786
3057.00,0.0785
3056.00,0.0786
3055.00,0.0786
3054.00,0.0786
3053.00,0.0786
3052.00,0.0786
3051.00,0.0785
3050.00,0.0785
3049.00,0.0785
3048.00,0.0785
3047.00,0.0784
3046.00,0.0784
3045.00,0.0784
3044.00,0.0784
3043.00,0.0784
3042.00,0.0784
3041.00,0.0784
3040.00,0.0784
3039.00,0.0784
3038.00,0.0784
3037.00,0.0784
3036.00,0.0784
3035.00,0.0783
3034.00,0.0783
3033.00,0.0782
3032.00,0.0782
3031.00,0.0782
3030.00,0.0782
3029.00,0.0782
3028.00,0.0781
3027.00,0.0781
3026.00,0.0781
3025.00,0.0780
3024.00,0.0780
3023.00,0.0780
3022.00,0.0779
3021.00,0.0779
3020.00,0.0779
3019.00,0.0779
3018.00,0.0780
3017.00,0.0780
3016.00,0.0780
3015.00,0.0780
3014.00,0.0780
3013.00,0.0780
3012.00,0.0780
3011.00,0.0779
3010.00,0.0778
3009.00,0.0777
3008.00,0.0776
3007.00,0.0776
3006.00,0.0775
3005.00,0.0774
3004.00,0.0774
3003.00,0.0774
3002.00,0.0774
3001.00,0.0774
3000.00,0.0773
2999.00,0.0773
2998.00,0.0772
2997.00,0.0772
2996.00,0.0772
2995.00,0.0771
2994.00,0.0771
2993.00,0.0771
2992.00,0.0771
2991.00,0.0770
2990.00,0.0770
2989.00,0.0769
2988.00,0.0769
2987.00,0.0768
2986.00,0.0768
2985.00,0.0767
2984.00,0.0766
2983.00,0.0765
2982.00,0.0763
2981.00,0.0763
2980.00,0.0762
2979.00,0.0763
2978.00,0.0763
2977.00,0.0764
2976.00,0.0764
2975.00,0.0764
2974.00,0.0764
2973.00,0.0763
2972.00,0.0763
2971.00,0.0763
2970.00,0.0763
2969.00,0.0764
2968.00,0.0763
2967.00,0.0763
2966.00,0.0763
2965.00,0.0763
2964.00,0.0762
2963.00,0.0762
2962.00,0.0761
2961.00,0.0761
2960.00,0.0761
2959.00,0.0761
2958.00,0.0762
2957.00,0.0762
2956.00,0.0762
2955.00,0.0761
2954.00,0.0762
2953.00,0.0762
2952.00,0.0763
2951.00,0.0763
2950.00,0.0763
2949.00,0.0762
2948.00,0.0762
2947.00,0.0762
2946.00,0.0762
2945.00,0.0762
2944.00,0.0762
2943.00,0.0761
2942.00,0.0760
2941.00,0.0760
2940.00,0.0759
2939.00,0.0758
2938.00,0.0757
2937.00,0.0756
2936.00,0.0755
2935.00,0.0754
2934.00,0.0754
2933.00,0.0753
2932.00,0.0753
2931.00,0.0752
2930.00,0.0751
2929.00,0.0750
2928.00,0.0750
2927.00,0.0749
2926.00,0.0749
2925.00,0.0749
2924.00,0.0750
2923.00,0.0750
2922.00,0.0751
2921.00,0.0751
2920.00,0.0752
2919.00,0.0753
2918.00,0.0754
2917.00,0.0754
2916.00,0.0755
2915.00,0.0755
2914.00,0.0756
2913.00,0.0757
2912.00,0.0757
2911.00,0.0758
2910.00,0.0758
2909.00,0.0759
2908.00,0.0759
2907.00,0.0759
2906.00,0.0759
2905.00,0.0759
2904.00,0.0759
2903.00,0.0760
2902.00,0.0760
2901.00,0.0760
2900.00,0.0760
2899.00,0.0760
2898.00,0.0760
2897.00,0.0760
2896.00,0.0760
2895.00,0.0760
2894.00,0.0760
2893.00,0.0759
2892.00,0.0759
2891.00,0.0759
2890.00,0.0760
2889.00,0.0760
2888.00,0.0760
2887.00,0.0760
2886.00,0.0760
2885.00,0.0760
2884.00,0.0760
2883.00,0.0760
2882.00,0.0760
2881.00,0.0760
2880.00,0.0760
2879.00,0.0760
2878.00,0.0760
2877.00,0.0760
2876.00,0.0759
2875.00,0.0759
2874.00,0.0758
2873.00,0.0758
2872.00,0.0757
2871.00,0.0757
2870.00,0.0756
2869.00,0.0756
2868.00,0.0755
2867.00,0.0754
2866.00,0.0754
2865.00,0.0753
2864.00,0.0753
2863.00,0.0753
2862.00,0.0753
2861.00,0.0753
2860.00,0.0752
2859.00,0.0752
2858.00,0.0751
2857.00,0.0750
2856.00,0.0749
2855.00,0.0748
2854.00,0.0748
2853.00,0.0748
2852.00,0.0748
2851.00,0.0749
2850.00,0.0750
2849.00,0.0751
2848.00,0.0752
2847.00,0.0753
2846.00,0.0754
2845.00,0.0755
2844.00,0.0755
2843.00,0.0755
2842.00,0.0754
2841.00,0.0754
2840.00,0.0755
2839.00,0.0755
2838.00,0.0756
2837.00,0.0756
2836.00,0.0755
2835.00,0.0755
2834.00,0.0755
2833.00,0.0755
2832.00,0.0754
2831.00,0.0754
2830.00,0.0754
2829.00,0.0754
2828.00,0.0753
2827.00,0.0753
2826.00,0.0753
2825.00,0.0753
2824.00,0.0753
2823.00,0.0754
2822.00,0.0754
2821.00,0.0754
2820.00,0.0753
2819.00,0.0753
2818.00,0.0753
2817.00,0.0753
2816.00,0.0753
2815.00,0.0753
2814.00,0.0753
2813.00,0.0752
2812.00,0.0752
2811.00,0.0752
2810.00,0.0751
2809.00,0.0751
2808.00,0.0751
2807.00,0.0751
2806.00,0.0751
2805.00,0.0751
2804.00,0.0750
2803.00,0.0750
2802.00,0.0750
2801.00,0.0750
2800.00,0.0750
2799.00,0.0750
2798.00,0.0750
2797.00,0.0749
2796.00,0.0749
2795.00,0.0749
2794.00,0.0749
2793.00,0.0748
2792.00,0.0748
2791.00,0.0748
2790.00,0.0748
2789.00,0.0748
2788.00,0.0748
2787.00,0.0748
2786.00,0.0748
2785.00,0.0748
2784.00,0.0748
2783.00,0.0748
2782.00,0.0748
2781.00,0.0747
2780.00,0.0747
2779.00,0.0746
2778.00,0.0746
2777.00,0.0746
2776.00,0.0746
2775.00,0.0746
2774.00,0.0746
2773.00,0.0746
2772.00,0.0746
2771.00,0.0746
2770.00,0.0745
2769.00,0.0745
2768.00,0.0745
2767.00,0.0744
2766.00,0.0744
2765.00,0.0744
2764.00,0.0744
2763.00,0.0744
2762.00,0.0743
2761.00,0.0743
2760.00,0.0743
2759.00,0.0743
2758.00,0.0743
2757.00,0.0743
2756.00,0.0743
2755.00,0.0742
2754.00,0.0742
2753.00,0.0742
2752.00,0.0742
2751.00,0.0742
2750.00,0.0742
2749.00,0.0742
2748.00,0.0742
2747.00,0.0742
2746.00,0.0741
2745.00,0.0741
2744.00,0.0740
2743.00,0.0740
2742.00,0.0740
2741.00,0.0740
2740.00,0.0740
2739.00,0.0740
2738.00,0.0740
2737.00,0.0740
2736.00,0.0739
2735.00,0.0739
2734.00,0.0739
2733.00,0.0739
2732.00,0.0739
2731.00,0.0738
2730.00,0.0738
2729.00,0.0738
2728.00,0.0738
2727.00,0.0738
2726.00,0.0738
2725.00,0.0738
2724.00,0.0737
2723.00,0.0737
2722.00,0.0738
2721.00,0.0738
2720.00,0.0738
2719.00,0.0738
2718.00,0.0738
2717.00,0.0738
2716.00,0.0737
2715.00,0.0737
2714.00,0.0737
2713.00,0.0736
2712.00,0.0736
2711.00,0.0736
2710.00,0.0736
2709.00,0.0735
2708.00,0.0735
2707.00,0.0735
2706.00,0.0735
2705.00,0.0735
2704.00,0.0735
2703.00,0.0734
2702.00,0.0734
2701.00,0.0734
2700.00,0.0734
2699.00,0.0734
2698.00,0.0734
2697.00,0.0734
2696.00,0.0734
2695.00,0.0734
2694.00,0.0734
2693.00,0.0734
2692.00,0.0734
2691.00,0.0733
2690.00,0.0733
2689.00,0.0733
2688.00,0.0733
2687.00,0.0733
2686.00,0.0733
2685.00,0.0733
2684.00,0.0732
2683.00,0.0732
2682.00,0.0732
2681.00,0.0732
2680.00,0.0732
2679.00,0.0732
2678.00,0.0732
2677.00,0.0732
2676.00,0.0732
2675.00,0.0732
2674.00,0.0732
2673.00,0.0732
2672.00,0.0732
2671.00,0.0732
2670.00,0.0732
2669.00,0.0732
2668.00,0.0732
2667.00,0.0732
2666.00,0.0732
2665.00,0.0732
2664.00,0.0732
2663.00,0.0732
2662.00,0.0731
2661.00,0.0731
2660.00,0.0731
2659.00,0.0731
2658.00,0.0731
2657.00,0.0731
2656.00,0.0732
2655.00,0.0732
2654.00,0.0732
2653.00,0.0733
2652.00,0.0733
2651.00,0.0732
2650.00,0.0732
2649.00,0.0731
2648.00,0.0731
2647.00,0.0730
2646.00,0.0730
2645.00,0.0731
2644.00,0.0731
2643.00,0.0731
2642.00,0.0731
2641.00,0.0731
2640.00,0.0731
2639.00,0.0730
2638.00,0.0730
2637.00,0.0730
2636.00,0.0730
2635.00,0.0731
2634.00,0.0731
2633.00,0.0731
2632.00,0.0731
2631.00,0.0731
2630.00,0.0731
2629.00,0.0731
2628.00,0.0732
2627.00,0.0731
2626.00,0.0731
2625.00,0.0731
2624.00,0.0731
2623.00,0.0731
2622.00,0.0732
2621.00,0.0732
2620.00,0.0731
2619.00,0.0731
2618.00,0.0731
2617.00,0.0730
2616.00,0.0730
2615.00,0.0730
2614.00,0.0731
2613.00,0.0731
2612.00,0.0731
2611.00,0.0731
2610.00,0.0731
2609.00,0.0731
2608.00,0.0731
2607.00,0.0732
2606.00,0.0732
2605.00,0.0732
2604.00,0.0731
2603.00,0.0731
2602.00,0.0730
2601.00,0.0730
2600.00,0.0730
2599.00,0.0730
2598.00,0.0730
2597.00,0.0730
2596.00,0.0730
2595.00,0.0730
2594.00,0.0731
2593.00,0.0731
2592.00,0.0732
2591.00,0.0732
2590.00,0.0732
2589.00,0.0732
2588.00,0.0732
2587.00,0.0731
2586.00,0.0731
2585.00,0.0731
2584.00,0.0731
2583.00,0.0731
2582.00,0.0732
2581.00,0.0732
2580.00,0.0732
2579.00,0.0732
2578.00,0.0731
2577.00,0.0731
2576.00,0.0731
2575.00,0.0730
2574.00,0.0731
2573.00,0.0731
2572.00,0.0731
2571.00,0.0731
2570.00,0.0731
2569.00,0.0731
2568.00,0.0731
2567.00,0.0731
2566.00,0.0731
2565.00,0.0731
2564.00,0.0732
2563.00,0.0732
2562.00,0.0731
2561.00,0.0731
2560.00,0.0730
2559.00,0.0730
2558.00,0.0730
2557.00,0.0730
2556.00,0.0730
2555.00,0.0731
2554.00,0.0731
2553.00,0.0731
2552.00,0.0732
2551.00,0.0732
2550.00,0.0732
2549.00,0.0731
2548.00,0.0731
2547.00,0.0730
2546.00,0.0730
2545.00,0.0730
2544.00,0.0730
2543.00,0.0730
2542.00,0.0730
2541.00,0.0730
2540.00,0.0730
2539.00,0.0730
2538.00,0.0730
2537.00,0.0730
2536.00,0.0730
2535.00,0.0729
2534.00,0.0729
2533.00,0.0729
2532.00,0.0729
2531.00,0.0729
2530.00,0.0729
2529.00,0.0729
2528.00,0.0730
2527.00,0.0730
2526.00,0.0730
2525.00,0.0730
2524.00,0.0730
2523.00,0.0730
2522.00,0.0730
2521.00,0.0730
2520.00,0.0730
2519.00,0.0730
2518.00,0.0730
2517.00,0.0731
2516.00,0.0731
2515.00,0.0731
2514.00,0.0731
2513.00,0.0731
2512.00,0.0731
2511.00,0.0730
2510.00,0.0730
2509.00,0.0729
2508.00,0.0729
2507.00,0.0729
2506.00,0.0729
2505.00,0.0729
2504.00,0.0729
2503.00,0.0729
2502.00,0.0729
2501.00,0.0729
2500.00,0.0729
2499.00,0.0729
2498.00,0.0730
2497.00,0.0731
2496.00,0.0731
2495.00,0.0731
2494.00,0.0731
2493.00,0.0731
2492.00,0.0730
2491.00,0.0730
2490.00,0.0730
2489.00,0.0730
2488.00,0.0729
2487.00,0.0729
2486.00,0.0729
2485.00,0.0729
2484.00,0.0729
2483.00,0.0729
2482.00,0.0729
2481.00,0.0729
2480.00,0.0729
2479.00,0.0730
2478.00,0.0730
2477.00,0.0730
2476.00,0.0730
2475.00,0.0730
2474.00,0.0730
2473.00,0.0730
2472.00,0.0729
2471.00,0.0729
2470.00,0.0729
2469.00,0.0729
2468.00,0.0729
2467.00,0.0729
2466.00,0.0729
2465.00,0.0729
2464.00,0.0730
2463.00,0.0730
2462.00,0.0730
2461.00,0.0730
2460.00,0.0730
2459.00,0.0729
2458.00,0.0729
2457.00,0.0729
2456.00,0.0729
2455.00,0.0729
2454.00,0.0729
2453.00,0.0729
2452.00,0.0729
2451.00,0.0729
2450.00,0.0729
2449.00,0.0729
2448.00,0.0729
2447.00,0.0730
2446.00,0.0730
2445.00,0.0730
2444.00,0.0730
2443.00,0.0729
2442.00,0.0729
2441.00,0.0729
2440.00,0.0729
2439.00,0.0729
2438.00,0.0729
2437.00,0.0729
2436.00,0.0728
2435.00,0.0728
2434.00,0.0729
2433.00,0.0729
2432.00,0.0729
2431.00,0.0729
2430.00,0.0729
2429.00,0.0728
2428.00,0.0728
2427.00,0.0728
2426.00,0.0728
2425.00,0.0729
2424.00,0.0728
2423.00,0.0728
2422.00,0.0728
2421.00,0.0728
2420.00,0.0728
2419.00,0.0728
2418.00,0.0728
2417.00,0.0727
2416.00,0.0727
2415.00,0.0727
2414.00,0.0727
2413.00,0.0727
2412.00,0.0727
2411.00,0.0726
2410.00,0.0726
2409.00,0.0726
2408.00,0.0726
2407.00,0.0726
2406.00,0.0726
2405.00,0.0726
2404.00,0.0726
2403.00,0.0726
2402.00,0.0726
2401.00,0.0726
2400.00,0.0726
2399.00,0.0725
2398.00,0.0724
2397.00,0.0724
2396.00,0.0724
2395.00,0.0725
2394.00,0.0725
2393.00,0.0725
2392.00,0.0724
2391.00,0.0724
2390.00,0.0724
2389.00,0.0723
2388.00,0.0722
2387.00,0.0720
2386.00,0.0719
2385.00,0.0719
2384.00,0.0718
2383.00,0.0715
2382.00,0.0716
2381.00,0.0706
2380.00,0.0693
2379.00,0.0691
2378.00,0.0687
2377.00,0.0687
2376.00,0.0687
2375.00,0.0689
2374.00,0.0691
2373.00,0.0693
2372.00,0.0694
2371.00,0.0694
2370.00,0.0694
2369.00,0.0693
2368.00,0.0691
2367.00,0.0688
2366.00,0.0686
2365.00,0.0684
2364.00,0.0683
2363.00,0.0682
2362.00,0.0684
2361.00,0.0687
2360.00,0.0691
2359.00,0.0695
2358.00,0.0699
2357.00,0.0704
2356.00,0.0710
2355.00,0.0716
2354.00,0.0721
2353.00,0.0724
2352.00,0.0722
2351.00,0.0716
2350.00,0.0706
2349.00,0.0693
2348.00,0.0679
2347.00,0.0670
2346.00,0.0669
2345.00,0.0675
2344.00,0.0683
2343.00,0.0691
2342.00,0.0696
2341.00,0.0699
2340.00,0.0700
2339.00,0.0701
2338.00,0.0701
2337.00,0.0701
2336.00,0.0701
2335.00,0.0701
2334.00,0.0701
2333.00,0.0701
2332.00,0.0701
2331.00,0.0702
2330.00,0.0704
2329.00,0.0706
2328.00,0.0709
2327.00,0.0710
2326.00,0.0711
2325.00,0.0710
2324.00,0.0710
2323.00,0.0710
2322.00,0.0711
2321.00,0.0713
2320.00,0.0714
2319.00,0.0715
2318.00,0.0716
2317.00,0.0716
2316.00,0.0714
2315.00,0.0712
2314.00,0.0709
2313.00,0.0707
2312.00,0.0706
2311.00,0.0706
2310.00,0.0706
2309.00,0.0706
2308.00,0.0706
2307.00,0.0706
2306.00,0.0706
2305.00,0.0707
2304.00,0.0707
2303.00,0.0706
2302.00,0.0706
2301.00,0.0706
2300.00,0.0706
2299.00,0.0707
2298.00,0.0708
2297.00,0.0709
2296.00,0.0709
2295.00,0.0710
2294.00,0.0711
2293.00,0.0712
2292.00,0.0713
2291.00,0.0714
2290.00,0.0714
2289.00,0.0715
2288.00,0.0715
2287.00,0.0716
2286.00,0.0716
2285.00,0.0716
2284.00,0.0716
2283.00,0.0716
2282.00,0.0716
2281.00,0.0715
2280.00,0.0715
2279.00,0.0714
2278.00,0.0713
2277.00,0.0712
2276.00,0.0712
2275.00,0.0712
2274.00,0.0713
2273.00,0.0713
2272.00,0.0713
2271.00,0.0713
2270.00,0.0713
2269.00,0.0713
2268.00,0.0714
2267.00,0.0714
2266.00,0.0714
2265.00,0.0713
2264.00,0.0713
2263.00,0.0713
2262.00,0.0713
2261.00,0.0714
2260.00,0.0715
2259.00,0.0715
2258.00,0.0714
2257.00,0.0713
2256.00,0.0712
2255.00,0.0711
2254.00,0.0711
2253.00,0.0712
2252.00,0.0712
2251.00,0.0713
2250.00,0.0713
2249.00,0.0712
2248.00,0.0712
2247.00,0.0712
2246.00,0.0712
2245.00,0.0712
2244.00,0.0711
2243.00,0.0710
2242.00,0.0709
2241.00,0.0709
2240.00,0.0709
2239.00,0.0710
2238.00,0.0712
2237.00,0.0713
2236.00,0.0714
2235.00,0.0714
2234.00,0.0713
2233.00,0.0713
2232.00,0.0711
2231.00,0.0711
2230.00,0.0710
2229.00,0.0710
2228.00,0.0710
2227.00,0.0711
2226.00,0.0710
2225.00,0.0710
2224.00,0.0709
2223.00,0.0709
2222.00,0.0710
2221.00,0.0709
2220.00,0.0709
2219.00,0.0708
2218.00,0.0708
2217.00,0.0708
2216.00,0.0709
2215.00,0.0710
2214.00,0.0710
2213.00,0.0711
2212.00,0.0710
2211.00,0.0710
2210.00,0.0710
2209.00,0.0710
2208.00,0.0710
2207.00,0.0709
2206.00,0.0708
2205.00,0.0708
2204.00,0.0707
2203.00,0.0706
2202.00,0.0706
2201.00,0.0706
2200.00,0.0708
2199.00,0.0709
2198.00,0.0711
2197.00,0.0711
2196.00,0.0711
2195.00,0.0709
2194.00,0.0708
2193.00,0.0707
2192.00,0.0706
2191.00,0.0705
2190.00,0.0706
2189.00,0.0708
2188.00,0.0709
2187.00,0.0708
2186.00,0.0706
2185.00,0.0704
2184.00,0.0702
2183.00,0.0701
2182.00,0.0701
2181.00,0.0703
2180.00,0.0704
2179.00,0.0705
2178.00,0.0704
2177.00,0.0703
2176.00,0.0702
2175.00,0.0702
2174.00,0.0703
2173.00,0.0704
2172.00,0.0704
2171.00,0.0704
2170.00,0.0706
2169.00,0.0707
2168.00,0.0707
2167.00,0.0705
2166.00,0.0703
2165.00,0.0703
2164.00,0.0703
2163.00,0.0704
2162.00,0.0702
2161.00,0.0699
2160.00,0.0695
2159.00,0.0694
2158.00,0.0694
2157.00,0.0694
2156.00,0.0694
2155.00,0.0693
2154.00,0.0693
2153.00,0.0694
2152.00,0.0695
2151.00,0.0696
2150.00,0.0696
2149.00,0.0696
2148.00,0.0695
2147.00,0.0694
2146.00,0.0693
2145.00,0.0692
2144.00,0.0693
2143.00,0.0693
2142.00,0.0694
2141.00,0.0695
2140.00,0.0695
2139.00,0.0696
2138.00,0.0697
2137.00,0.0696
2136.00,0.0694
2135.00,0.0692
2134.00,0.0692
2133.00,0.0693
2132.00,0.0693
2131.00,0.0693
2130.00,0.0693
2129.00,0.0692
2128.00,0.0692
2127.00,0.0692
2126.00,0.0692
2125.00,0.0692
2124.00,0.0692
2123.00,0.0691
2122.00,0.0692
2121.00,0.0692
2120.00,0.0693
2119.00,0.0694
2118.00,0.0695
2117.00,0.0695
2116.00,0.0694
2115.00,0.0692
2114.00,0.0692
2113.00,0.0692
2112.00,0.0692
2111.00,0.0692
2110.00,0.0692
2109.00,0.0692
2108.00,0.0691
2107.00,0.0691
2106.00,0.0691
2105.00,0.0690
2104.00,0.0690
2103.00,0.0689
2102.00,0.0690
2101.00,0.0690
2100.00,0.0690
2099.00,0.0690
2098.00,0.0689
2097.00,0.0689
2096.00,0.0688
2095.00,0.0687
2094.00,0.0687
2093.00,0.0687
2092.00,0.0687
2091.00,0.0687
2090.00,0.0688
2089.00,0.0687
2088.00,0.0687
2087.00,0.0687
2086.00,0.0687
2085.00,0.0686
2084.00,0.0685
2083.00,0.0684
2082.00,0.0684
2081.00,0.0684
2080.00,0.0684
2079.00,0.0684
2078.00,0.0684
2077.00,0.0684
2076.00,0.0683
2075.00,0.0683
2074.00,0.0682
2073.00,0.0682
2072.00,0.0681
2071.00,0.0681
2070.00,0.0681
2069.00,0.0680
2068.00,0.0679
2067.00,0.0678
2066.00,0.0678
2065.00,0.0678
2064.00,0.0679
2063.00,0.0679
2062.00,0.0679
2061.00,0.0680
2060.00,0.0680
2059.00,0.0679
2058.00,0.0679
2057.00,0.0678
2056.00,0.0678
2055.00,0.0678
2054.00,0.0679
2053.00,0.0681
2052.00,0.0682
2051.00,0.0682
2050.00,0.0681
2049.00,0.0680
2048.00,0.0678
2047.00,0.0676
2046.00,0.0675
2045.00,0.0676
2044.00,0.0677
2043.00,0.0677
2042.00,0.0676
2041.00,0.0676
2040.00,0.0675
2039.00,0.0676
2038.00,0.0678
2037.00,0.0680
2036.00,0.0681
2035.00,0.0680
2034.00,0.0679
2033.00,0.0678
2032.00,0.0675
2031.00,0.0673
2030.00,0.0673
2029.00,0.0673
2028.00,0.0674
2027.00,0.0674
2026.00,0.0675
2025.00,0.0676
2024.00,0.0675
2023.00,0.0674
2022.00,0.0673
2021.00,0.0673
2020.00,0.0673
2019.00,0.0674
2018.00,0.0674
2017.00,0.0673
2016.00,0.0672
2015.00,0.0672
2014.00,0.0673
2013.00,0.0674
2012.00,0.0674
2011.00,0.0674
2010.00,0.0674
2009.00,0.0674
2008.00,0.0673
2007.00,0.0672
2006.00,0.0671
2005.00,0.0671
2004.00,0.0670
2003.00,0.0669
2002.00,0.0668
2001.00,0.0668
2000.00,0.0669
1999.00,0.0670
1998.00,0.0670
1997.00,0.0670
1996.00,0.0670
1995.00,0.0669
1994.00,0.0669
1993.00,0.0669
1992.00,0.0669
1991.00,0.0670
1990.00,0.0670
1989.00,0.0669
1988.00,0.0667
1987.00,0.0665
1986.00,0.0664
1985.00,0.0665
1984.00,0.0665
1983.00,0.0666
1982.00,0.0666
1981.00,0.0666
1980.00,0.0666
1979.00,0.0664
1978.00,0.0663
1977.00,0.0663
1976.00,0.0662
1975.00,0.0662
1974.00,0.0662
1973.00,0.0663
1972.00,0.0663
1971.00,0.0664
1970.00,0.0663
1969.00,0.0662
1968.00,0.0661
1967.00,0.0660
1966.00,0.0660
1965.00,0.0661
1964.00,0.0662
1963.00,0.0662
1962.00,0.0662
1961.00,0.0660
1960.00,0.0659
1959.00,0.0657
1958.00,0.0656
1957.00,0.0656
1956.00,0.0657
1955.00,0.0657
1954.00,0.0657
1953.00,0.0656
1952.00,0.0655
1951.00,0.0654
1950.00,0.0654
1949.00,0.0654
1948.00,0.0654
1947.00,0.0654
1946.00,0.0655
1945.00,0.0656
1944.00,0.0656
1943.00,0.0655
1942.00,0.0652
1941.00,0.0650
1940.00,0.0648
1939.00,0.0647
1938.00,0.0647
1937.00,0.0647
1936.00,0.0648
1935.00,0.0648
1934.00,0.0649
1933.00,0.0649
1932.00,0.0648
1931.00,0.0647
1930.00,0.0647
1929.00,0.0646
1928.00,0.0644
1927.00,0.0643
1926.00,0.0643
1925.00,0.0644
1924.00,0.0644
1923.00,0.0643
1922.00,0.0642
1921.00,0.0641
1920.00,0.0642
1919.00,0.0641
1918.00,0.0641
1917.00,0.0640
1916.00,0.0640
1915.00,0.0640
1914.00,0.0640
1913.00,0.0640
1912.00,0.0639
1911.00,0.0638
1910.00,0.0637
1909.00,0.0636
1908.00,0.0635
1907.00,0.0634
1906.00,0.0635
1905.00,0.0635
1904.00,0.0634
1903.00,0.0633
1902.00,0.0632
1901.00,0.0632
1900.00,0.0632
1899.00,0.0631
1898.00,0.0631
1897.00,0.0631
1896.00,0.0631
1895.00,0.0629
1894.00,0.0628
1893.00,0.0627
1892.00,0.0627
1891.00,0.0626
1890.00,0.0625
1889.00,0.0624
1888.00,0.0623
1887.00,0.0623
1886.00,0.0623
1885.00,0.0624
1884.00,0.0623
1883.00,0.0622
1882.00,0.0622
1881.00,0.0622
1880.00,0.0621
1879.00,0.0620
1878.00,0.0620
1877.00,0.0620
1876.00,0.0619
1875.00,0.0619
1874.00,0.0618
1873.00,0.0618
1872.00,0.0618
1871.00,0.0619
1870.00,0.0619
1869.00,0.0617
1868.00,0.0614
1867.00,0.0612
1866.00,0.0612
1865.00,0.0612
1864.00,0.0613
1863.00,0.0612
1862.00,0.0612
1861.00,0.0611
1860.00,0.0610
1859.00,0.0608
1858.00,0.0608
1857.00,0.0608
1856.00,0.0607
1855.00,0.0606
1854.00,0.0606
1853.00,0.0605
1852.00,0.0605
1851.00,0.0604
1850.00,0.0603
1849.00,0.0602
1848.00,0.0602
1847.00,0.0602
1846.00,0.0602
1845.00,0.0601
1844.00,0.0598
1843.00,0.0594
1842.00,0.0594
1841.00,0.0594
1840.00,0.0595
1839.00,0.0595
1838.00,0.0595
1837.00,0.0594
1836.00,0.0593
1835.00,0.0592
1834.00,0.0592
1833.00,0.0592
1832.00,0.0592
1831.00,0.0590
1830.00,0.0587
1829.00,0.0584
1828.00,0.0583
1827.00,0.0583
1826.00,0.0583
1825.00,0.0582
1824.00,0.0580
1823.00,0.0580
1822.00,0.0580
1821.00,0.0580
1820.00,0.0580
1819.00,0.0579
1818.00,0.0578
1817.00,0.0576
1816.00,0.0575
1815.00,0.0575
1814.00,0.0574
1813.00,0.0573
1812.00,0.0571
1811.00,0.0569
1810.00,0.0567
1809.00,0.0567
1808.00,0.0566
1807.00,0.0566
1806.00,0.0565
1805.00,0.0565
1804.00,0.0565
1803.00,0.0564
1802.00,0.0563
1801.00,0.0561
1800.00,0.0560
1799.00,0.0559
1798.00,0.0560
1797.00,0.0561
1796.00,0.0562
1795.00,0.0562
1794.00,0.0562
1793.00,0.0561
1792.00,0.0557
1791.00,0.0553
1790.00,0.0551
1789.00,0.0552
1788.00,0.0554
1787.00,0.0555
1786.00,0.0556
1785.00,0.0556
1784.00,0.0555
1783.00,0.0555
1782.00,0.0554
1781.00,0.0553
1780.00,0.0553
1779.00,0.0553
1778.00,0.0554
1777.00,0.0556
1776.00,0.0558
1775.00,0.0560
1774.00,0.0561
1773.00,0.0561
1772.00,0.0558
1771.00,0.0556
1770.00,0.0556
1769.00,0.0558
1768.00,0.0560
1767.00,0.0560
1766.00,0.0561
1765.00,0.0564
1764.00,0.0566
1763.00,0.0567
1762.00,0.0566
1761.00,0.0565
1760.00,0.0566
1759.00,0.0568
1758.00,0.0570
1757.00,0.0570
1756.00,0.0571
1755.00,0.0572
1754.00,0.0575
1753.00,0.0578
1752.00,0.0581
1751.00,0.0583
1750.00,0.0583
1749.00,0.0582
1748.00,0.0582
1747.00,0.0584
1746.00,0.0586
1745.00,0.0588
1744.00,0.0590
1743.00,0.0592
1742.00,0.0594
1741.00,0.0598
1740.00,0.0601
1739.00,0.0603
1738.00,0.0605
1737.00,0.0609
1736.00,0.0614
1735.00,0.0621
1734.00,0.0623
1733.00,0.0621
1732.00,0.0620
1731.00,0.0621
1730.00,0.0622
1729.00,0.0624
1728.00,0.0628
1727.00,0.0631
1726.00,0.0635
1725.00,0.0637
1724.00,0.0640
1723.00,0.0641
1722.00,0.0643
1721.00,0.0644
1720.00,0.0645
1719.00,0.0647
1718.00,0.0649
1717.00,0.0651
1716.00,0.0651
1715.00,0.0650
1714.00,0.0651
1713.00,0.0653
1712.00,0.0655
1711.00,0.0657
1710.00,0.0658
1709.00,0.0660
1708.00,0.0661
1707.00,0.0661
1706.00,0.0661
1705.00,0.0660
1704.00,0.0660
1703.00,0.0661
1702.00,0.0662
1701.00,0.0665
1700.00,0.0667
1699.00,0.0667
1698.00,0.0668
1697.00,0.0669
1696.00,0.0667
1695.00,0.0662
1694.00,0.0662
1693.00,0.0664
1692.00,0.0666
1691.00,0.0667
1690.00,0.0667
1689.00,0.0667
1688.00,0.0668
1687.00,0.0668
1686.00,0.0668
1685.00,0.0667
1684.00,0.0663
1683.00,0.0660
1682.00,0.0662
1681.00,0.0666
1680.00,0.0668
1679.00,0.0670
1678.00,0.0672
1677.00,0.0674
1676.00,0.0676
1675.00,0.0678
1674.00,0.0679
1673.00,0.0680
1672.00,0.0681
1671.00,0.0683
1670.00,0.0684
1669.00,0.0684
1668.00,0.0684
1667.00,0.0686
1666.00,0.0689
1665.00,0.0692
1664.00,0.0694
1663.00,0.0696
1662.00,0.0697
1661.00,0.0698
1660.00,0.0701
1659.00,0.0704
1658.00,0.0706
1657.00,0.0707
1656.00,0.0706
1655.00,0.0705
1654.00,0.0709
1653.00,0.0710
1652.00,0.0709
1651.00,0.0714
1650.00,0.0719
1649.00,0.0722
1648.00,0.0727
1647.00,0.0731
1646.00,0.0732
1645.00,0.0733
1644.00,0.0736
1643.00,0.0739
1642.00,0.0741
1641.00,0.0744
1640.00,0.0746
1639.00,0.0748
1638.00,0.0750
1637.00,0.0754
1636.00,0.0758
1635.00,0.0759
1634.00,0.0761
1633.00,0.0765
1632.00,0.0769
1631.00,0.0772
1630.00,0.0775
1629.00,0.0778
1628.00,0.0781
1627.00,0.0784
1626.00,0.0788
1625.00,0.0792
1624.00,0.0796
1623.00,0.0801
1622.00,0.0804
1621.00,0.0806
1620.00,0.0808
1619.00,0.0811
1618.00,0.0816
1617.00,0.0821
1616.00,0.0824
1615.00,0.0825
1614.00,0.0828
1613.00,0.0830
1612.00,0.0833
1611.00,0.0837
1610.00,0.0841
1609.00,0.0845
1608.00,0.0848
1607.00,0.0852
1606.00,0.0855
1605.00,0.0858
1604.00,0.0860
1603.00,0.0864
1602.00,0.0867
1601.00,0.0870
1600.00,0.0873
1599.00,0.0876
1598.00,0.0879
1597.00,0.0882
1596.00,0.0885
1595.00,0.0888
1594.00,0.0891
1593.00,0.0893
1592.00,0.0896
1591.00,0.0898
1590.00,0.0902
1589.00,0.0904
1588.00,0.0907
1587.00,0.0910
1586.00,0.0912
1585.00,0.0914
1584.00,0.0916
1583.00,0.0919
1582.00,0.0922
1581.00,0.0923
1580.00,0.0924
1579.00,0.0925
1578.00,0.0926
1577.00,0.0931
1576.00,0.0935
1575.00,0.0938
1574.00,0.0938
1573.00,0.0936
1572.00,0.0935
1571.00,0.0937
1570.00,0.0940
1569.00,0.0943
1568.00,0.0943
1567.00,0.0943
1566.00,0.0944
1565.00,0.0943
1564.00,0.0943
1563.00,0.0941
1562.00,0.0936
1561.00,0.0927
1560.00,0.0930
1559.00,0.0945
1558.00,0.0947
1557.00,0.0946
1556.00,0.0948
1555.00,0.0947
1554.00,0.0947
1553.00,0.0945
1552.00,0.0943
1551.00,0.0941
1550.00,0.0939
1549.00,0.0938
1548.00,0.0937
1547.00,0.0936
1546.00,0.0935
1545.00,0.0935
1544.00,0.0935
1543.00,0.0935
1542.00,0.0934
1541.00,0.0936
1540.00,0.0935
1539.00,0.0929
1538.00,0.0926
1537.00,0.0925
1536.00,0.0923
1535.00,0.0920
1534.00,0.0919
1533.00,0.0917
1532.00,0.0914
1531.00,0.0912
1530.00,0.0910
1529.00,0.0908
1528.00,0.0906
1527.00,0.0905
1526.00,0.0903
1525.00,0.0902
1524.00,0.0900
1523.00,0.0898
1522.00,0.0898
1521.00,0.0896
1520.00,0.0892
1519.00,0.0889
1518.00,0.0886
1517.00,0.0884
1516.00,0.0883
1515.00,0.0883
1514.00,0.0882
1513.00,0.0882
1512.00,0.0881
1511.00,0.0878
1510.00,0.0875
1509.00,0.0872
1508.00,0.0874
1507.00,0.0873
1506.00,0.0867
1505.00,0.0865
1504.00,0.0867
1503.00,0.0865
1502.00,0.0863
1501.00,0.0861
1500.00,0.0858
1499.00,0.0856
1498.00,0.0854
1497.00,0.0854
1496.00,0.0855
1495.00,0.0855
1494.00,0.0855
1493.00,0.0855
1492.00,0.0855
1491.00,0.0856
1490.00,0.0856
1489.00,0.0853
1488.00,0.0850
1487.00,0.0847
1486.00,0.0846
1485.00,0.0846
1484.00,0.0846
1483.00,0.0845
1482.00,0.0845
1481.00,0.0844
1480.00,0.0843
1479.00,0.0841
1478.00,0.0840
1477.00,0.0839
1476.00,0.0840
1475.00,0.0841
1474.00,0.0844
1473.00,0.0846
1472.00,0.0845
1471.00,0.0842
1470.00,0.0841
1469.00,0.0840
1468.00,0.0839
1467.00,0.0839
1466.00,0.0839
1465.00,0.0841
1464.00,0.0843
1463.00,0.0843
1462.00,0.0842
1461.00,0.0840
1460.00,0.0839
1459.00,0.0839
1458.00,0.0843
1457.00,0.0847
1456.00,0.0847
1455.00,0.0846
1454.00,0.0846
1453.00,0.0846
1452.00,0.0847
1451.00,0.0848
1450.00,0.0850
1449.00,0.0852
1448.00,0.0854
1447.00,0.0854
1446.00,0.0854
1445.00,0.0854
1444.00,0.0855
1443.00,0.0856
1442.00,0.0857
1441.00,0.0857
1440.00,0.0858
1439.00,0.0859
1438.00,0.0861
1437.00,0.0864
1436.00,0.0866
1435.00,0.0867
1434.00,0.0867
1433.00,0.0867
1432.00,0.0867
1431.00,0.0868
1430.00,0.0869
1429.00,0.0870
1428.00,0.0871
1427.00,0.0872
1426.00,0.0871
1425.00,0.0872
1424.00,0.0873
1423.00,0.0874
1422.00,0.0873
1421.00,0.0873
1420.00,0.0874
1419.00,0.0876
1418.00,0.0877
1417.00,0.0877
1416.00,0.0879
1415.00,0.0880
1414.00,0.0880
1413.00,0.0880
1412.00,0.0881
1411.00,0.0882
1410.00,0.0881
1409.00,0.0881
1408.00,0.0882
1407.00,0.0883
1406.00,0.0883
1405.00,0.0885
1404.00,0.0887
1403.00,0.0888
1402.00,0.0888
1401.00,0.0889
1400.00,0.0891
1399.00,0.0893
1398.00,0.0894
1397.00,0.0895
1396.00,0.0896
1395.00,0.0897
1394.00,0.0897
1393.00,0.0898
1392.00,0.0899
1391.00,0.0900
1390.00,0.0901
1389.00,0.0901
1388.00,0.0903
1387.00,0.0905
1386.00,0.0906
1385.00,0.0907
1384.00,0.0908
1383.00,0.0909
1382.00,0.0910
1381.00,0.0911
1380.00,0.0913
1379.00,0.0914
1378.00,0.0914
1377.00,0.0915
1376.00,0.0916
1375.00,0.0917
1374.00,0.0919
1373.00,0.0919
1372.00,0.0920
1371.00,0.0921
1370.00,0.0921
1369.00,0.0921
1368.00,0.0922
1367.00,0.0922
1366.00,0.0922
1365.00,0.0922
1364.00,0.0922
1363.00,0.0923
1362.00,0.0923
1361.00,0.0923
1360.00,0.0924
1359.00,0.0924
1358.00,0.0925
1357.00,0.0925
1356.00,0.0925
1355.00,0.0925
1354.00,0.0925
1353.00,0.0924
1352.00,0.0924
1351.00,0.0924
1350.00,0.0925
1349.00,0.0925
1348.00,0.0925
1347.00,0.0925
1346.00,0.0925
1345.00,0.0925
1344.00,0.0925
1343.00,0.0925
1342.00,0.0925
1341.00,0.0925
1340.00,0.0926
1339.00,0.0926
1338.00,0.0926
1337.00,0.0926
1336.00,0.0926
1335.00,0.0926
1334.00,0.0926
1333.00,0.0926
1332.00,0.0927
1331.00,0.0927
1330.00,0.0927
1329.00,0.0927
1328.00,0.0926
1327.00,0.0926
1326.00,0.0926
1325.00,0.0926
1324.00,0.0926
1323.00,0.0927
1322.00,0.0927
1321.00,0.0928
1320.00,0.0928
1319.00,0.0929
1318.00,0.0929
1317.00,0.0929
1316.00,0.0930
1315.00,0.0930
1314.00,0.0931
1313.00,0.0931
1312.00,0.0931
1311.00,0.0931
1310.00,0.0931
1309.00,0.0931
1308.00,0.0931
1307.00,0.0932
1306.00,0.0931
1305.00,0.0931
1304.00,0.0932
1303.00,0.0932
1302.00,0.0933
1301.00,0.0933
1300.00,0.0933
1299.00,0.0933
1298.00,0.0933
1297.00,0.0934
1296.00,0.0935
1295.00,0.0936
1294.00,0.0936
1293.00,0.0936
1292.00,0.0937
1291.00,0.0938
1290.00,0.0939
1289.00,0.0939
1288.00,0.0940
1287.00,0.0940
1286.00,0.0941
1285.00,0.0941
1284.00,0.0942
1283.00,0.0944
1282.00,0.0945
1281.00,0.0946
1280.00,0.0946
1279.00,0.0947
1278.00,0.0948
1277.00,0.0948
1276.00,0.0949
1275.00,0.0950
1274.00,0.0950
1273.00,0.0951
1272.00,0.0953
1271.00,0.0954
1270.00,0.0955
1269.00,0.0955
1268.00,0.0955
1267.00,0.0956
1266.00,0.0956
1265.00,0.0957
1264.00,0.0958
1263.00,0.0960
1262.00,0.0961
1261.00,0.0962
1260.00,0.0963
1259.00,0.0964
1258.00,0.0965
1257.00,0.0966
1256.00,0.0966
1255.00,0.0966
1254.00,0.0967
1253.00,0.0967
1252.00,0.0968
1251.00,0.0969
1250.00,0.0969
1249.00,0.0970
1248.00,0.0971
1247.00,0.0973
1246.00,0.0973
1245.00,0.0974
1244.00,0.0974
1243.00,0.0975
1242.00,0.0975
1241.00,0.0976
1240.00,0.0977
1239.00,0.0977
1238.00,0.0978
1237.00,0.0978
1236.00,0.0978
1235.00,0.0979
1234.00,0.0979
1233.00,0.0979
1232.00,0.0979
1231.00,0.0979
1230.00,0.0979
1229.00,0.0979
1228.00,0.0980
1227.00,0.0981
1226.00,0.0981
1225.00,0.0981
1224.00,0.0982
1223.00,0.0982
1222.00,0.0982
1221.00,0.0981
1220.00,0.0981
1219.00,0.0981
1218.00,0.0980
1217.00,0.0980
1216.00,0.0979
1215.00,0.0979
1214.00,0.0979
1213.00,0.0979
1212.00,0.0979
1211.00,0.0979
1210.00,0.0979
1209.00,0.0979
1208.00,0.0979
1207.00,0.0979
1206.00,0.0978
1205.00,0.0978
1204.00,0.0978
1203.00,0.0978
1202.00,0.0978
1201.00,0.0978
1200.00,0.0978
1199.00,0.0977
1198.00,0.0976
1197.00,0.0976
1196.00,0.0976
1195.00,0.0976
1194.00,0.0975
1193.00,0.0974
1192.00,0.0974
1191.00,0.0973
1190.00,0.0973
1189.00,0.0973
1188.00,0.0972
1187.00,0.0972
1186.00,0.0971
1185.00,0.0971
1184.00,0.0971
1183.00,0.0971
1182.00,0.0970
1181.00,0.0970
1180.00,0.0970
1179.00,0.0970
1178.00,0.0971
1177.00,0.0971
1176.00,0.0971
1175.00,0.0971
1174.00,0.0971
1173.00,0.0971
1172.00,0.0970
1171.00,0.0969
1170.00,0.0968
1169.00,0.0968
1168.00,0.0968
1167.00,0.0968
1166.00,0.0969
1165.00,0.0969
1164.00,0.0970
1163.00,0.0970
1162.00,0.0970
1161.00,0.0969
1160.00,0.0969
1159.00,0.0968
1158.00,0.0968
1157.00,0.0968
1156.00,0.0967
1155.00,0.0967
1154.00,0.0966
1153.00,0.0966
1152.00,0.0966
1151.00,0.0965
1150.00,0.0965
1149.00,0.0964
1148.00,0.0964
1147.00,0.0964
1146.00,0.0965
1145.00,0.0965
1144.00,0.0966
1143.00,0.0966
1142.00,0.0965
1141.00,0.0965
1140.00,0.0965
1139.00,0.0965
1138.00,0.0965
1137.00,0.0965
1136.00,0.0965
1135.00,0.0966
1134.00,0.0967
1133.00,0.0967
1132.00,0.0967
1131.00,0.0967
1130.00,0.0966
1129.00,0.0966
1128.00,0.0967
1127.00,0.0967
1126.00,0.0968
1125.00,0.0969
1124.00,0.0970
1123.00,0.0972
1122.00,0.0973
1121.00,0.0975
1120.00,0.0978
1119.00,0.0980
1118.00,0.0981
1117.00,0.0983
1116.00,0.0984
1115.00,0.0985
1114.00,0.0985
1113.00,0.0985
1112.00,0.0986
1111.00,0.0987
1110.00,0.0988
1109.00,0.0990
1108.00,0.0991
1107.00,0.0991
1106.00,0.0991
1105.00,0.0992
1104.00,0.0992
1103.00,0.0993
1102.00,0.0995
1101.00,0.0996
1100.00,0.0997
1099.00,0.0997
1098.00,0.0997
1097.00,0.0997
1096.00,0.0997
1095.00,0.0997
1094.00,0.0997
1093.00,0.0997
1092.00,0.0998
1091.00,0.0999
1090.00,0.0999
1089.00,0.0999
1088.00,0.1000
1087.00,0.1000
1086.00,0.1000
1085.00,0.1000
1084.00,0.1000
1083.00,0.0999
1082.00,0.0999
1081.00,0.0998
1080.00,0.0999
1079.00,0.1000
1078.00,0.1001
1077.00,0.1001
1076.00,0.1002
1075.00,0.1003
1074.00,0.1004
1073.00,0.1004
1072.00,0.1005
1071.00,0.1006
1070.00,0.1006
1069.00,0.1007
1068.00,0.1008
1067.00,0.1009
1066.00,0.1009
1065.00,0.1009
1064.00,0.1010
1063.00,0.1012
1062.00,0.1013
1061.00,0.1014
1060.00,0.1015
1059.00,0.1015
1058.00,0.1015
1057.00,0.1015
1056.00,0.1016
1055.00,0.1017
1054.00,0.1019
1053.00,0.1021
1052.00,0.1023
1051.00,0.1026
1050.00,0.1027
1049.00,0.1028
1048.00,0.1029
1047.00,0.1030
1046.00,0.1030
1045.00,0.1030
1044.00,0.1030
1043.00,0.1031
1042.00,0.1031
1041.00,0.1031
1040.00,0.1033
1039.00,0.1034
1038.00,0.1036
1037.00,0.1037
1036.00,0.1038
1035.00,0.1039
1034.00,0.1038
1033.00,0.1038
1032.00,0.1037
1031.00,0.1037
1030.00,0.1036
1029.00,0.1034
1028.00,0.1032
1027.00,0.1030
1026.00,0.1027
1025.00,0.1025
1024.00,0.1023
1023.00,0.1021
1022.00,0.1019
1021.00,0.1018
1020.00,0.1016
1019.00,0.1015
1018.00,0.1015
1017.00,0.1014
1016.00,0.1014
1015.00,0.1013
1014.00,0.1012
1013.00,0.1011
1012.00,0.1011
1011.00,0.1011
1010.00,0.1012
1009.00,0.1012
1008.00,0.1012
1007.00,0.1011
1006.00,0.1010
1005.00,0.1008
1004.00,0.1007
1003.00,0.1005
1002.00,0.1003
1001.00,0.1002
1000.00,0.1000
999.00,0.0998
998.00,0.0996
997.00,0.0994
996.00,0.0992
995.00,0.0989
994.00,0.0987
993.00,0.0985
992.00,0.0983
991.00,0.0981
990.00,0.0980
989.00,0.0977
988.00,0.0975
987.00,0.0973
986.00,0.0972
985.00,0.0971
984.00,0.0969
983.00,0.0967
982.00,0.0966
981.00,0.0964
980.00,0.0963
979.00,0.0961
978.00,0.0960
977.00,0.0958
976.00,0.0957
975.00,0.0956
974.00,0.0954
973.00,0.0952
972.00,0.0950
971.00,0.0948
970.00,0.0947
969.00,0.0945
968.00,0.0944
967.00,0.0943
966.00,0.0943
965.00,0.0942
964.00,0.0940
963.00,0.0939
962.00,0.0937
961.00,0.0936
960.00,0.0935
959.00,0.0935
958.00,0.0935
957.00,0.0934
956.00,0.0933
955.00,0.0932
954.00,0.0932
953.00,0.0931
952.00,0.0931
951.00,0.0930
950.00,0.0930
949.00,0.0931
948.00,0.0932
947.00,0.0932
946.00,0.0932
945.00,0.0931
944.00,0.0931
943.00,0.0930
942.00,0.0930
941.00,0.0931
940.00,0.0931
939.00,0.0932
938.00,0.0932
937.00,0.0931
936.00,0.0931
935.00,0.0932
934.00,0.0932
933.00,0.0933
932.00,0.0932
931.00,0.0932
930.00,0.0931
929.00,0.0930
928.00,0.0931
927.00,0.0932
926.00,0.0933
925.00,0.0933
924.00,0.0933
923.00,0.0932
922.00,0.0932
921.00,0.0933
920.00,0.0935
919.00,0.0937
918.00,0.0939
917.00,0.0942
916.00,0.0944
915.00,0.0945
914.00,0.0944
913.00,0.0944
912.00,0.0943
911.00,0.0942
910.00,0.0942
909.00,0.0942
908.00,0.0942
907.00,0.0942
906.00,0.0941
905.00,0.0939
904.00,0.0938
903.00,0.0938
902.00,0.0937
901.00,0.0937
900.00,0.0937
899.00,0.0937
898.00,0.0937
897.00,0.0936
896.00,0.0935
895.00,0.0934
894.00,0.0933
893.00,0.0932
892.00,0.0930
891.00,0.0929
890.00,0.0928
889.00,0.0928
888.00,0.0928
887.00,0.0928
886.00,0.0927
885.00,0.0926
884.00,0.0926
883.00,0.0926
882.00,0.0926
881.00,0.0926
880.00,0.0926
879.00,0.0926
878.00,0.0925
877.00,0.0924
876.00,0.0924
875.00,0.0924
874.00,0.0924
873.00,0.0924
872.00,0.0925
871.00,0.0926
870.00,0.0926
869.00,0.0925
868.00,0.0925
867.00,0.0924
866.00,0.0922
865.00,0.0921
864.00,0.0920
863.00,0.0920
862.00,0.0921
861.00,0.0921
860.00,0.0921
859.00,0.0920
858.00,0.0920
857.00,0.0921
856.00,0.0921
855.00,0.0922
854.00,0.0923
853.00,0.0924
852.00,0.0925
851.00,0.0925
850.00,0.0925
849.00,0.0925
848.00,0.0925
847.00,0.0925
846.00,0.0926
845.00,0.0927
844.00,0.0929
843.00,0.0930
842.00,0.0930
841.00,0.0931
840.00,0.0933
839.00,0.0936
838.00,0.0937
837.00,0.0936
836.00,0.0935
835.00,0.0934
834.00,0.0934
833.00,0.0935
832.00,0.0937
831.00,0.0939
830.00,0.0941
829.00,0.0943
828.00,0.0944
827.00,0.0946
826.00,0.0947
825.00,0.0948
824.00,0.0950
823.00,0.0952
822.00,0.0954
821.00,0.0955
820.00,0.0957
819.00,0.0959
818.00,0.0960
817.00,0.0961
816.00,0.0961
815.00,0.0962
814.00,0.0963
813.00,0.0963
812.00,0.0962
811.00,0.0961
810.00,0.0960
809.00,0.0961
808.00,0.0963
807.00,0.0966
806.00,0.0969
805.00,0.0972
804.00,0.0975
803.00,0.0977
802.00,0.0979
801.00,0.0979
800.00,0.0980
799.00,0.0980
798.00,0.0981
797.00,0.0983
796.00,0.0985
795.00,0.0987
794.00,0.0988
793.00,0.0987
792.00,0.0986
791.00,0.0987
790.00,0.0988
789.00,0.0990
788.00,0.0991
787.00,0.0991
786.00,0.0990
785.00,0.0989
784.00,0.0990
783.00,0.0992
782.00,0.0995
781.00,0.0997
780.00,0.0999
779.00,0.1001
778.00,0.1003
777.00,0.1004
776.00,0.1004
775.00,0.1003
774.00,0.1003
773.00,0.1004
772.00,0.1005
771.00,0.1006
770.00,0.1007
769.00,0.1009
768.00,0.1010
767.00,0.1012
766.00,0.1013
765.00,0.1014
764.00,0.1015
763.00,0.1014
762.00,0.1013
761.00,0.1013
760.00,0.1015
759.00,0.1017
758.00,0.1020
757.00,0.1021
756.00,0.1021
755.00,0.1021
754.00,0.1022
753.00,0.1023
752.00,0.1024
751.00,0.1024
750.00,0.1025
749.00,0.1026
748.00,0.1028
747.00,0.1031
746.00,0.1032
745.00,0.1032
744.00,0.1031
743.00,0.1029
742.00,0.1028
741.00,0.1029
740.00,0.1030
739.00,0.1032
738.00,0.1034
737.00,0.1036
736.00,0.1038
735.00,0.1040
734.00,0.1041
733.00,0.1041
732.00,0.1041
731.00,0.1041
730.00,0.1042
729.00,0.1046
728.00,0.1049
727.00,0.1051
726.00,0.1051
725.00,0.1049
724.00,0.1048
723.00,0.1046
722.00,0.1046
721.00,0.1047
720.00,0.1050
719.00,0.1052
718.00,0.1054
717.00,0.1055
716.00,0.1056
715.00,0.1057
714.00,0.1059
713.00,0.1061
712.00,0.1063
711.00,0.1064
710.00,0.1065
709.00,0.1067
708.00,0.1069
707.00,0.1071
706.00,0.1071
705.00,0.1071
704.00,0.1071
703.00,0.1072
702.00,0.1076
701.00,0.1080
700.00,0.1084
699.00,0.1086
698.00,0.1087
697.00,0.1087
696.00,0.1087
695.00,0.1086
694.00,0.1085
693.00,0.1084
692.00,0.1085
691.00,0.1087
690.00,0.1089
689.00,0.1092
688.00,0.1095
687.00,0.1098
686.00,0.1100
685.00,0.1102
684.00,0.1104
683.00,0.1104
682.00,0.1103
681.00,0.1104
680.00,0.1107
679.00,0.1109
678.00,0.1109
677.00,0.1108
676.00,0.1109
675.00,0.1111
674.00,0.1112
673.00,0.1111
672.00,0.1108
671.00,0.1105
670.00,0.1107
669.00,0.1122
668.00,0.1152
667.00,0.1171
666.00,0.1161
665.00,0.1137
664.00,0.1122
663.00,0.1119
662.00,0.1121
661.00,0.1121
660.00,0.1122
659.00,0.1124
658.00,0.1128
657.00,0.1132
656.00,0.1135
655.00,0.1135
654.00,0.1133
653.00,0.1132
652.00,0.1133
651.00,0.1135
650.00,0.1136
