Created as New Dataset,Monday, April 03 2023
cm-1,A
4000.00,0.0079
3999.00,0.0079
3998.00,0.0080
3997.00,0.0080
3996.00,0.0080
3995.00,0.0079
3994.00,0.0079
3993.00,0.0079
3992.00,0.0079
3991.00,0.0079
3990.00,0.0079
3989.00,0.0079
3988.00,0.0079
3987.00,0.0078
3986.00,0.0078
3985.00,0.0078
3984.00,0.0078
3983.00,0.0079
3982.00,0.0079
3981.00,0.0079
3980.00,0.0079
3979.00,0.0079
3978.00,0.0079
3977.00,0.0078
3976.00,0.0078
3975.00,0.0078
3974.00,0.0077
3973.00,0.0078
3972.00,0.0078
3971.00,0.0079
3970.00,0.0079
3969.00,0.0079
3968.00,0.0079
3967.00,0.0078
3966.00,0.0078
3965.00,0.0078
3964.00,0.0078
3963.00,0.0079
3962.00,0.0080
3961.00,0.0079
3960.00,0.0078
3959.00,0.0078
3958.00,0.0077
3957.00,0.0078
3956.00,0.0078
3955.00,0.0077
3954.00,0.0077
3953.00,0.0077
3952.00,0.0078
3951.00,0.0079
3950.00,0.0080
3949.00,0.0081
3948.00,0.0081
3947.00,0.0081
3946.00,0.0082
3945.00,0.0081
3944.00,0.0080
3943.00,0.0079
3942.00,0.0078
3941.00,0.0078
3940.00,0.0078
3939.00,0.0078
3938.00,0.0078
3937.00,0.0078
3936.00,0.0078
3935.00,0.0078
3934.00,0.0078
3933.00,0.0078
3932.00,0.0078
3931.00,0.0079
3930.00,0.0079
3929.00,0.0080
3928.00,0.0080
3927.00,0.0080
3926.00,0.0080
3925.00,0.0079
3924.00,0.0079
3923.00,0.0080
3922.00,0.0081
3921.00,0.0080
3920.00,0.0080
3919.00,0.0080
3918.00,0.0080
3917.00,0.0080
3916.00,0.0081
3915.00,0.0080
3914.00,0.0080
3913.00,0.0079
3912.00,0.0078
3911.00,0.0077
3910.00,0.0077
3909.00,0.0078
3908.00,0.0078
3907.00,0.0079
3906.00,0.0079
3905.00,0.0079
3904.00,0.0080
3903.00,0.0081
3902.00,0.0083
3901.00,0.0084
3900.00,0.0084
3899.00,0.0082
3898.00,0.0081
3897.00,0.0080
3896.00,0.0079
3895.00,0.0079
3894.00,0.0079
3893.00,0.0079
3892.00,0.0079
3891.00,0.0078
3890.00,0.0077
3889.00,0.0078
3888.00,0.0079
3887.00,0.0078
3886.00,0.0077
3885.00,0.0077
3884.00,0.0078
3883.00,0.0080
3882.00,0.0080
3881.00,0.0078
3880.00,0.0077
3879.00,0.0078
3878.00,0.0079
3877.00,0.0081
3876.00,0.0082
3875.00,0.0080
3874.00,0.0079
3873.00,0.0080
3872.00,0.0081
3871.00,0.0081
3870.00,0.0079
3869.00,0.0079
3868.00,0.0079
3867.00,0.0080
3866.00,0.0080
3865.00,0.0079
3864.00,0.0080
3863.00,0.0081
3862.00,0.0081
3861.00,0.0081
3860.00,0.0080
3859.00,0.0079
3858.00,0.0079
3857.00,0.0080
3856.00,0.0080
3855.00,0.0079
3854.00,0.0078
3853.00,0.0079
3852.00,0.0080
3851.00,0.0081
3850.00,0.0080
3849.00,0.0079
3848.00,0.0078
3847.00,0.0077
3846.00,0.0077
3845.00,0.0078
3844.00,0.0077
3843.00,0.0078
3842.00,0.0079
3841.00,0.0080
3840.00,0.0081
3839.00,0.0081
3838.00,0.0080
3837.00,0.0080
3836.00,0.0079
3835.00,0.0079
3834.00,0.0080
3833.00,0.0080
3832.00,0.0080
3831.00,0.0080
3830.00,0.0080
3829.00,0.0080
3828.00,0.0079
3827.00,0.0077
3826.00,0.0077
3825.00,0.0078
3824.00,0.0080
3823.00,0.0081
3822.00,0.0080
3821.00,0.0079
3820.00,0.0079
3819.00,0.0081
3818.00,0.0082
3817.00,0.0080
3816.00,0.0079
3815.00,0.0079
3814.00,0.0080
3813.00,0.0080
3812.00,0.0079
3811.00,0.0077
3810.00,0.0077
3809.00,0.0077
3808.00,0.0076
3807.00,0.0076
3806.00,0.0077
3805.00,0.0080
3804.00,0.0083
3803.00,0.0083
3802.00,0.0082
3801.00,0.0081
3800.00,0.0081
3799.00,0.0082
3798.00,0.0081
3797.00,0.0079
3796.00,0.0078
3795.00,0.0079
3794.00,0.0079
3793.00,0.0080
3792.00,0.0079
3791.00,0.0079
3790.00,0.0078
3789.00,0.0079
3788.00,0.0079
3787.00,0.0080
3786.00,0.0080
3785.00,0.0080
3784.00,0.0080
3783.00,0.0080
3782.00,0.0080
3781.00,0.0080
3780.00,0.0079
3779.00,0.0079
3778.00,0.0079
3777.00,0.0079
3776.00,0.0079
3775.00,0.0078
3774.00,0.0078
3773.00,0.0078
3772.00,0.0078
3771.00,0.0078
3770.00,0.0077
3769.00,0.0077
3768.00,0.0078
3767.00,0.0079
3766.00,0.0079
3765.00,0.0078
3764.00,0.0079
3763.00,0.0079
3762.00,0.0080
3761.00,0.0080
3760.00,0.0079
3759.00,0.0079
3758.00,0.0078
3757.00,0.0078
3756.00,0.0078
3755.00,0.0079
3754.00,0.0079
3753.00,0.0078
3752.00,0.0078
3751.00,0.0079
3750.00,0.0080
3749.00,0.0080
3748.00,0.0082
3747.00,0.0085
3746.00,0.0086
3745.00,0.0084
3744.00,0.0081
3743.00,0.0080
3742.00,0.0080
3741.00,0.0080
3740.00,0.0080
3739.00,0.0081
3738.00,0.0082
3737.00,0.0083
3736.00,0.0082
3735.00,0.0083
3734.00,0.0083
3733.00,0.0082
3732.00,0.0081
3731.00,0.0079
3730.00,0.0079
3729.00,0.0080
3728.00,0.0080
3727.00,0.0079
3726.00,0.0079
3725.00,0.0080
3724.00,0.0080
3723.00,0.0080
3722.00,0.0080
3721.00,0.0080
3720.00,0.0081
3719.00,0.0081
3718.00,0.0080
3717.00,0.0079
3716.00,0.0079
3715.00,0.0079
3714.00,0.0079
3713.00,0.0079
3712.00,0.0080
3711.00,0.0080
3710.00,0.0080
3709.00,0.0080
3708.00,0.0079
3707.00,0.0079
3706.00,0.0080
3705.00,0.0081
3704.00,0.0081
3703.00,0.0080
3702.00,0.0079
3701.00,0.0079
3700.00,0.0079
3699.00,0.0080
3698.00,0.0080
3697.00,0.0080
3696.00,0.0079
3695.00,0.0079
3694.00,0.0079
3693.00,0.0079
3692.00,0.0080
3691.00,0.0082
3690.00,0.0084
3689.00,0.0085
3688.00,0.0084
3687.00,0.0083
3686.00,0.0082
3685.00,0.0081
3684.00,0.0080
3683.00,0.0079
3682.00,0.0079
3681.00,0.0078
3680.00,0.0077
3679.00,0.0076
3678.00,0.0077
3677.00,0.0077
3676.00,0.0076
3675.00,0.0076
3674.00,0.0078
3673.00,0.0080
3672.00,0.0081
3671.00,0.0081
3670.00,0.0082
3669.00,0.0083
3668.00,0.0083
3667.00,0.0082
3666.00,0.0081
3665.00,0.0079
3664.00,0.0078
3663.00,0.0078
3662.00,0.0079
3661.00,0.0079
3660.00,0.0081
3659.00,0.0082
3658.00,0.0083
3657.00,0.0083
3656.00,0.0082
3655.00,0.0083
3654.00,0.0084
3653.00,0.0086
3652.00,0.0086
3651.00,0.0084
3650.00,0.0084
3649.00,0.0085
3648.00,0.0086
3647.00,0.0086
3646.00,0.0085
3645.00,0.0085
3644.00,0.0084
3643.00,0.0084
3642.00,0.0084
3641.00,0.0084
3640.00,0.0084
3639.00,0.0084
3638.00,0.0084
3637.00,0.0085
3636.00,0.0085
3635.00,0.0085
3634.00,0.0085
3633.00,0.0086
3632.00,0.0087
3631.00,0.0088
3630.00,0.0088
3629.00,0.0088
3628.00,0.0089
3627.00,0.0089
3626.00,0.0088
3625.00,0.0087
3624.00,0.0086
3623.00,0.0086
3622.00,0.0087
3621.00,0.0089
3620.00,0.0090
3619.00,0.0091
3618.00,0.0091
3617.00,0.0091
3616.00,0.0092
3615.00,0.0092
3614.00,0.0091
3613.00,0.0090
3612.00,0.0091
3611.00,0.0091
3610.00,0.0092
3609.00,0.0093
3608.00,0.0093
3607.00,0.0094
3606.00,0.0093
3605.00,0.0092
3604.00,0.0091
3603.00,0.0090
3602.00,0.0091
3601.00,0.0092
3600.00,0.0092
3599.00,0.0092
3598.00,0.0092
3597.00,0.0091
3596.00,0.0091
3595.00,0.0091
3594.00,0.0091
3593.00,0.0091
3592.00,0.0091
3591.00,0.0092
3590.00,0.0092
3589.00,0.0093
3588.00,0.0094
3587.00,0.0095
3586.00,0.0095
3585.00,0.0095
3584.00,0.0095
3583.00,0.0094
3582.00,0.0093
3581.00,0.0092
3580.00,0.0092
3579.00,0.0092
3578.00,0.0093
3577.00,0.0093
3576.00,0.0094
3575.00,0.0094
3574.00,0.0094
3573.00,0.0095
3572.00,0.0095
3571.00,0.0096
3570.00,0.0096
3569.00,0.0096
3568.00,0.0097
3567.00,0.0098
3566.00,0.0098
3565.00,0.0098
3564.00,0.0097
3563.00,0.0096
3562.00,0.0095
3561.00,0.0095
3560.00,0.0095
3559.00,0.0095
3558.00,0.0096
3557.00,0.0097
3556.00,0.0097
3555.00,0.0098
3554.00,0.0098
3553.00,0.0098
3552.00,0.0098
3551.00,0.0099
3550.00,0.0100
3549.00,0.0100
3548.00,0.0100
3547.00,0.0100
3546.00,0.0101
3545.00,0.0101
3544.00,0.0101
3543.00,0.0100
3542.00,0.0100
3541.00,0.0100
3540.00,0.0099
3539.00,0.0098
3538.00,0.0097
3537.00,0.0097
3536.00,0.0097
3535.00,0.0098
3534.00,0.0100
3533.00,0.0101
3532.00,0.0101
3531.00,0.0101
3530.00,0.0100
3529.00,0.0099
3528.00,0.0098
3527.00,0.0098
3526.00,0.0099
3525.00,0.0101
3524.00,0.0102
3523.00,0.0103
3522.00,0.0103
3521.00,0.0102
3520.00,0.0101
3519.00,0.0099
3518.00,0.0098
3517.00,0.0098
3516.00,0.0097
3515.00,0.0098
3514.00,0.0099
3513.00,0.0100
3512.00,0.0102
3511.00,0.0102
3510.00,0.0102
3509.00,0.0101
3508.00,0.0100
3507.00,0.0100
3506.00,0.0100
3505.00,0.0101
3504.00,0.0102
3503.00,0.0103
3502.00,0.0103
3501.00,0.0103
3500.00,0.0102
3499.00,0.0102
3498.00,0.0103
3497.00,0.0103
3496.00,0.0104
3495.00,0.0104
3494.00,0.0103
3493.00,0.0103
3492.00,0.0103
3491.00,0.0102
3490.00,0.0102
3489.00,0.0102
3488.00,0.0102
3487.00,0.0102
3486.00,0.0102
3485.00,0.0102
3484.00,0.0103
3483.00,0.0103
3482.00,0.0103
3481.00,0.0103
3480.00,0.0103
3479.00,0.0103
3478.00,0.0103
3477.00,0.0103
3476.00,0.0103
3475.00,0.0104
3474.00,0.0104
3473.00,0.0105
3472.00,0.0105
3471.00,0.0106
3470.00,0.0106
3469.00,0.0106
3468.00,0.0106
3467.00,0.0106
3466.00,0.0106
3465.00,0.0106
3464.00,0.0106
3463.00,0.0105
3462.00,0.0104
3461.00,0.0103
3460.00,0.0103
3459.00,0.0104
3458.00,0.0105
3457.00,0.0106
3456.00,0.0106
3455.00,0.0106
3454.00,0.0106
3453.00,0.0106
3452.00,0.0107
3451.00,0.0107
3450.00,0.0108
3449.00,0.0108
3448.00,0.0108
3447.00,0.0107
3446.00,0.0107
3445.00,0.0107
3444.00,0.0107
3443.00,0.0107
3442.00,0.0107
3441.00,0.0106
3440.00,0.0105
3439.00,0.0104
3438.00,0.0104
3437.00,0.0105
3436.00,0.0105
3435.00,0.0106
3434.00,0.0106
3433.00,0.0106
3432.00,0.0106
3431.00,0.0107
3430.00,0.0107
3429.00,0.0106
3428.00,0.0106
3427.00,0.0106
3426.00,0.0107
3425.00,0.0107
3424.00,0.0108
3423.00,0.0109
3422.00,0.0109
3421.00,0.0109
3420.00,0.0109
3419.00,0.0109
3418.00,0.0109
3417.00,0.0109
3416.00,0.0108
3415.00,0.0108
3414.00,0.0107
3413.00,0.0107
3412.00,0.0107
3411.00,0.0107
3410.00,0.0108
3409.00,0.0108
3408.00,0.0109
3407.00,0.0110
3406.00,0.0109
3405.00,0.0109
3404.00,0.0108
3403.00,0.0108
3402.00,0.0108
3401.00,0.0109
3400.00,0.0109
3399.00,0.0110
3398.00,0.0110
3397.00,0.0109
3396.00,0.0108
3395.00,0.0108
3394.00,0.0108
3393.00,0.0109
3392.00,0.0110
3391.00,0.0110
3390.00,0.0110
3389.00,0.0110
3388.00,0.0110
3387.00,0.0110
3386.00,0.0109
3385.00,0.0109
3384.00,0.0109
3383.00,0.0110
3382.00,0.0110
3381.00,0.0110
3380.00,0.0111
3379.00,0.0111
3378.00,0.0111
3377.00,0.0111
3376.00,0.0110
3375.00,0.0110
3374.00,0.0110
3373.00,0.0110
3372.00,0.0109
3371.00,0.0109
3370.00,0.0109
3369.00,0.0109
3368.00,0.0109
3367.00,0.0109
3366.00,0.0109
3365.00,0.0108
3364.00,0.0107
3363.00,0.0108
3362.00,0.0109
3361.00,0.0110
3360.00,0.0111
3359.00,0.0112
3358.00,0.0112
3357.00,0.0111
3356.00,0.0111
3355.00,0.0110
3354.00,0.0110
3353.00,0.0111
3352.00,0.0111
3351.00,0.0111
3350.00,0.0111
3349.00,0.0111
3348.00,0.0110
3347.00,0.0110
3346.00,0.0110
3345.00,0.0110
3344.00,0.0109
3343.00,0.0109
3342.00,0.0109
3341.00,0.0110
3340.00,0.0110
3339.00,0.0111
3338.00,0.0111
3337.00,0.0111
3336.00,0.0111
3335.00,0.0110
3334.00,0.0110
3333.00,0.0110
3332.00,0.0110
3331.00,0.0109
3330.00,0.0109
3329.00,0.0108
3328.00,0.0108
3327.00,0.0109
3326.00,0.0109
3325.00,0.0110
3324.00,0.0111
3323.00,0.0111
3322.00,0.0110
3321.00,0.0110
3320.00,0.0110
3319.00,0.0110
3318.00,0.0111
3317.00,0.0111
3316.00,0.0110
3315.00,0.0110
3314.00,0.0110
3313.00,0.0109
3312.00,0.0109
3311.00,0.0109
3310.00,0.0110
3309.00,0.0110
3308.00,0.0111
3307.00,0.0111
3306.00,0.0111
3305.00,0.0110
3304.00,0.0110
3303.00,0.0109
3302.00,0.0109
3301.00,0.0109
3300.00,0.0109
3299.00,0.0109
3298.00,0.0109
3297.00,0.0110
3296.00,0.0110
3295.00,0.0111
3294.00,0.0111
3293.00,0.0111
3292.00,0.0111
3291.00,0.0111
3290.00,0.0110
3289.00,0.0110
3288.00,0.0110
3287.00,0.0110
3286.00,0.0110
3285.00,0.0111
3284.00,0.0111
3283.00,0.0112
3282.00,0.0111
3281.00,0.0111
3280.00,0.0110
3279.00,0.0110
3278.00,0.0110
3277.00,0.0110
3276.00,0.0110
3275.00,0.0110
3274.00,0.0110
3273.00,0.0111
3272.00,0.0111
3271.00,0.0112
3270.00,0.0113
3269.00,0.0113
3268.00,0.0113
3267.00,0.0112
3266.00,0.0111
3265.00,0.0110
3264.00,0.0109
3263.00,0.0109
3262.00,0.0109
3261.00,0.0110
3260.00,0.0110
3259.00,0.0110
3258.00,0.0110
3257.00,0.0110
3256.00,0.0110
3255.00,0.0110
3254.00,0.0109
3253.00,0.0110
3252.00,0.0110
3251.00,0.0110
3250.00,0.0110
3249.00,0.0110
3248.00,0.0110
3247.00,0.0111
3246.00,0.0111
3245.00,0.0110
3244.00,0.0110
3243.00,0.0110
3242.00,0.0110
3241.00,0.0109
3240.00,0.0109
3239.00,0.0109
3238.00,0.0110
3237.00,0.0111
3236.00,0.0112
3235.00,0.0113
3234.00,0.0114
3233.00,0.0113
3232.00,0.0113
3231.00,0.0112
3230.00,0.0111
3229.00,0.0110
3228.00,0.0110
3227.00,0.0109
3226.00,0.0109
3225.00,0.0109
3224.00,0.0109
3223.00,0.0110
3222.00,0.0110
3221.00,0.0110
3220.00,0.0109
3219.00,0.0109
3218.00,0.0109
3217.00,0.0109
3216.00,0.0110
3215.00,0.0111
3214.00,0.0111
3213.00,0.0110
3212.00,0.0110
3211.00,0.0109
3210.00,0.0108
3209.00,0.0109
3208.00,0.0109
3207.00,0.0109
3206.00,0.0109
3205.00,0.0109
3204.00,0.0109
3203.00,0.0109
3202.00,0.0110
3201.00,0.0110
3200.00,0.0110
3199.00,0.0110
3198.00,0.0110
3197.00,0.0110
3196.00,0.0110
3195.00,0.0110
3194.00,0.0110
3193.00,0.0110
3192.00,0.0109
3191.00,0.0109
3190.00,0.0108
3189.00,0.0108
3188.00,0.0107
3187.00,0.0107
3186.00,0.0107
3185.00,0.0107
3184.00,0.0108
3183.00,0.0108
3182.00,0.0109
3181.00,0.0109
3180.00,0.0109
3179.00,0.0108
3178.00,0.0107
3177.00,0.0106
3176.00,0.0106
3175.00,0.0106
3174.00,0.0106
3173.00,0.0107
3172.00,0.0107
3171.00,0.0107
3170.00,0.0107
3169.00,0.0106
3168.00,0.0106
3167.00,0.0106
3166.00,0.0106
3165.00,0.0107
3164.00,0.0108
3163.00,0.0108
3162.00,0.0108
3161.00,0.0107
3160.00,0.0106
3159.00,0.0105
3158.00,0.0104
3157.00,0.0104
3156.00,0.0104
3155.00,0.0104
3154.00,0.0105
3153.00,0.0106
3152.00,0.0106
3151.00,0.0106
3150.00,0.0106
3149.00,0.0105
3148.00,0.0105
3147.00,0.0105
3146.00,0.0105
3145.00,0.0105
3144.00,0.0105
3143.00,0.0104
3142.00,0.0104
3141.00,0.0104
3140.00,0.0104
3139.00,0.0104
3138.00,0.0104
3137.00,0.0105
3136.00,0.0105
3135.00,0.0105
3134.00,0.0104
3133.00,0.0104
3132.00,0.0104
3131.00,0.0104
3130.00,0.0104
3129.00,0.0104
3128.00,0.0104
3127.00,0.0104
3126.00,0.0104
3125.00,0.0104
3124.00,0.0104
3123.00,0.0103
3122.00,0.0103
3121.00,0.0103
3120.00,0.0103
3119.00,0.0103
3118.00,0.0104
3117.00,0.0104
3116.00,0.0104
3115.00,0.0103
3114.00,0.0103
3113.00,0.0103
3112.00,0.0103
3111.00,0.0103
3110.00,0.0103
3109.00,0.0103
3108.00,0.0103
3107.00,0.0103
3106.00,0.0103
3105.00,0.0104
3104.00,0.0104
3103.00,0.0103
3102.00,0.0103
3101.00,0.0102
3100.00,0.0102
3099.00,0.0102
3098.00,0.0102
3097.00,0.0102
3096.00,0.0102
3095.00,0.0103
3094.00,0.0104
3093.00,0.0104
3092.00,0.0104
3091.00,0.0103
3090.00,0.0103
3089.00,0.0102
3088.00,0.0101
3087.00,0.0100
3086.00,0.0101
3085.00,0.0102
3084.00,0.0102
3083.00,0.0102
3082.00,0.0102
3081.00,0.0102
3080.00,0.0102
3079.00,0.0102
3078.00,0.0102
3077.00,0.0102
3076.00,0.0102
3075.00,0.0102
3074.00,0.0102
3073.00,0.0102
3072.00,0.0102
3071.00,0.0102
3070.00,0.0102
3069.00,0.0102
3068.00,0.0103
3067.00,0.0103
3066.00,0.0102
3065.00,0.0101
3064.00,0.0100
3063.00,0.0099
3062.00,0.0099
3061.00,0.0100
3060.00,0.0100
3059.00,0.0101
3058.00,0.0101
3057.00,0.0101
3056.00,0.0101
3055.00,0.0101
3054.00,0.0101
3053.00,0.0101
3052.00,0.0101
3051.00,0.0102
3050.00,0.0102
3049.00,0.0103
3048.00,0.0103
3047.00,0.0102
3046.00,0.0102
3045.00,0.0101
3044.00,0.0101
3043.00,0.0100
3042.00,0.0099
3041.00,0.0099
3040.00,0.0098
3039.00,0.0098
3038.00,0.0099
3037.00,0.0099
3036.00,0.0100
3035.00,0.0100
3034.00,0.0101
3033.00,0.0101
3032.00,0.0100
3031.00,0.0100
3030.00,0.0099
3029.00,0.0099
3028.00,0.0098
3027.00,0.0098
3026.00,0.0098
3025.00,0.0098
3024.00,0.0098
3023.00,0.0098
3022.00,0.0098
3021.00,0.0098
3020.00,0.0098
3019.00,0.0097
3018.00,0.0096
3017.00,0.0096
3016.00,0.0096
3015.00,0.0096
3014.00,0.0096
3013.00,0.0095
3012.00,0.0094
3011.00,0.0094
3010.00,0.0094
3009.00,0.0093
3008.00,0.0091
3007.00,0.0090
3006.00,0.0089
3005.00,0.0089
3004.00,0.0088
3003.00,0.0087
3002.00,0.0086
3001.00,0.0085
3000.00,0.0084
2999.00,0.0083
2998.00,0.0082
2997.00,0.0081
2996.00,0.0081
2995.00,0.0080
2994.00,0.0080
2993.00,0.0080
2992.00,0.0079
2991.00,0.0078
2990.00,0.0077
2989.00,0.0076
2988.00,0.0076
2987.00,0.0074
2986.00,0.0072
2985.00,0.0070
2984.00,0.0067
2983.00,0.0064
2982.00,0.0063
2981.00,0.0064
2980.00,0.0065
2979.00,0.0066
2978.00,0.0068
2977.00,0.0070
2976.00,0.0071
2975.00,0.0072
2974.00,0.0071
2973.00,0.0070
2972.00,0.0069
2971.00,0.0070
2970.00,0.0071
2969.00,0.0072
2968.00,0.0074
2967.00,0.0074
2966.00,0.0075
2965.00,0.0075
2964.00,0.0076
2963.00,0.0076
2962.00,0.0077
2961.00,0.0078
2960.00,0.0078
2959.00,0.0078
2958.00,0.0078
2957.00,0.0079
2956.00,0.0080
2955.00,0.0081
2954.00,0.0082
2953.00,0.0082
2952.00,0.0083
2951.00,0.0084
2950.00,0.0084
2949.00,0.0085
2948.00,0.0085
2947.00,0.0085
2946.00,0.0084
2945.00,0.0084
2944.00,0.0085
2943.00,0.0085
2942.00,0.0086
2941.00,0.0086
2940.00,0.0085
2939.00,0.0085
2938.00,0.0084
2937.00,0.0084
2936.00,0.0084
2935.00,0.0084
2934.00,0.0084
2933.00,0.0083
2932.00,0.0083
2931.00,0.0082
2930.00,0.0082
2929.00,0.0082
2928.00,0.0082
2927.00,0.0083
2926.00,0.0082
2925.00,0.0082
2924.00,0.0081
2923.00,0.0081
2922.00,0.0081
2921.00,0.0081
2920.00,0.0080
2919.00,0.0080
2918.00,0.0080
2917.00,0.0080
2916.00,0.0080
2915.00,0.0081
2914.00,0.0082
2913.00,0.0082
2912.00,0.0083
2911.00,0.0084
2910.00,0.0084
2909.00,0.0084
2908.00,0.0084
2907.00,0.0084
2906.00,0.0084
2905.00,0.0084
2904.00,0.0084
2903.00,0.0084
2902.00,0.0084
2901.00,0.0084
2900.00,0.0084
2899.00,0.0084
2898.00,0.0084
2897.00,0.0084
2896.00,0.0084
2895.00,0.0084
2894.00,0.0084
2893.00,0.0084
2892.00,0.0084
2891.00,0.0084
2890.00,0.0084
2889.00,0.0084
2888.00,0.0085
2887.00,0.0085
2886.00,0.0085
2885.00,0.0085
2884.00,0.0084
2883.00,0.0084
2882.00,0.0084
2881.00,0.0084
2880.00,0.0085
2879.00,0.0085
2878.00,0.0086
2877.00,0.0087
2876.00,0.0087
2875.00,0.0087
2874.00,0.0086
2873.00,0.0086
2872.00,0.0086
2871.00,0.0087
2870.00,0.0087
2869.00,0.0087
2868.00,0.0087
2867.00,0.0087
2866.00,0.0087
2865.00,0.0087
2864.00,0.0087
2863.00,0.0087
2862.00,0.0087
2861.00,0.0087
2860.00,0.0087
2859.00,0.0087
2858.00,0.0088
2857.00,0.0088
2856.00,0.0088
2855.00,0.0088
2854.00,0.0087
2853.00,0.0087
2852.00,0.0087
2851.00,0.0088
2850.00,0.0089
2849.00,0.0090
2848.00,0.0090
2847.00,0.0090
2846.00,0.0090
2845.00,0.0090
2844.00,0.0091
2843.00,0.0091
2842.00,0.0091
2841.00,0.0091
2840.00,0.0091
2839.00,0.0091
2838.00,0.0090
2837.00,0.0091
2836.00,0.0091
2835.00,0.0092
2834.00,0.0093
2833.00,0.0093
2832.00,0.0092
2831.00,0.0091
2830.00,0.0091
2829.00,0.0091
2828.00,0.0092
2827.00,0.0092
2826.00,0.0092
2825.00,0.0092
2824.00,0.0092
2823.00,0.0092
2822.00,0.0092
2821.00,0.0091
2820.00,0.0091
2819.00,0.0090
2818.00,0.0090
2817.00,0.0090
2816.00,0.0090
2815.00,0.0090
2814.00,0.0090
2813.00,0.0090
2812.00,0.0090
2811.00,0.0090
2810.00,0.0090
2809.00,0.0090
2808.00,0.0091
2807.00,0.0091
2806.00,0.0091
2805.00,0.0091
2804.00,0.0091
2803.00,0.0091
2802.00,0.0091
2801.00,0.0091
2800.00,0.0091
2799.00,0.0091
2798.00,0.0091
2797.00,0.0091
2796.00,0.0091
2795.00,0.0091
2794.00,0.0091
2793.00,0.0091
2792.00,0.0091
2791.00,0.0091
2790.00,0.0091
2789.00,0.0091
2788.00,0.0091
2787.00,0.0091
2786.00,0.0091
2785.00,0.0090
2784.00,0.0090
2783.00,0.0090
2782.00,0.0090
2781.00,0.0089
2780.00,0.0089
2779.00,0.0089
2778.00,0.0090
2777.00,0.0090
2776.00,0.0090
2775.00,0.0090
2774.00,0.0091
2773.00,0.0091
2772.00,0.0091
2771.00,0.0090
2770.00,0.0090
2769.00,0.0089
2768.00,0.0088
2767.00,0.0088
2766.00,0.0089
2765.00,0.0089
2764.00,0.0089
2763.00,0.0089
2762.00,0.0089
2761.00,0.0089
2760.00,0.0089
2759.00,0.0090
2758.00,0.0090
2757.00,0.0089
2756.00,0.0089
2755.00,0.0089
2754.00,0.0089
2753.00,0.0089
2752.00,0.0089
2751.00,0.0090
2750.00,0.0090
2749.00,0.0090
2748.00,0.0090
2747.00,0.0090
2746.00,0.0090
2745.00,0.0090
2744.00,0.0090
2743.00,0.0090
2742.00,0.0090
2741.00,0.0090
2740.00,0.0090
2739.00,0.0089
2738.00,0.0089
2737.00,0.0088
2736.00,0.0088
2735.00,0.0088
2734.00,0.0089
2733.00,0.0089
2732.00,0.0090
2731.00,0.0090
2730.00,0.0089
2729.00,0.0089
2728.00,0.0089
2727.00,0.0089
2726.00,0.0089
2725.00,0.0089
2724.00,0.0089
2723.00,0.0089
2722.00,0.0088
2721.00,0.0088
2720.00,0.0088
2719.00,0.0088
2718.00,0.0089
2717.00,0.0089
2716.00,0.0089
2715.00,0.0089
2714.00,0.0089
2713.00,0.0090
2712.00,0.0090
2711.00,0.0089
2710.00,0.0089
2709.00,0.0088
2708.00,0.0088
2707.00,0.0088
2706.00,0.0088
2705.00,0.0088
2704.00,0.0088
2703.00,0.0088
2702.00,0.0088
2701.00,0.0088
2700.00,0.0088
2699.00,0.0088
2698.00,0.0089
2697.00,0.0088
2696.00,0.0088
2695.00,0.0088
2694.00,0.0088
2693.00,0.0089
2692.00,0.0089
2691.00,0.0089
2690.00,0.0089
2689.00,0.0089
2688.00,0.0088
2687.00,0.0088
2686.00,0.0088
2685.00,0.0088
2684.00,0.0089
2683.00,0.0088
2682.00,0.0088
2681.00,0.0088
2680.00,0.0087
2679.00,0.0087
2678.00,0.0086
2677.00,0.0086
2676.00,0.0087
2675.00,0.0087
2674.00,0.0087
2673.00,0.0087
2672.00,0.0087
2671.00,0.0087
2670.00,0.0087
2669.00,0.0087
2668.00,0.0087
2667.00,0.0087
2666.00,0.0087
2665.00,0.0087
2664.00,0.0088
2663.00,0.0088
2662.00,0.0088
2661.00,0.0088
2660.00,0.0088
2659.00,0.0089
2658.00,0.0089
2657.00,0.0089
2656.00,0.0089
2655.00,0.0088
2654.00,0.0088
2653.00,0.0088
2652.00,0.0089
2651.00,0.0089
2650.00,0.0089
2649.00,0.0089
2648.00,0.0089
2647.00,0.0088
2646.00,0.0088
2645.00,0.0088
2644.00,0.0088
2643.00,0.0089
2642.00,0.0089
2641.00,0.0089
2640.00,0.0089
2639.00,0.0089
2638.00,0.0089
2637.00,0.0089
2636.00,0.0089
2635.00,0.0089
2634.00,0.0089
2633.00,0.0089
2632.00,0.0089
2631.00,0.0089
2630.00,0.0089
2629.00,0.0088
2628.00,0.0087
2627.00,0.0087
2626.00,0.0087
2625.00,0.0087
2624.00,0.0088
2623.00,0.0089
2622.00,0.0089
2621.00,0.0090
2620.00,0.0090
2619.00,0.0089
2618.00,0.0089
2617.00,0.0089
2616.00,0.0089
2615.00,0.0089
2614.00,0.0089
2613.00,0.0089
2612.00,0.0090
2611.00,0.0090
2610.00,0.0090
2609.00,0.0089
2608.00,0.0089
2607.00,0.0088
2606.00,0.0089
2605.00,0.0089
2604.00,0.0090
2603.00,0.0091
2602.00,0.0091
2601.00,0.0091
2600.00,0.0090
2599.00,0.0089
2598.00,0.0089
2597.00,0.0089
2596.00,0.0088
2595.00,0.0088
2594.00,0.0088
2593.00,0.0089
2592.00,0.0089
2591.00,0.0090
2590.00,0.0090
2589.00,0.0090
2588.00,0.0090
2587.00,0.0089
2586.00,0.0089
2585.00,0.0088
2584.00,0.0087
2583.00,0.0087
2582.00,0.0088
2581.00,0.0089
2580.00,0.0090
2579.00,0.0091
2578.00,0.0091
2577.00,0.0090
2576.00,0.0089
2575.00,0.0089
2574.00,0.0089
2573.00,0.0090
2572.00,0.0090
2571.00,0.0089
2570.00,0.0089
2569.00,0.0089
2568.00,0.0089
2567.00,0.0091
2566.00,0.0092
2565.00,0.0092
2564.00,0.0091
2563.00,0.0091
2562.00,0.0091
2561.00,0.0091
2560.00,0.0091
2559.00,0.0091
2558.00,0.0091
2557.00,0.0091
2556.00,0.0091
2555.00,0.0092
2554.00,0.0092
2553.00,0.0091
2552.00,0.0090
2551.00,0.0089
2550.00,0.0087
2549.00,0.0086
2548.00,0.0086
2547.00,0.0086
2546.00,0.0087
2545.00,0.0088
2544.00,0.0088
2543.00,0.0088
2542.00,0.0088
2541.00,0.0087
2540.00,0.0086
2539.00,0.0086
2538.00,0.0085
2537.00,0.0085
2536.00,0.0085
2535.00,0.0086
2534.00,0.0087
2533.00,0.0088
2532.00,0.0088
2531.00,0.0088
2530.00,0.0087
2529.00,0.0086
2528.00,0.0086
2527.00,0.0086
2526.00,0.0086
2525.00,0.0086
2524.00,0.0086
2523.00,0.0086
2522.00,0.0086
2521.00,0.0086
2520.00,0.0087
2519.00,0.0087
2518.00,0.0089
2517.00,0.0090
2516.00,0.0090
2515.00,0.0090
2514.00,0.0088
2513.00,0.0088
2512.00,0.0088
2511.00,0.0088
2510.00,0.0089
2509.00,0.0089
2508.00,0.0090
2507.00,0.0090
2506.00,0.0089
2505.00,0.0089
2504.00,0.0088
2503.00,0.0088
2502.00,0.0089
2501.00,0.0089
2500.00,0.0090
2499.00,0.0090
2498.00,0.0090
2497.00,0.0090
2496.00,0.0089
2495.00,0.0090
2494.00,0.0090
2493.00,0.0091
2492.00,0.0091
2491.00,0.0091
2490.00,0.0091
2489.00,0.0091
2488.00,0.0091
2487.00,0.0091
2486.00,0.0091
2485.00,0.0090
2484.00,0.0089
2483.00,0.0089
2482.00,0.0089
2481.00,0.0090
2480.00,0.0091
2479.00,0.0091
2478.00,0.0090
2477.00,0.0089
2476.00,0.0088
2475.00,0.0088
2474.00,0.0089
2473.00,0.0089
2472.00,0.0090
2471.00,0.0090
2470.00,0.0090
2469.00,0.0089
2468.00,0.0089
2467.00,0.0088
2466.00,0.0088
2465.00,0.0087
2464.00,0.0087
2463.00,0.0087
2462.00,0.0087
2461.00,0.0088
2460.00,0.0089
2459.00,0.0090
2458.00,0.0090
2457.00,0.0090
2456.00,0.0090
2455.00,0.0090
2454.00,0.0091
2453.00,0.0092
2452.00,0.0093
2451.00,0.0093
2450.00,0.0092
2449.00,0.0091
2448.00,0.0091
2447.00,0.0090
2446.00,0.0090
2445.00,0.0089
2444.00,0.0089
2443.00,0.0088
2442.00,0.0089
2441.00,0.0089
2440.00,0.0089
2439.00,0.0089
2438.00,0.0089
2437.00,0.0089
2436.00,0.0089
2435.00,0.0088
2434.00,0.0088
2433.00,0.0087
2432.00,0.0088
2431.00,0.0089
2430.00,0.0089
2429.00,0.0090
2428.00,0.0090
2427.00,0.0089
2426.00,0.0089
2425.00,0.0089
2424.00,0.0089
2423.00,0.0089
2422.00,0.0089
2421.00,0.0089
2420.00,0.0089
2419.00,0.0089
2418.00,0.0089
2417.00,0.0089
2416.00,0.0089
2415.00,0.0088
2414.00,0.0088
2413.00,0.0089
2412.00,0.0089
2411.00,0.0089
2410.00,0.0089
2409.00,0.0090
2408.00,0.0090
2407.00,0.0089
2406.00,0.0088
2405.00,0.0088
2404.00,0.0089
2403.00,0.0089
2402.00,0.0088
2401.00,0.0088
2400.00,0.0088
2399.00,0.0088
2398.00,0.0088
2397.00,0.0087
2396.00,0.0087
2395.00,0.0087
2394.00,0.0087
2393.00,0.0087
2392.00,0.0087
2391.00,0.0087
2390.00,0.0087
2389.00,0.0087
2388.00,0.0087
2387.00,0.0087
2386.00,0.0086
2385.00,0.0086
2384.00,0.0085
2383.00,0.0084
2382.00,0.0085
2381.00,0.0086
2380.00,0.0087
2379.00,0.0089
2378.00,0.0089
2377.00,0.0088
2376.00,0.0088
2375.00,0.0088
2374.00,0.0089
2373.00,0.0089
2372.00,0.0088
2371.00,0.0087
2370.00,0.0085
2369.00,0.0083
2368.00,0.0082
2367.00,0.0082
2366.00,0.0085
2365.00,0.0087
2364.00,0.0086
2363.00,0.0084
2362.00,0.0082
2361.00,0.0083
2360.00,0.0084
2359.00,0.0085
2358.00,0.0086
2357.00,0.0086
2356.00,0.0086
2355.00,0.0085
2354.00,0.0085
2353.00,0.0085
2352.00,0.0085
2351.00,0.0085
2350.00,0.0085
2349.00,0.0085
2348.00,0.0085
2347.00,0.0085
2346.00,0.0084
2345.00,0.0083
2344.00,0.0084
2343.00,0.0086
2342.00,0.0087
2341.00,0.0088
2340.00,0.0088
2339.00,0.0086
2338.00,0.0085
2337.00,0.0084
2336.00,0.0084
2335.00,0.0084
2334.00,0.0086
2333.00,0.0087
2332.00,0.0087
2331.00,0.0086
2330.00,0.0085
2329.00,0.0084
2328.00,0.0084
2327.00,0.0085
2326.00,0.0086
2325.00,0.0086
2324.00,0.0085
2323.00,0.0084
2322.00,0.0084
2321.00,0.0084
2320.00,0.0085
2319.00,0.0085
2318.00,0.0084
2317.00,0.0084
2316.00,0.0084
2315.00,0.0085
2314.00,0.0086
2313.00,0.0086
2312.00,0.0087
2311.00,0.0087
2310.00,0.0088
2309.00,0.0088
2308.00,0.0088
2307.00,0.0088
2306.00,0.0087
2305.00,0.0087
2304.00,0.0086
2303.00,0.0085
2302.00,0.0084
2301.00,0.0084
2300.00,0.0085
2299.00,0.0085
2298.00,0.0085
2297.00,0.0085
2296.00,0.0085
2295.00,0.0085
2294.00,0.0087
2293.00,0.0088
2292.00,0.0090
2291.00,0.0090
2290.00,0.0090
2289.00,0.0089
2288.00,0.0089
2287.00,0.0090
2286.00,0.0091
2285.00,0.0093
2284.00,0.0094
2283.00,0.0094
2282.00,0.0094
2281.00,0.0093
2280.00,0.0093
2279.00,0.0093
2278.00,0.0093
2277.00,0.0093
2276.00,0.0092
2275.00,0.0091
2274.00,0.0090
2273.00,0.0089
2272.00,0.0089
2271.00,0.0089
2270.00,0.0090
2269.00,0.0090
2268.00,0.0090
2267.00,0.0090
2266.00,0.0090
2265.00,0.0091
2264.00,0.0091
2263.00,0.0092
2262.00,0.0092
2261.00,0.0093
2260.00,0.0093
2259.00,0.0092
2258.00,0.0091
2257.00,0.0089
2256.00,0.0087
2255.00,0.0087
2254.00,0.0088
2253.00,0.0089
2252.00,0.0090
2251.00,0.0090
2250.00,0.0091
2249.00,0.0091
2248.00,0.0091
2247.00,0.0091
2246.00,0.0092
2245.00,0.0092
2244.00,0.0092
2243.00,0.0092
2242.00,0.0091
2241.00,0.0090
2240.00,0.0090
2239.00,0.0090
2238.00,0.0090
2237.00,0.0089
2236.00,0.0088
2235.00,0.0088
2234.00,0.0090
2233.00,0.0091
2232.00,0.0091
2231.00,0.0090
2230.00,0.0089
2229.00,0.0088
2228.00,0.0087
2227.00,0.0087
2226.00,0.0087
2225.00,0.0087
2224.00,0.0087
2223.00,0.0086
2222.00,0.0086
2221.00,0.0086
2220.00,0.0086
2219.00,0.0087
2218.00,0.0087
2217.00,0.0088
2216.00,0.0089
2215.00,0.0090
2214.00,0.0092
2213.00,0.0092
2212.00,0.0091
2211.00,0.0090
2210.00,0.0089
2209.00,0.0089
2208.00,0.0090
2207.00,0.0090
2206.00,0.0090
2205.00,0.0090
2204.00,0.0090
2203.00,0.0089
2202.00,0.0089
2201.00,0.0088
2200.00,0.0087
2199.00,0.0087
2198.00,0.0087
2197.00,0.0088
2196.00,0.0089
2195.00,0.0089
2194.00,0.0088
2193.00,0.0086
2192.00,0.0085
2191.00,0.0084
2190.00,0.0082
2189.00,0.0081
2188.00,0.0083
2187.00,0.0086
2186.00,0.0089
2185.00,0.0091
2184.00,0.0089
2183.00,0.0087
2182.00,0.0085
2181.00,0.0085
2180.00,0.0085
2179.00,0.0087
2178.00,0.0090
2177.00,0.0092
2176.00,0.0093
2175.00,0.0093
2174.00,0.0092
2173.00,0.0091
2172.00,0.0091
2171.00,0.0091
2170.00,0.0092
2169.00,0.0093
2168.00,0.0094
2167.00,0.0093
2166.00,0.0093
2165.00,0.0093
2164.00,0.0095
2163.00,0.0098
2162.00,0.0099
2161.00,0.0097
2160.00,0.0092
2159.00,0.0086
2158.00,0.0083
2157.00,0.0082
2156.00,0.0082
2155.00,0.0084
2154.00,0.0087
2153.00,0.0090
2152.00,0.0090
2151.00,0.0088
2150.00,0.0085
2149.00,0.0083
2148.00,0.0085
2147.00,0.0087
2146.00,0.0089
2145.00,0.0089
2144.00,0.0090
2143.00,0.0090
2142.00,0.0091
2141.00,0.0093
2140.00,0.0093
2139.00,0.0091
2138.00,0.0089
2137.00,0.0087
2136.00,0.0085
2135.00,0.0085
2134.00,0.0085
2133.00,0.0085
2132.00,0.0085
2131.00,0.0085
2130.00,0.0085
2129.00,0.0087
2128.00,0.0089
2127.00,0.0090
2126.00,0.0089
2125.00,0.0088
2124.00,0.0087
2123.00,0.0086
2122.00,0.0086
2121.00,0.0086
2120.00,0.0086
2119.00,0.0086
2118.00,0.0085
2117.00,0.0085
2116.00,0.0085
2115.00,0.0084
2114.00,0.0083
2113.00,0.0082
2112.00,0.0082
2111.00,0.0084
2110.00,0.0087
2109.00,0.0089
2108.00,0.0090
2107.00,0.0091
2106.00,0.0090
2105.00,0.0090
2104.00,0.0089
2103.00,0.0088
2102.00,0.0088
2101.00,0.0087
2100.00,0.0086
2099.00,0.0084
2098.00,0.0083
2097.00,0.0084
2096.00,0.0085
2095.00,0.0086
2094.00,0.0087
2093.00,0.0088
2092.00,0.0089
2091.00,0.0088
2090.00,0.0087
2089.00,0.0087
2088.00,0.0087
2087.00,0.0088
2086.00,0.0088
2085.00,0.0089
2084.00,0.0090
2083.00,0.0090
2082.00,0.0089
2081.00,0.0088
2080.00,0.0087
2079.00,0.0088
2078.00,0.0089
2077.00,0.0090
2076.00,0.0091
2075.00,0.0092
2074.00,0.0092
2073.00,0.0092
2072.00,0.0093
2071.00,0.0093
2070.00,0.0092
2069.00,0.0089
2068.00,0.0087
2067.00,0.0085
2066.00,0.0085
2065.00,0.0087
2064.00,0.0089
2063.00,0.0090
2062.00,0.0091
2061.00,0.0090
2060.00,0.0088
2059.00,0.0086
2058.00,0.0086
2057.00,0.0086
2056.00,0.0086
2055.00,0.0087
2054.00,0.0089
2053.00,0.0091
2052.00,0.0093
2051.00,0.0093
2050.00,0.0090
2049.00,0.0088
2048.00,0.0087
2047.00,0.0087
2046.00,0.0089
2045.00,0.0092
2044.00,0.0095
2043.00,0.0096
2042.00,0.0096
2041.00,0.0093
2040.00,0.0090
2039.00,0.0088
2038.00,0.0089
2037.00,0.0092
2036.00,0.0095
2035.00,0.0096
2034.00,0.0095
2033.00,0.0094
2032.00,0.0096
2031.00,0.0099
2030.00,0.0100
2029.00,0.0099
2028.00,0.0095
2027.00,0.0091
2026.00,0.0089
2025.00,0.0087
2024.00,0.0086
2023.00,0.0085
2022.00,0.0084
2021.00,0.0083
2020.00,0.0082
2019.00,0.0080
2018.00,0.0078
2017.00,0.0077
2016.00,0.0079
2015.00,0.0082
2014.00,0.0083
2013.00,0.0084
2012.00,0.0084
2011.00,0.0085
2010.00,0.0086
2009.00,0.0087
2008.00,0.0088
2007.00,0.0087
2006.00,0.0087
2005.00,0.0086
2004.00,0.0086
2003.00,0.0088
2002.00,0.0091
2001.00,0.0094
2000.00,0.0094
1999.00,0.0092
1998.00,0.0090
1997.00,0.0091
1996.00,0.0093
1995.00,0.0095
1994.00,0.0096
1993.00,0.0096
1992.00,0.0096
1991.00,0.0094
1990.00,0.0090
1989.00,0.0087
1988.00,0.0086
1987.00,0.0087
1986.00,0.0088
1985.00,0.0088
1984.00,0.0088
1983.00,0.0087
1982.00,0.0086
1981.00,0.0084
1980.00,0.0081
1979.00,0.0078
1978.00,0.0076
1977.00,0.0074
1976.00,0.0075
1975.00,0.0078
1974.00,0.0082
1973.00,0.0084
1972.00,0.0083
1971.00,0.0082
1970.00,0.0082
1969.00,0.0085
1968.00,0.0088
1967.00,0.0088
1966.00,0.0085
1965.00,0.0083
1964.00,0.0082
1963.00,0.0083
1962.00,0.0084
1961.00,0.0084
1960.00,0.0085
1959.00,0.0086
1958.00,0.0086
1957.00,0.0086
1956.00,0.0085
1955.00,0.0086
1954.00,0.0087
1953.00,0.0088
1952.00,0.0088
1951.00,0.0086
1950.00,0.0085
1949.00,0.0085
1948.00,0.0085
1947.00,0.0086
1946.00,0.0086
1945.00,0.0085
1944.00,0.0083
1943.00,0.0081
1942.00,0.0080
1941.00,0.0080
1940.00,0.0080
1939.00,0.0079
1938.00,0.0079
1937.00,0.0080
1936.00,0.0081
1935.00,0.0081
1934.00,0.0081
1933.00,0.0080
1932.00,0.0080
1931.00,0.0082
1930.00,0.0084
1929.00,0.0086
1928.00,0.0088
1927.00,0.0088
1926.00,0.0089
1925.00,0.0088
1924.00,0.0087
1923.00,0.0085
1922.00,0.0085
1921.00,0.0084
1920.00,0.0083
1919.00,0.0081
1918.00,0.0081
1917.00,0.0082
1916.00,0.0084
1915.00,0.0085
1914.00,0.0085
1913.00,0.0085
1912.00,0.0085
1911.00,0.0085
1910.00,0.0085
1909.00,0.0084
1908.00,0.0083
1907.00,0.0083
1906.00,0.0083
1905.00,0.0084
1904.00,0.0084
1903.00,0.0083
1902.00,0.0083
1901.00,0.0083
1900.00,0.0083
1899.00,0.0085
1898.00,0.0086
1897.00,0.0086
1896.00,0.0085
1895.00,0.0083
1894.00,0.0083
1893.00,0.0084
1892.00,0.0085
1891.00,0.0085
1890.00,0.0085
1889.00,0.0085
1888.00,0.0084
1887.00,0.0083
1886.00,0.0083
1885.00,0.0083
1884.00,0.0083
1883.00,0.0083
1882.00,0.0084
1881.00,0.0084
1880.00,0.0084
1879.00,0.0084
1878.00,0.0083
1877.00,0.0082
1876.00,0.0082
1875.00,0.0083
1874.00,0.0085
1873.00,0.0086
1872.00,0.0087
1871.00,0.0086
1870.00,0.0086
1869.00,0.0086
1868.00,0.0085
1867.00,0.0084
1866.00,0.0084
1865.00,0.0083
1864.00,0.0083
1863.00,0.0082
1862.00,0.0082
1861.00,0.0081
1860.00,0.0081
1859.00,0.0080
1858.00,0.0080
1857.00,0.0081
1856.00,0.0082
1855.00,0.0083
1854.00,0.0083
1853.00,0.0083
1852.00,0.0083
1851.00,0.0083
1850.00,0.0084
1849.00,0.0084
1848.00,0.0083
1847.00,0.0083
1846.00,0.0083
1845.00,0.0083
1844.00,0.0082
1843.00,0.0082
1842.00,0.0081
1841.00,0.0081
1840.00,0.0081
1839.00,0.0081
1838.00,0.0081
1837.00,0.0081
1836.00,0.0082
1835.00,0.0082
1834.00,0.0082
1833.00,0.0083
1832.00,0.0084
1831.00,0.0084
1830.00,0.0085
1829.00,0.0084
1828.00,0.0083
1827.00,0.0082
1826.00,0.0082
1825.00,0.0082
1824.00,0.0082
1823.00,0.0082
1822.00,0.0081
1821.00,0.0081
1820.00,0.0081
1819.00,0.0080
1818.00,0.0080
1817.00,0.0080
1816.00,0.0080
1815.00,0.0080
1814.00,0.0080
1813.00,0.0081
1812.00,0.0081
1811.00,0.0082
1810.00,0.0081
1809.00,0.0081
1808.00,0.0081
1807.00,0.0081
1806.00,0.0081
1805.00,0.0080
1804.00,0.0080
1803.00,0.0080
1802.00,0.0080
1801.00,0.0080
1800.00,0.0080
1799.00,0.0080
1798.00,0.0080
1797.00,0.0081
1796.00,0.0081
1795.00,0.0080
1794.00,0.0080
1793.00,0.0080
1792.00,0.0081
1791.00,0.0081
1790.00,0.0081
1789.00,0.0080
1788.00,0.0080
1787.00,0.0080
1786.00,0.0080
1785.00,0.0080
1784.00,0.0080
1783.00,0.0080
1782.00,0.0080
1781.00,0.0079
1780.00,0.0079
1779.00,0.0079
1778.00,0.0079
1777.00,0.0080
1776.00,0.0080
1775.00,0.0080
1774.00,0.0080
1773.00,0.0079
1772.00,0.0078
1771.00,0.0078
1770.00,0.0078
1769.00,0.0077
1768.00,0.0077
1767.00,0.0077
1766.00,0.0077
1765.00,0.0078
1764.00,0.0078
1763.00,0.0077
1762.00,0.0076
1761.00,0.0076
1760.00,0.0076
1759.00,0.0076
1758.00,0.0075
1757.00,0.0075
1756.00,0.0075
1755.00,0.0076
1754.00,0.0077
1753.00,0.0076
1752.00,0.0075
1751.00,0.0075
1750.00,0.0075
1749.00,0.0076
1748.00,0.0076
1747.00,0.0076
1746.00,0.0076
1745.00,0.0076
1744.00,0.0076
1743.00,0.0076
1742.00,0.0076
1741.00,0.0076
1740.00,0.0075
1739.00,0.0075
1738.00,0.0075
1737.00,0.0076
1736.00,0.0076
1735.00,0.0076
1734.00,0.0075
1733.00,0.0076
1732.00,0.0076
1731.00,0.0077
1730.00,0.0077
1729.00,0.0076
1728.00,0.0076
1727.00,0.0076
1726.00,0.0076
1725.00,0.0076
1724.00,0.0076
1723.00,0.0077
1722.00,0.0077
1721.00,0.0077
1720.00,0.0077
1719.00,0.0077
1718.00,0.0076
1717.00,0.0076
1716.00,0.0077
1715.00,0.0077
1714.00,0.0077
1713.00,0.0078
1712.00,0.0078
1711.00,0.0078
1710.00,0.0078
1709.00,0.0078
1708.00,0.0079
1707.00,0.0079
1706.00,0.0079
1705.00,0.0079
1704.00,0.0080
1703.00,0.0080
1702.00,0.0080
1701.00,0.0079
1700.00,0.0078
1699.00,0.0079
1698.00,0.0080
1697.00,0.0081
1696.00,0.0082
1695.00,0.0081
1694.00,0.0081
1693.00,0.0081
1692.00,0.0081
1691.00,0.0082
1690.00,0.0082
1689.00,0.0084
1688.00,0.0085
1687.00,0.0085
1686.00,0.0084
1685.00,0.0082
1684.00,0.0082
1683.00,0.0082
1682.00,0.0082
1681.00,0.0081
1680.00,0.0081
1679.00,0.0081
1678.00,0.0082
1677.00,0.0083
1676.00,0.0084
1675.00,0.0086
1674.00,0.0086
1673.00,0.0086
1672.00,0.0085
1671.00,0.0085
1670.00,0.0085
1669.00,0.0086
1668.00,0.0086
1667.00,0.0085
1666.00,0.0085
1665.00,0.0085
1664.00,0.0084
1663.00,0.0084
1662.00,0.0084
1661.00,0.0085
1660.00,0.0086
1659.00,0.0088
1658.00,0.0089
1657.00,0.0090
1656.00,0.0091
1655.00,0.0091
1654.00,0.0089
1653.00,0.0090
1652.00,0.0091
1651.00,0.0091
1650.00,0.0091
1649.00,0.0091
1648.00,0.0091
1647.00,0.0092
1646.00,0.0093
1645.00,0.0093
1644.00,0.0093
1643.00,0.0093
1642.00,0.0093
1641.00,0.0093
1640.00,0.0093
1639.00,0.0093
1638.00,0.0093
1637.00,0.0093
1636.00,0.0095
1635.00,0.0096
1634.00,0.0096
1633.00,0.0095
1632.00,0.0093
1631.00,0.0093
1630.00,0.0092
1629.00,0.0093
1628.00,0.0093
1627.00,0.0093
1626.00,0.0094
1625.00,0.0094
1624.00,0.0095
1623.00,0.0095
1622.00,0.0095
1621.00,0.0095
1620.00,0.0095
1619.00,0.0095
1618.00,0.0095
1617.00,0.0093
1616.00,0.0093
1615.00,0.0093
1614.00,0.0094
1613.00,0.0094
1612.00,0.0093
1611.00,0.0093
1610.00,0.0093
1609.00,0.0093
1608.00,0.0093
1607.00,0.0093
1606.00,0.0093
1605.00,0.0094
1604.00,0.0093
1603.00,0.0092
1602.00,0.0091
1601.00,0.0090
1600.00,0.0090
1599.00,0.0090
1598.00,0.0090
1597.00,0.0091
1596.00,0.0092
1595.00,0.0092
1594.00,0.0093
1593.00,0.0093
1592.00,0.0093
1591.00,0.0092
1590.00,0.0091
1589.00,0.0091
1588.00,0.0091
1587.00,0.0092
1586.00,0.0092
1585.00,0.0092
1584.00,0.0092
1583.00,0.0091
1582.00,0.0091
1581.00,0.0091
1580.00,0.0092
1579.00,0.0093
1578.00,0.0095
1577.00,0.0095
1576.00,0.0095
1575.00,0.0093
1574.00,0.0092
1573.00,0.0091
1572.00,0.0091
1571.00,0.0092
1570.00,0.0092
1569.00,0.0092
1568.00,0.0091
1567.00,0.0092
1566.00,0.0091
1565.00,0.0090
1564.00,0.0089
1563.00,0.0089
1562.00,0.0089
1561.00,0.0090
1560.00,0.0090
1559.00,0.0091
1558.00,0.0091
1557.00,0.0090
1556.00,0.0088
1555.00,0.0087
1554.00,0.0088
1553.00,0.0089
1552.00,0.0090
1551.00,0.0089
1550.00,0.0089
1549.00,0.0088
1548.00,0.0087
1547.00,0.0086
1546.00,0.0086
1545.00,0.0086
1544.00,0.0086
1543.00,0.0085
1542.00,0.0084
1541.00,0.0083
1540.00,0.0085
1539.00,0.0086
1538.00,0.0086
1537.00,0.0085
1536.00,0.0085
1535.00,0.0085
1534.00,0.0085
1533.00,0.0086
1532.00,0.0086
1531.00,0.0086
1530.00,0.0086
1529.00,0.0086
1528.00,0.0086
1527.00,0.0085
1526.00,0.0084
1525.00,0.0083
1524.00,0.0083
1523.00,0.0082
1522.00,0.0082
1521.00,0.0082
1520.00,0.0084
1519.00,0.0085
1518.00,0.0086
1517.00,0.0085
1516.00,0.0085
1515.00,0.0084
1514.00,0.0084
1513.00,0.0083
1512.00,0.0083
1511.00,0.0083
1510.00,0.0085
1509.00,0.0086
1508.00,0.0086
1507.00,0.0085
1506.00,0.0086
1505.00,0.0085
1504.00,0.0084
1503.00,0.0083
1502.00,0.0082
1501.00,0.0082
1500.00,0.0082
1499.00,0.0083
1498.00,0.0083
1497.00,0.0084
1496.00,0.0085
1495.00,0.0084
1494.00,0.0083
1493.00,0.0082
1492.00,0.0081
1491.00,0.0082
1490.00,0.0083
1489.00,0.0083
1488.00,0.0083
1487.00,0.0082
1486.00,0.0081
1485.00,0.0080
1484.00,0.0080
1483.00,0.0079
1482.00,0.0079
1481.00,0.0079
1480.00,0.0079
1479.00,0.0078
1478.00,0.0078
1477.00,0.0078
1476.00,0.0079
1475.00,0.0078
1474.00,0.0077
1473.00,0.0076
1472.00,0.0077
1471.00,0.0078
1470.00,0.0078
1469.00,0.0079
1468.00,0.0079
1467.00,0.0079
1466.00,0.0078
1465.00,0.0077
1464.00,0.0076
1463.00,0.0075
1462.00,0.0075
1461.00,0.0075
1460.00,0.0075
1459.00,0.0074
1458.00,0.0074
1457.00,0.0075
1456.00,0.0075
1455.00,0.0074
1454.00,0.0074
1453.00,0.0075
1452.00,0.0075
1451.00,0.0075
1450.00,0.0076
1449.00,0.0076
1448.00,0.0077
1447.00,0.0077
1446.00,0.0077
1445.00,0.0076
1444.00,0.0076
1443.00,0.0076
1442.00,0.0075
1441.00,0.0075
1440.00,0.0075
1439.00,0.0076
1438.00,0.0076
1437.00,0.0076
1436.00,0.0076
1435.00,0.0076
1434.00,0.0076
1433.00,0.0076
1432.00,0.0075
1431.00,0.0075
1430.00,0.0075
1429.00,0.0074
1428.00,0.0074
1427.00,0.0073
1426.00,0.0073
1425.00,0.0073
1424.00,0.0073
1423.00,0.0073
1422.00,0.0073
1421.00,0.0072
1420.00,0.0072
1419.00,0.0073
1418.00,0.0073
1417.00,0.0074
1416.00,0.0075
1415.00,0.0074
1414.00,0.0073
1413.00,0.0071
1412.00,0.0070
1411.00,0.0070
1410.00,0.0069
1409.00,0.0069
1408.00,0.0068
1407.00,0.0068
1406.00,0.0068
1405.00,0.0067
1404.00,0.0066
1403.00,0.0065
1402.00,0.0064
1401.00,0.0063
1400.00,0.0061
1399.00,0.0061
1398.00,0.0061
1397.00,0.0061
1396.00,0.0061
1395.00,0.0061
1394.00,0.0060
1393.00,0.0059
1392.00,0.0059
1391.00,0.0059
1390.00,0.0059
1389.00,0.0059
1388.00,0.0058
1387.00,0.0058
1386.00,0.0057
1385.00,0.0056
1384.00,0.0055
1383.00,0.0055
1382.00,0.0055
1381.00,0.0056
1380.00,0.0057
1379.00,0.0058
1378.00,0.0058
1377.00,0.0059
1376.00,0.0060
1375.00,0.0060
1374.00,0.0061
1373.00,0.0061
1372.00,0.0061
1371.00,0.0060
1370.00,0.0061
1369.00,0.0061
1368.00,0.0061
1367.00,0.0061
1366.00,0.0061
1365.00,0.0061
1364.00,0.0061
1363.00,0.0061
1362.00,0.0062
1361.00,0.0062
1360.00,0.0062
1359.00,0.0063
1358.00,0.0063
1357.00,0.0064
1356.00,0.0064
1355.00,0.0065
1354.00,0.0065
1353.00,0.0065
1352.00,0.0065
1351.00,0.0064
1350.00,0.0063
1349.00,0.0063
1348.00,0.0063
1347.00,0.0063
1346.00,0.0063
1345.00,0.0062
1344.00,0.0062
1343.00,0.0062
1342.00,0.0062
1341.00,0.0063
1340.00,0.0064
1339.00,0.0065
1338.00,0.0065
1337.00,0.0064
1336.00,0.0064
1335.00,0.0064
1334.00,0.0064
1333.00,0.0064
1332.00,0.0064
1331.00,0.0064
1330.00,0.0064
1329.00,0.0065
1328.00,0.0065
1327.00,0.0064
1326.00,0.0064
1325.00,0.0064
1324.00,0.0064
1323.00,0.0064
1322.00,0.0065
1321.00,0.0066
1320.00,0.0067
1319.00,0.0066
1318.00,0.0065
1317.00,0.0064
1316.00,0.0064
1315.00,0.0064
1314.00,0.0064
1313.00,0.0065
1312.00,0.0066
1311.00,0.0067
1310.00,0.0067
1309.00,0.0067
1308.00,0.0066
1307.00,0.0066
1306.00,0.0065
1305.00,0.0066
1304.00,0.0066
1303.00,0.0067
1302.00,0.0067
1301.00,0.0067
1300.00,0.0067
1299.00,0.0066
1298.00,0.0065
1297.00,0.0064
1296.00,0.0064
1295.00,0.0064
1294.00,0.0065
1293.00,0.0066
1292.00,0.0066
1291.00,0.0067
1290.00,0.0067
1289.00,0.0067
1288.00,0.0067
1287.00,0.0066
1286.00,0.0066
1285.00,0.0065
1284.00,0.0065
1283.00,0.0066
1282.00,0.0066
1281.00,0.0065
1280.00,0.0064
1279.00,0.0064
1278.00,0.0063
1277.00,0.0063
1276.00,0.0063
1275.00,0.0063
1274.00,0.0064
1273.00,0.0064
1272.00,0.0063
1271.00,0.0063
1270.00,0.0063
1269.00,0.0063
1268.00,0.0063
1267.00,0.0064
1266.00,0.0064
1265.00,0.0064
1264.00,0.0064
1263.00,0.0063
1262.00,0.0063
1261.00,0.0063
1260.00,0.0064
1259.00,0.0065
1258.00,0.0066
1257.00,0.0067
1256.00,0.0066
1255.00,0.0067
1254.00,0.0068
1253.00,0.0070
1252.00,0.0072
1251.00,0.0072
1250.00,0.0072
1249.00,0.0072
1248.00,0.0073
1247.00,0.0075
1246.00,0.0077
1245.00,0.0080
1244.00,0.0082
1243.00,0.0083
1242.00,0.0083
1241.00,0.0084
1240.00,0.0086
1239.00,0.0088
1238.00,0.0091
1237.00,0.0094
1236.00,0.0096
1235.00,0.0098
1234.00,0.0100
1233.00,0.0102
1232.00,0.0104
1231.00,0.0106
1230.00,0.0108
1229.00,0.0110
1228.00,0.0112
1227.00,0.0114
1226.00,0.0116
1225.00,0.0117
1224.00,0.0118
1223.00,0.0119
1222.00,0.0121
1221.00,0.0124
1220.00,0.0127
1219.00,0.0129
1218.00,0.0131
1217.00,0.0133
1216.00,0.0135
1215.00,0.0137
1214.00,0.0139
1213.00,0.0140
1212.00,0.0142
1211.00,0.0145
1210.00,0.0147
1209.00,0.0149
1208.00,0.0151
1207.00,0.0153
1206.00,0.0154
1205.00,0.0155
1204.00,0.0155
1203.00,0.0156
1202.00,0.0157
1201.00,0.0159
1200.00,0.0160
1199.00,0.0162
1198.00,0.0164
1197.00,0.0166
1196.00,0.0167
1195.00,0.0168
1194.00,0.0168
1193.00,0.0170
1192.00,0.0171
1191.00,0.0173
1190.00,0.0173
1189.00,0.0174
1188.00,0.0174
1187.00,0.0174
1186.00,0.0175
1185.00,0.0176
1184.00,0.0178
1183.00,0.0178
1182.00,0.0178
1181.00,0.0178
1180.00,0.0178
1179.00,0.0179
1178.00,0.0180
1177.00,0.0182
1176.00,0.0183
1175.00,0.0184
1174.00,0.0184
1173.00,0.0185
1172.00,0.0185
1171.00,0.0186
1170.00,0.0186
1169.00,0.0187
1168.00,0.0188
1167.00,0.0188
1166.00,0.0189
1165.00,0.0190
1164.00,0.0191
1163.00,0.0192
1162.00,0.0192
1161.00,0.0192
1160.00,0.0194
1159.00,0.0195
1158.00,0.0196
1157.00,0.0197
1156.00,0.0198
1155.00,0.0201
1154.00,0.0203
1153.00,0.0204
1152.00,0.0203
1151.00,0.0203
1150.00,0.0203
1149.00,0.0203
1148.00,0.0203
1147.00,0.0204
1146.00,0.0206
1145.00,0.0207
1144.00,0.0209
1143.00,0.0211
1142.00,0.0212
1141.00,0.0214
1140.00,0.0214
1139.00,0.0215
1138.00,0.0216
1137.00,0.0217
1136.00,0.0219
1135.00,0.0222
1134.00,0.0224
1133.00,0.0226
1132.00,0.0227
1131.00,0.0228
1130.00,0.0229
1129.00,0.0231
1128.00,0.0234
1127.00,0.0236
1126.00,0.0235
1125.00,0.0233
1124.00,0.0232
1123.00,0.0234
1122.00,0.0238
1121.00,0.0242
1120.00,0.0245
1119.00,0.0247
1118.00,0.0248
1117.00,0.0250
1116.00,0.0252
1115.00,0.0255
1114.00,0.0257
1113.00,0.0258
1112.00,0.0258
1111.00,0.0259
1110.00,0.0261
1109.00,0.0263
1108.00,0.0265
1107.00,0.0266
1106.00,0.0266
1105.00,0.0266
1104.00,0.0268
1103.00,0.0272
1102.00,0.0276
1101.00,0.0278
1100.00,0.0279
1099.00,0.0280
1098.00,0.0282
1097.00,0.0285
1096.00,0.0287
1095.00,0.0290
1094.00,0.0292
1093.00,0.0295
1092.00,0.0298
1091.00,0.0300
1090.00,0.0301
1089.00,0.0301
1088.00,0.0301
1087.00,0.0302
1086.00,0.0304
1085.00,0.0307
1084.00,0.0311
1083.00,0.0315
1082.00,0.0318
1081.00,0.0320
1080.00,0.0323
1079.00,0.0327
1078.00,0.0332
1077.00,0.0335
1076.00,0.0337
1075.00,0.0337
1074.00,0.0336
1073.00,0.0337
1072.00,0.0339
1071.00,0.0340
1070.00,0.0340
1069.00,0.0340
1068.00,0.0341
1067.00,0.0343
1066.00,0.0346
1065.00,0.0351
1064.00,0.0355
1063.00,0.0357
1062.00,0.0356
1061.00,0.0355
1060.00,0.0354
1059.00,0.0356
1058.00,0.0359
1057.00,0.0362
1056.00,0.0365
1055.00,0.0368
1054.00,0.0372
1053.00,0.0376
1052.00,0.0379
1051.00,0.0380
1050.00,0.0380
1049.00,0.0382
1048.00,0.0384
1047.00,0.0387
1046.00,0.0389
1045.00,0.0390
1044.00,0.0391
1043.00,0.0391
1042.00,0.0390
1041.00,0.0389
1040.00,0.0390
1039.00,0.0392
1038.00,0.0394
1037.00,0.0396
1036.00,0.0397
1035.00,0.0398
1034.00,0.0400
1033.00,0.0401
1032.00,0.0402
1031.00,0.0402
1030.00,0.0402
1029.00,0.0401
1028.00,0.0401
1027.00,0.0402
1026.00,0.0404
1025.00,0.0405
1024.00,0.0405
1023.00,0.0404
1022.00,0.0405
1021.00,0.0405
1020.00,0.0406
1019.00,0.0406
1018.00,0.0406
1017.00,0.0407
1016.00,0.0409
1015.00,0.0412
1014.00,0.0413
1013.00,0.0413
1012.00,0.0413
1011.00,0.0414
1010.00,0.0415
1009.00,0.0415
1008.00,0.0415
1007.00,0.0412
1006.00,0.0410
1005.00,0.0409
1004.00,0.0410
1003.00,0.0412
1002.00,0.0413
1001.00,0.0412
1000.00,0.0409
999.00,0.0406
998.00,0.0404
997.00,0.0405
996.00,0.0407
995.00,0.0408
994.00,0.0407
993.00,0.0403
992.00,0.0400
991.00,0.0398
990.00,0.0397
989.00,0.0396
988.00,0.0395
987.00,0.0394
986.00,0.0393
985.00,0.0392
984.00,0.0390
983.00,0.0387
982.00,0.0383
981.00,0.0380
980.00,0.0379
979.00,0.0379
978.00,0.0377
977.00,0.0374
976.00,0.0370
975.00,0.0367
974.00,0.0365
973.00,0.0364
972.00,0.0363
971.00,0.0361
970.00,0.0358
969.00,0.0353
968.00,0.0349
967.00,0.0345
966.00,0.0342
965.00,0.0340
964.00,0.0338
963.00,0.0335
962.00,0.0332
961.00,0.0331
960.00,0.0331
959.00,0.0330
958.00,0.0328
957.00,0.0326
956.00,0.0324
955.00,0.0322
954.00,0.0320
953.00,0.0318
952.00,0.0317
951.00,0.0317
950.00,0.0317
949.00,0.0316
948.00,0.0314
947.00,0.0312
946.00,0.0310
945.00,0.0308
944.00,0.0305
943.00,0.0302
942.00,0.0301
941.00,0.0302
940.00,0.0304
939.00,0.0305
938.00,0.0303
937.00,0.0301
936.00,0.0299
935.00,0.0297
934.00,0.0297
933.00,0.0299
932.00,0.0301
931.00,0.0302
930.00,0.0302
929.00,0.0301
928.00,0.0301
927.00,0.0302
926.00,0.0301
925.00,0.0298
924.00,0.0296
923.00,0.0295
922.00,0.0295
921.00,0.0295
920.00,0.0294
919.00,0.0293
918.00,0.0292
917.00,0.0292
916.00,0.0293
915.00,0.0293
914.00,0.0293
913.00,0.0293
912.00,0.0292
911.00,0.0291
910.00,0.0288
909.00,0.0286
908.00,0.0283
907.00,0.0280
906.00,0.0279
905.00,0.0280
904.00,0.0283
903.00,0.0286
902.00,0.0286
901.00,0.0283
900.00,0.0280
899.00,0.0279
898.00,0.0280
897.00,0.0282
896.00,0.0282
895.00,0.0281
894.00,0.0279
893.00,0.0277
892.00,0.0276
891.00,0.0275
890.00,0.0275
889.00,0.0274
888.00,0.0272
887.00,0.0268
886.00,0.0265
885.00,0.0264
884.00,0.0265
883.00,0.0266
882.00,0.0265
881.00,0.0263
880.00,0.0262
879.00,0.0262
878.00,0.0261
877.00,0.0259
876.00,0.0257
875.00,0.0255
874.00,0.0254
873.00,0.0254
872.00,0.0254
871.00,0.0254
870.00,0.0253
869.00,0.0249
868.00,0.0244
867.00,0.0242
866.00,0.0243
865.00,0.0245
864.00,0.0244
863.00,0.0241
862.00,0.0239
861.00,0.0239
860.00,0.0239
859.00,0.0239
858.00,0.0236
857.00,0.0233
856.00,0.0232
855.00,0.0231
854.00,0.0232
853.00,0.0233
852.00,0.0235
851.00,0.0235
850.00,0.0234
849.00,0.0232
848.00,0.0233
847.00,0.0234
846.00,0.0234
845.00,0.0232
844.00,0.0230
843.00,0.0229
842.00,0.0229
841.00,0.0227
840.00,0.0225
839.00,0.0222
838.00,0.0221
837.00,0.0223
836.00,0.0225
835.00,0.0226
834.00,0.0226
833.00,0.0225
832.00,0.0224
831.00,0.0224
830.00,0.0224
829.00,0.0225
828.00,0.0227
827.00,0.0228
826.00,0.0226
825.00,0.0226
824.00,0.0230
823.00,0.0236
822.00,0.0238
821.00,0.0236
820.00,0.0235
819.00,0.0236
818.00,0.0239
817.00,0.0241
816.00,0.0240
815.00,0.0239
814.00,0.0240
813.00,0.0242
812.00,0.0244
811.00,0.0247
810.00,0.0251
809.00,0.0253
808.00,0.0252
807.00,0.0249
806.00,0.0245
805.00,0.0245
804.00,0.0247
803.00,0.0249
802.00,0.0249
801.00,0.0251
800.00,0.0254
799.00,0.0258
798.00,0.0261
797.00,0.0261
796.00,0.0260
795.00,0.0260
794.00,0.0259
793.00,0.0258
792.00,0.0260
791.00,0.0263
790.00,0.0267
789.00,0.0266
788.00,0.0263
787.00,0.0260
786.00,0.0261
785.00,0.0263
784.00,0.0265
783.00,0.0266
782.00,0.0265
781.00,0.0265
780.00,0.0264
779.00,0.0263
778.00,0.0262
777.00,0.0263
776.00,0.0264
775.00,0.0264
774.00,0.0262
773.00,0.0260
772.00,0.0258
771.00,0.0257
770.00,0.0256
769.00,0.0255
768.00,0.0256
767.00,0.0256
766.00,0.0255
765.00,0.0251
764.00,0.0248
763.00,0.0247
762.00,0.0247
761.00,0.0248
760.00,0.0248
759.00,0.0249
758.00,0.0251
757.00,0.0251
756.00,0.0251
755.00,0.0251
754.00,0.0253
753.00,0.0254
752.00,0.0254
751.00,0.0252
750.00,0.0250
749.00,0.0251
748.00,0.0253
747.00,0.0255
746.00,0.0253
745.00,0.0250
744.00,0.0248
743.00,0.0248
742.00,0.0249
741.00,0.0249
740.00,0.0247
739.00,0.0244
738.00,0.0242
737.00,0.0241
736.00,0.0241
735.00,0.0243
734.00,0.0244
733.00,0.0245
732.00,0.0246
731.00,0.0247
730.00,0.0249
729.00,0.0253
728.00,0.0255
727.00,0.0256
726.00,0.0255
725.00,0.0253
724.00,0.0252
723.00,0.0249
722.00,0.0247
721.00,0.0246
720.00,0.0247
719.00,0.0249
718.00,0.0251
717.00,0.0251
716.00,0.0249
715.00,0.0246
714.00,0.0244
713.00,0.0245
712.00,0.0249
711.00,0.0251
710.00,0.0252
709.00,0.0251
708.00,0.0249
707.00,0.0248
706.00,0.0248
705.00,0.0249
704.00,0.0251
703.00,0.0251
702.00,0.0250
701.00,0.0249
700.00,0.0251
699.00,0.0253
698.00,0.0254
697.00,0.0253
696.00,0.0251
695.00,0.0252
694.00,0.0254
693.00,0.0258
692.00,0.0262
691.00,0.0264
690.00,0.0264
689.00,0.0261
688.00,0.0259
687.00,0.0260
686.00,0.0261
685.00,0.0257
684.00,0.0249
683.00,0.0240
682.00,0.0237
681.00,0.0241
680.00,0.0246
679.00,0.0248
678.00,0.0249
677.00,0.0251
676.00,0.0252
675.00,0.0251
674.00,0.0249
673.00,0.0248
672.00,0.0249
671.00,0.0250
670.00,0.0250
669.00,0.0251
668.00,0.0254
667.00,0.0253
666.00,0.0249
665.00,0.0244
664.00,0.0242
663.00,0.0244
662.00,0.0245
661.00,0.0238
660.00,0.0225
659.00,0.0216
658.00,0.0221
657.00,0.0237
656.00,0.0252
655.00,0.0258
654.00,0.0254
653.00,0.0245
652.00,0.0236
651.00,0.0233
650.00,0.0238
