Created as New Dataset,Monday, April 03 2023
cm-1,A
4000.00,0.0241
3999.00,0.0241
3998.00,0.0241
3997.00,0.0241
3996.00,0.0240
3995.00,0.0240
3994.00,0.0240
3993.00,0.0240
3992.00,0.0240
3991.00,0.0239
3990.00,0.0239
3989.00,0.0239
3988.00,0.0238
3987.00,0.0238
3986.00,0.0238
3985.00,0.0238
3984.00,0.0238
3983.00,0.0238
3982.00,0.0238
3981.00,0.0238
3980.00,0.0238
3979.00,0.0238
3978.00,0.0238
3977.00,0.0238
3976.00,0.0237
3975.00,0.0237
3974.00,0.0237
3973.00,0.0237
3972.00,0.0238
3971.00,0.0238
3970.00,0.0238
3969.00,0.0238
3968.00,0.0237
3967.00,0.0237
3966.00,0.0236
3965.00,0.0236
3964.00,0.0236
3963.00,0.0237
3962.00,0.0238
3961.00,0.0238
3960.00,0.0237
3959.00,0.0236
3958.00,0.0236
3957.00,0.0235
3956.00,0.0235
3955.00,0.0235
3954.00,0.0234
3953.00,0.0235
3952.00,0.0235
3951.00,0.0236
3950.00,0.0236
3949.00,0.0237
3948.00,0.0238
3947.00,0.0238
3946.00,0.0238
3945.00,0.0238
3944.00,0.0236
3943.00,0.0234
3942.00,0.0233
3941.00,0.0234
3940.00,0.0234
3939.00,0.0234
3938.00,0.0234
3937.00,0.0235
3936.00,0.0235
3935.00,0.0235
3934.00,0.0234
3933.00,0.0234
3932.00,0.0234
3931.00,0.0234
3930.00,0.0235
3929.00,0.0236
3928.00,0.0236
3927.00,0.0236
3926.00,0.0235
3925.00,0.0234
3924.00,0.0234
3923.00,0.0235
3922.00,0.0235
3921.00,0.0235
3920.00,0.0235
3919.00,0.0234
3918.00,0.0234
3917.00,0.0234
3916.00,0.0234
3915.00,0.0233
3914.00,0.0233
3913.00,0.0232
3912.00,0.0231
3911.00,0.0231
3910.00,0.0231
3909.00,0.0232
3908.00,0.0233
3907.00,0.0234
3906.00,0.0234
3905.00,0.0233
3904.00,0.0234
3903.00,0.0236
3902.00,0.0237
3901.00,0.0238
3900.00,0.0237
3899.00,0.0235
3898.00,0.0233
3897.00,0.0232
3896.00,0.0231
3895.00,0.0231
3894.00,0.0231
3893.00,0.0230
3892.00,0.0230
3891.00,0.0229
3890.00,0.0229
3889.00,0.0230
3888.00,0.0231
3887.00,0.0229
3886.00,0.0228
3885.00,0.0227
3884.00,0.0229
3883.00,0.0231
3882.00,0.0231
3881.00,0.0229
3880.00,0.0227
3879.00,0.0227
3878.00,0.0229
3877.00,0.0230
3876.00,0.0230
3875.00,0.0229
3874.00,0.0228
3873.00,0.0229
3872.00,0.0230
3871.00,0.0230
3870.00,0.0229
3869.00,0.0229
3868.00,0.0230
3867.00,0.0230
3866.00,0.0230
3865.00,0.0229
3864.00,0.0229
3863.00,0.0229
3862.00,0.0229
3861.00,0.0229
3860.00,0.0227
3859.00,0.0227
3858.00,0.0227
3857.00,0.0227
3856.00,0.0227
3855.00,0.0226
3854.00,0.0224
3853.00,0.0225
3852.00,0.0226
3851.00,0.0227
3850.00,0.0225
3849.00,0.0224
3848.00,0.0223
3847.00,0.0223
3846.00,0.0223
3845.00,0.0224
3844.00,0.0224
3843.00,0.0224
3842.00,0.0225
3841.00,0.0226
3840.00,0.0227
3839.00,0.0227
3838.00,0.0226
3837.00,0.0226
3836.00,0.0225
3835.00,0.0226
3834.00,0.0226
3833.00,0.0225
3832.00,0.0224
3831.00,0.0223
3830.00,0.0223
3829.00,0.0223
3828.00,0.0222
3827.00,0.0221
3826.00,0.0221
3825.00,0.0223
3824.00,0.0226
3823.00,0.0227
3822.00,0.0225
3821.00,0.0223
3820.00,0.0223
3819.00,0.0224
3818.00,0.0224
3817.00,0.0222
3816.00,0.0221
3815.00,0.0220
3814.00,0.0221
3813.00,0.0220
3812.00,0.0219
3811.00,0.0218
3810.00,0.0218
3809.00,0.0217
3808.00,0.0217
3807.00,0.0217
3806.00,0.0218
3805.00,0.0221
3804.00,0.0223
3803.00,0.0223
3802.00,0.0221
3801.00,0.0220
3800.00,0.0221
3799.00,0.0221
3798.00,0.0220
3797.00,0.0218
3796.00,0.0217
3795.00,0.0217
3794.00,0.0217
3793.00,0.0216
3792.00,0.0216
3791.00,0.0215
3790.00,0.0215
3789.00,0.0215
3788.00,0.0216
3787.00,0.0216
3786.00,0.0216
3785.00,0.0216
3784.00,0.0216
3783.00,0.0217
3782.00,0.0217
3781.00,0.0216
3780.00,0.0215
3779.00,0.0214
3778.00,0.0214
3777.00,0.0214
3776.00,0.0213
3775.00,0.0213
3774.00,0.0213
3773.00,0.0213
3772.00,0.0213
3771.00,0.0213
3770.00,0.0212
3769.00,0.0212
3768.00,0.0213
3767.00,0.0213
3766.00,0.0213
3765.00,0.0213
3764.00,0.0213
3763.00,0.0213
3762.00,0.0214
3761.00,0.0213
3760.00,0.0212
3759.00,0.0211
3758.00,0.0211
3757.00,0.0211
3756.00,0.0211
3755.00,0.0211
3754.00,0.0211
3753.00,0.0211
3752.00,0.0210
3751.00,0.0210
3750.00,0.0210
3749.00,0.0212
3748.00,0.0215
3747.00,0.0218
3746.00,0.0219
3745.00,0.0215
3744.00,0.0212
3743.00,0.0210
3742.00,0.0210
3741.00,0.0210
3740.00,0.0210
3739.00,0.0211
3738.00,0.0212
3737.00,0.0212
3736.00,0.0212
3735.00,0.0211
3734.00,0.0211
3733.00,0.0210
3732.00,0.0208
3731.00,0.0207
3730.00,0.0206
3729.00,0.0206
3728.00,0.0205
3727.00,0.0205
3726.00,0.0204
3725.00,0.0204
3724.00,0.0204
3723.00,0.0204
3722.00,0.0204
3721.00,0.0204
3720.00,0.0204
3719.00,0.0204
3718.00,0.0203
3717.00,0.0202
3716.00,0.0202
3715.00,0.0203
3714.00,0.0204
3713.00,0.0205
3712.00,0.0205
3711.00,0.0205
3710.00,0.0204
3709.00,0.0202
3708.00,0.0201
3707.00,0.0200
3706.00,0.0201
3705.00,0.0202
3704.00,0.0202
3703.00,0.0202
3702.00,0.0200
3701.00,0.0200
3700.00,0.0199
3699.00,0.0199
3698.00,0.0199
3697.00,0.0198
3696.00,0.0197
3695.00,0.0198
3694.00,0.0198
3693.00,0.0199
3692.00,0.0199
3691.00,0.0201
3690.00,0.0202
3689.00,0.0203
3688.00,0.0202
3687.00,0.0201
3686.00,0.0199
3685.00,0.0199
3684.00,0.0198
3683.00,0.0198
3682.00,0.0197
3681.00,0.0197
3680.00,0.0197
3679.00,0.0198
3678.00,0.0199
3677.00,0.0200
3676.00,0.0199
3675.00,0.0200
3674.00,0.0201
3673.00,0.0204
3672.00,0.0205
3671.00,0.0206
3670.00,0.0206
3669.00,0.0207
3668.00,0.0207
3667.00,0.0207
3666.00,0.0206
3665.00,0.0206
3664.00,0.0206
3663.00,0.0208
3662.00,0.0209
3661.00,0.0211
3660.00,0.0214
3659.00,0.0217
3658.00,0.0219
3657.00,0.0220
3656.00,0.0222
3655.00,0.0224
3654.00,0.0227
3653.00,0.0230
3652.00,0.0231
3651.00,0.0232
3650.00,0.0235
3649.00,0.0239
3648.00,0.0242
3647.00,0.0243
3646.00,0.0243
3645.00,0.0243
3644.00,0.0244
3643.00,0.0245
3642.00,0.0246
3641.00,0.0247
3640.00,0.0248
3639.00,0.0250
3638.00,0.0252
3637.00,0.0254
3636.00,0.0256
3635.00,0.0257
3634.00,0.0259
3633.00,0.0261
3632.00,0.0264
3631.00,0.0267
3630.00,0.0269
3629.00,0.0273
3628.00,0.0276
3627.00,0.0278
3626.00,0.0278
3625.00,0.0277
3624.00,0.0276
3623.00,0.0277
3622.00,0.0279
3621.00,0.0282
3620.00,0.0285
3619.00,0.0288
3618.00,0.0291
3617.00,0.0293
3616.00,0.0294
3615.00,0.0295
3614.00,0.0296
3613.00,0.0297
3612.00,0.0298
3611.00,0.0300
3610.00,0.0302
3609.00,0.0304
3608.00,0.0306
3607.00,0.0308
3606.00,0.0308
3605.00,0.0308
3604.00,0.0307
3603.00,0.0308
3602.00,0.0310
3601.00,0.0312
3600.00,0.0314
3599.00,0.0315
3598.00,0.0316
3597.00,0.0317
3596.00,0.0318
3595.00,0.0320
3594.00,0.0321
3593.00,0.0322
3592.00,0.0323
3591.00,0.0324
3590.00,0.0325
3589.00,0.0327
3588.00,0.0330
3587.00,0.0333
3586.00,0.0336
3585.00,0.0337
3584.00,0.0336
3583.00,0.0335
3582.00,0.0335
3581.00,0.0335
3580.00,0.0335
3579.00,0.0337
3578.00,0.0338
3577.00,0.0340
3576.00,0.0341
3575.00,0.0342
3574.00,0.0343
3573.00,0.0344
3572.00,0.0345
3571.00,0.0346
3570.00,0.0347
3569.00,0.0348
3568.00,0.0351
3567.00,0.0356
3566.00,0.0359
3565.00,0.0360
3564.00,0.0359
3563.00,0.0358
3562.00,0.0358
3561.00,0.0358
3560.00,0.0360
3559.00,0.0361
3558.00,0.0363
3557.00,0.0364
3556.00,0.0366
3555.00,0.0367
3554.00,0.0368
3553.00,0.0369
3552.00,0.0370
3551.00,0.0372
3550.00,0.0374
3549.00,0.0376
3548.00,0.0377
3547.00,0.0378
3546.00,0.0380
3545.00,0.0382
3544.00,0.0383
3543.00,0.0384
3542.00,0.0384
3541.00,0.0384
3540.00,0.0384
3539.00,0.0383
3538.00,0.0383
3537.00,0.0384
3536.00,0.0385
3535.00,0.0387
3534.00,0.0389
3533.00,0.0390
3532.00,0.0392
3531.00,0.0393
3530.00,0.0394
3529.00,0.0395
3528.00,0.0395
3527.00,0.0395
3526.00,0.0397
3525.00,0.0399
3524.00,0.0402
3523.00,0.0404
3522.00,0.0405
3521.00,0.0405
3520.00,0.0404
3519.00,0.0403
3518.00,0.0403
3517.00,0.0403
3516.00,0.0404
3515.00,0.0405
3514.00,0.0407
3513.00,0.0409
3512.00,0.0411
3511.00,0.0412
3510.00,0.0413
3509.00,0.0414
3508.00,0.0414
3507.00,0.0415
3506.00,0.0416
3505.00,0.0417
3504.00,0.0419
3503.00,0.0421
3502.00,0.0422
3501.00,0.0423
3500.00,0.0424
3499.00,0.0424
3498.00,0.0425
3497.00,0.0426
3496.00,0.0427
3495.00,0.0428
3494.00,0.0428
3493.00,0.0428
3492.00,0.0429
3491.00,0.0430
3490.00,0.0430
3489.00,0.0431
3488.00,0.0432
3487.00,0.0433
3486.00,0.0434
3485.00,0.0434
3484.00,0.0435
3483.00,0.0436
3482.00,0.0438
3481.00,0.0440
3480.00,0.0441
3479.00,0.0441
3478.00,0.0441
3477.00,0.0441
3476.00,0.0442
3475.00,0.0443
3474.00,0.0445
3473.00,0.0446
3472.00,0.0447
3471.00,0.0447
3470.00,0.0448
3469.00,0.0449
3468.00,0.0449
3467.00,0.0451
3466.00,0.0452
3465.00,0.0454
3464.00,0.0454
3463.00,0.0454
3462.00,0.0454
3461.00,0.0454
3460.00,0.0455
3459.00,0.0456
3458.00,0.0458
3457.00,0.0459
3456.00,0.0459
3455.00,0.0460
3454.00,0.0460
3453.00,0.0461
3452.00,0.0462
3451.00,0.0463
3450.00,0.0464
3449.00,0.0465
3448.00,0.0466
3447.00,0.0467
3446.00,0.0468
3445.00,0.0469
3444.00,0.0470
3443.00,0.0470
3442.00,0.0470
3441.00,0.0469
3440.00,0.0469
3439.00,0.0469
3438.00,0.0470
3437.00,0.0470
3436.00,0.0471
3435.00,0.0472
3434.00,0.0473
3433.00,0.0473
3432.00,0.0474
3431.00,0.0475
3430.00,0.0476
3429.00,0.0476
3428.00,0.0477
3427.00,0.0478
3426.00,0.0479
3425.00,0.0480
3424.00,0.0482
3423.00,0.0483
3422.00,0.0484
3421.00,0.0485
3420.00,0.0486
3419.00,0.0487
3418.00,0.0487
3417.00,0.0487
3416.00,0.0486
3415.00,0.0486
3414.00,0.0486
3413.00,0.0487
3412.00,0.0488
3411.00,0.0489
3410.00,0.0490
3409.00,0.0491
3408.00,0.0492
3407.00,0.0493
3406.00,0.0494
3405.00,0.0494
3404.00,0.0493
3403.00,0.0493
3402.00,0.0493
3401.00,0.0494
3400.00,0.0495
3399.00,0.0496
3398.00,0.0496
3397.00,0.0496
3396.00,0.0497
3395.00,0.0497
3394.00,0.0498
3393.00,0.0498
3392.00,0.0499
3391.00,0.0499
3390.00,0.0500
3389.00,0.0500
3388.00,0.0501
3387.00,0.0501
3386.00,0.0501
3385.00,0.0501
3384.00,0.0502
3383.00,0.0503
3382.00,0.0503
3381.00,0.0504
3380.00,0.0504
3379.00,0.0505
3378.00,0.0506
3377.00,0.0506
3376.00,0.0506
3375.00,0.0506
3374.00,0.0506
3373.00,0.0506
3372.00,0.0506
3371.00,0.0506
3370.00,0.0506
3369.00,0.0506
3368.00,0.0507
3367.00,0.0508
3366.00,0.0508
3365.00,0.0507
3364.00,0.0507
3363.00,0.0507
3362.00,0.0508
3361.00,0.0510
3360.00,0.0511
3359.00,0.0511
3358.00,0.0511
3357.00,0.0511
3356.00,0.0511
3355.00,0.0511
3354.00,0.0512
3353.00,0.0512
3352.00,0.0512
3351.00,0.0513
3350.00,0.0513
3349.00,0.0513
3348.00,0.0513
3347.00,0.0513
3346.00,0.0512
3345.00,0.0511
3344.00,0.0511
3343.00,0.0511
3342.00,0.0511
3341.00,0.0512
3340.00,0.0513
3339.00,0.0514
3338.00,0.0514
3337.00,0.0514
3336.00,0.0514
3335.00,0.0514
3334.00,0.0514
3333.00,0.0514
3332.00,0.0513
3331.00,0.0513
3330.00,0.0512
3329.00,0.0512
3328.00,0.0512
3327.00,0.0512
3326.00,0.0513
3325.00,0.0514
3324.00,0.0514
3323.00,0.0514
3322.00,0.0514
3321.00,0.0513
3320.00,0.0513
3319.00,0.0513
3318.00,0.0514
3317.00,0.0514
3316.00,0.0513
3315.00,0.0513
3314.00,0.0513
3313.00,0.0513
3312.00,0.0513
3311.00,0.0513
3310.00,0.0513
3309.00,0.0513
3308.00,0.0513
3307.00,0.0514
3306.00,0.0514
3305.00,0.0514
3304.00,0.0514
3303.00,0.0514
3302.00,0.0514
3301.00,0.0514
3300.00,0.0514
3299.00,0.0514
3298.00,0.0514
3297.00,0.0514
3296.00,0.0514
3295.00,0.0514
3294.00,0.0514
3293.00,0.0514
3292.00,0.0514
3291.00,0.0514
3290.00,0.0514
3289.00,0.0515
3288.00,0.0515
3287.00,0.0515
3286.00,0.0515
3285.00,0.0516
3284.00,0.0516
3283.00,0.0517
3282.00,0.0517
3281.00,0.0516
3280.00,0.0516
3279.00,0.0515
3278.00,0.0515
3277.00,0.0515
3276.00,0.0515
3275.00,0.0515
3274.00,0.0515
3273.00,0.0516
3272.00,0.0516
3271.00,0.0517
3270.00,0.0517
3269.00,0.0517
3268.00,0.0517
3267.00,0.0517
3266.00,0.0517
3265.00,0.0516
3264.00,0.0516
3263.00,0.0516
3262.00,0.0516
3261.00,0.0517
3260.00,0.0517
3259.00,0.0518
3258.00,0.0518
3257.00,0.0518
3256.00,0.0517
3255.00,0.0518
3254.00,0.0518
3253.00,0.0518
3252.00,0.0518
3251.00,0.0518
3250.00,0.0518
3249.00,0.0518
3248.00,0.0518
3247.00,0.0518
3246.00,0.0518
3245.00,0.0518
3244.00,0.0518
3243.00,0.0518
3242.00,0.0518
3241.00,0.0518
3240.00,0.0518
3239.00,0.0518
3238.00,0.0519
3237.00,0.0520
3236.00,0.0521
3235.00,0.0522
3234.00,0.0522
3233.00,0.0522
3232.00,0.0522
3231.00,0.0521
3230.00,0.0521
3229.00,0.0520
3228.00,0.0519
3227.00,0.0520
3226.00,0.0520
3225.00,0.0520
3224.00,0.0520
3223.00,0.0520
3222.00,0.0520
3221.00,0.0520
3220.00,0.0519
3219.00,0.0519
3218.00,0.0519
3217.00,0.0520
3216.00,0.0520
3215.00,0.0521
3214.00,0.0522
3213.00,0.0521
3212.00,0.0520
3211.00,0.0519
3210.00,0.0519
3209.00,0.0519
3208.00,0.0520
3207.00,0.0520
3206.00,0.0520
3205.00,0.0520
3204.00,0.0521
3203.00,0.0521
3202.00,0.0521
3201.00,0.0521
3200.00,0.0521
3199.00,0.0521
3198.00,0.0521
3197.00,0.0520
3196.00,0.0520
3195.00,0.0519
3194.00,0.0519
3193.00,0.0518
3192.00,0.0518
3191.00,0.0517
3190.00,0.0517
3189.00,0.0516
3188.00,0.0516
3187.00,0.0515
3186.00,0.0515
3185.00,0.0515
3184.00,0.0516
3183.00,0.0517
3182.00,0.0518
3181.00,0.0518
3180.00,0.0518
3179.00,0.0517
3178.00,0.0516
3177.00,0.0515
3176.00,0.0514
3175.00,0.0513
3174.00,0.0513
3173.00,0.0513
3172.00,0.0513
3171.00,0.0513
3170.00,0.0512
3169.00,0.0512
3168.00,0.0512
3167.00,0.0512
3166.00,0.0512
3165.00,0.0513
3164.00,0.0514
3163.00,0.0513
3162.00,0.0513
3161.00,0.0512
3160.00,0.0510
3159.00,0.0509
3158.00,0.0508
3157.00,0.0508
3156.00,0.0508
3155.00,0.0508
3154.00,0.0509
3153.00,0.0509
3152.00,0.0509
3151.00,0.0508
3150.00,0.0508
3149.00,0.0507
3148.00,0.0506
3147.00,0.0506
3146.00,0.0506
3145.00,0.0505
3144.00,0.0505
3143.00,0.0505
3142.00,0.0505
3141.00,0.0505
3140.00,0.0504
3139.00,0.0504
3138.00,0.0504
3137.00,0.0504
3136.00,0.0504
3135.00,0.0503
3134.00,0.0503
3133.00,0.0502
3132.00,0.0502
3131.00,0.0502
3130.00,0.0502
3129.00,0.0502
3128.00,0.0501
3127.00,0.0501
3126.00,0.0500
3125.00,0.0500
3124.00,0.0499
3123.00,0.0499
3122.00,0.0498
3121.00,0.0498
3120.00,0.0498
3119.00,0.0498
3118.00,0.0499
3117.00,0.0498
3116.00,0.0498
3115.00,0.0497
3114.00,0.0497
3113.00,0.0497
3112.00,0.0497
3111.00,0.0496
3110.00,0.0495
3109.00,0.0495
3108.00,0.0495
3107.00,0.0495
3106.00,0.0495
3105.00,0.0495
3104.00,0.0495
3103.00,0.0494
3102.00,0.0494
3101.00,0.0493
3100.00,0.0493
3099.00,0.0492
3098.00,0.0491
3097.00,0.0491
3096.00,0.0491
3095.00,0.0491
3094.00,0.0492
3093.00,0.0492
3092.00,0.0492
3091.00,0.0492
3090.00,0.0491
3089.00,0.0489
3088.00,0.0488
3087.00,0.0488
3086.00,0.0488
3085.00,0.0489
3084.00,0.0489
3083.00,0.0488
3082.00,0.0488
3081.00,0.0487
3080.00,0.0487
3079.00,0.0486
3078.00,0.0486
3077.00,0.0486
3076.00,0.0486
3075.00,0.0486
3074.00,0.0486
3073.00,0.0486
3072.00,0.0485
3071.00,0.0485
3070.00,0.0485
3069.00,0.0485
3068.00,0.0485
3067.00,0.0484
3066.00,0.0483
3065.00,0.0482
3064.00,0.0481
3063.00,0.0480
3062.00,0.0479
3061.00,0.0479
3060.00,0.0479
3059.00,0.0478
3058.00,0.0478
3057.00,0.0478
3056.00,0.0477
3055.00,0.0477
3054.00,0.0477
3053.00,0.0476
3052.00,0.0476
3051.00,0.0475
3050.00,0.0475
3049.00,0.0475
3048.00,0.0475
3047.00,0.0474
3046.00,0.0473
3045.00,0.0473
3044.00,0.0472
3043.00,0.0471
3042.00,0.0469
3041.00,0.0468
3040.00,0.0467
3039.00,0.0467
3038.00,0.0467
3037.00,0.0467
3036.00,0.0467
3035.00,0.0467
3034.00,0.0467
3033.00,0.0467
3032.00,0.0466
3031.00,0.0465
3030.00,0.0464
3029.00,0.0462
3028.00,0.0461
3027.00,0.0461
3026.00,0.0461
3025.00,0.0460
3024.00,0.0460
3023.00,0.0460
3022.00,0.0460
3021.00,0.0459
3020.00,0.0458
3019.00,0.0457
3018.00,0.0456
3017.00,0.0455
3016.00,0.0454
3015.00,0.0454
3014.00,0.0453
3013.00,0.0452
3012.00,0.0452
3011.00,0.0451
3010.00,0.0450
3009.00,0.0449
3008.00,0.0447
3007.00,0.0446
3006.00,0.0445
3005.00,0.0444
3004.00,0.0443
3003.00,0.0442
3002.00,0.0440
3001.00,0.0438
3000.00,0.0437
2999.00,0.0436
2998.00,0.0434
2997.00,0.0433
2996.00,0.0432
2995.00,0.0432
2994.00,0.0431
2993.00,0.0430
2992.00,0.0429
2991.00,0.0428
2990.00,0.0428
2989.00,0.0427
2988.00,0.0426
2987.00,0.0425
2986.00,0.0422
2985.00,0.0419
2984.00,0.0416
2983.00,0.0414
2982.00,0.0413
2981.00,0.0413
2980.00,0.0414
2979.00,0.0415
2978.00,0.0416
2977.00,0.0418
2976.00,0.0419
2975.00,0.0419
2974.00,0.0419
2973.00,0.0418
2972.00,0.0417
2971.00,0.0418
2970.00,0.0419
2969.00,0.0421
2968.00,0.0422
2967.00,0.0423
2966.00,0.0423
2965.00,0.0423
2964.00,0.0424
2963.00,0.0425
2962.00,0.0426
2961.00,0.0426
2960.00,0.0427
2959.00,0.0426
2958.00,0.0426
2957.00,0.0426
2956.00,0.0427
2955.00,0.0428
2954.00,0.0428
2953.00,0.0429
2952.00,0.0429
2951.00,0.0430
2950.00,0.0430
2949.00,0.0430
2948.00,0.0430
2947.00,0.0430
2946.00,0.0429
2945.00,0.0430
2944.00,0.0430
2943.00,0.0431
2942.00,0.0433
2941.00,0.0434
2940.00,0.0434
2939.00,0.0435
2938.00,0.0435
2937.00,0.0435
2936.00,0.0436
2935.00,0.0437
2934.00,0.0438
2933.00,0.0438
2932.00,0.0439
2931.00,0.0440
2930.00,0.0441
2929.00,0.0441
2928.00,0.0442
2927.00,0.0442
2926.00,0.0442
2925.00,0.0441
2924.00,0.0441
2923.00,0.0441
2922.00,0.0440
2921.00,0.0439
2920.00,0.0438
2919.00,0.0435
2918.00,0.0433
2917.00,0.0431
2916.00,0.0430
2915.00,0.0428
2914.00,0.0428
2913.00,0.0427
2912.00,0.0426
2911.00,0.0426
2910.00,0.0425
2909.00,0.0424
2908.00,0.0423
2907.00,0.0422
2906.00,0.0421
2905.00,0.0420
2904.00,0.0419
2903.00,0.0418
2902.00,0.0418
2901.00,0.0418
2900.00,0.0417
2899.00,0.0416
2898.00,0.0415
2897.00,0.0414
2896.00,0.0413
2895.00,0.0412
2894.00,0.0412
2893.00,0.0411
2892.00,0.0411
2891.00,0.0410
2890.00,0.0410
2889.00,0.0409
2888.00,0.0409
2887.00,0.0408
2886.00,0.0408
2885.00,0.0407
2884.00,0.0405
2883.00,0.0405
2882.00,0.0404
2881.00,0.0404
2880.00,0.0404
2879.00,0.0405
2878.00,0.0405
2877.00,0.0405
2876.00,0.0405
2875.00,0.0405
2874.00,0.0404
2873.00,0.0404
2872.00,0.0403
2871.00,0.0403
2870.00,0.0403
2869.00,0.0403
2868.00,0.0403
2867.00,0.0403
2866.00,0.0403
2865.00,0.0403
2864.00,0.0403
2863.00,0.0403
2862.00,0.0403
2861.00,0.0404
2860.00,0.0405
2859.00,0.0406
2858.00,0.0407
2857.00,0.0408
2856.00,0.0409
2855.00,0.0409
2854.00,0.0409
2853.00,0.0408
2852.00,0.0407
2851.00,0.0407
2850.00,0.0406
2849.00,0.0405
2848.00,0.0403
2847.00,0.0402
2846.00,0.0401
2845.00,0.0400
2844.00,0.0399
2843.00,0.0398
2842.00,0.0396
2841.00,0.0395
2840.00,0.0394
2839.00,0.0392
2838.00,0.0392
2837.00,0.0391
2836.00,0.0392
2835.00,0.0392
2834.00,0.0392
2833.00,0.0391
2832.00,0.0390
2831.00,0.0389
2830.00,0.0388
2829.00,0.0388
2828.00,0.0388
2827.00,0.0388
2826.00,0.0387
2825.00,0.0387
2824.00,0.0386
2823.00,0.0386
2822.00,0.0385
2821.00,0.0384
2820.00,0.0383
2819.00,0.0382
2818.00,0.0382
2817.00,0.0382
2816.00,0.0381
2815.00,0.0381
2814.00,0.0380
2813.00,0.0379
2812.00,0.0379
2811.00,0.0379
2810.00,0.0379
2809.00,0.0378
2808.00,0.0378
2807.00,0.0378
2806.00,0.0378
2805.00,0.0378
2804.00,0.0377
2803.00,0.0377
2802.00,0.0376
2801.00,0.0376
2800.00,0.0376
2799.00,0.0376
2798.00,0.0375
2797.00,0.0375
2796.00,0.0375
2795.00,0.0374
2794.00,0.0374
2793.00,0.0374
2792.00,0.0373
2791.00,0.0373
2790.00,0.0373
2789.00,0.0373
2788.00,0.0372
2787.00,0.0371
2786.00,0.0371
2785.00,0.0371
2784.00,0.0370
2783.00,0.0370
2782.00,0.0369
2781.00,0.0368
2780.00,0.0367
2779.00,0.0367
2778.00,0.0368
2777.00,0.0368
2776.00,0.0368
2775.00,0.0368
2774.00,0.0368
2773.00,0.0367
2772.00,0.0367
2771.00,0.0366
2770.00,0.0365
2769.00,0.0364
2768.00,0.0364
2767.00,0.0364
2766.00,0.0364
2765.00,0.0364
2764.00,0.0363
2763.00,0.0363
2762.00,0.0363
2761.00,0.0363
2760.00,0.0363
2759.00,0.0363
2758.00,0.0362
2757.00,0.0362
2756.00,0.0362
2755.00,0.0361
2754.00,0.0361
2753.00,0.0361
2752.00,0.0361
2751.00,0.0361
2750.00,0.0361
2749.00,0.0361
2748.00,0.0361
2747.00,0.0361
2746.00,0.0361
2745.00,0.0361
2744.00,0.0360
2743.00,0.0359
2742.00,0.0359
2741.00,0.0359
2740.00,0.0358
2739.00,0.0358
2738.00,0.0357
2737.00,0.0356
2736.00,0.0356
2735.00,0.0356
2734.00,0.0356
2733.00,0.0356
2732.00,0.0357
2731.00,0.0356
2730.00,0.0356
2729.00,0.0356
2728.00,0.0355
2727.00,0.0355
2726.00,0.0355
2725.00,0.0355
2724.00,0.0354
2723.00,0.0354
2722.00,0.0353
2721.00,0.0353
2720.00,0.0353
2719.00,0.0352
2718.00,0.0352
2717.00,0.0352
2716.00,0.0352
2715.00,0.0352
2714.00,0.0351
2713.00,0.0351
2712.00,0.0351
2711.00,0.0351
2710.00,0.0351
2709.00,0.0351
2708.00,0.0350
2707.00,0.0349
2706.00,0.0349
2705.00,0.0349
2704.00,0.0349
2703.00,0.0348
2702.00,0.0348
2701.00,0.0348
2700.00,0.0348
2699.00,0.0348
2698.00,0.0348
2697.00,0.0347
2696.00,0.0347
2695.00,0.0347
2694.00,0.0347
2693.00,0.0347
2692.00,0.0347
2691.00,0.0347
2690.00,0.0346
2689.00,0.0346
2688.00,0.0345
2687.00,0.0345
2686.00,0.0345
2685.00,0.0345
2684.00,0.0345
2683.00,0.0345
2682.00,0.0344
2681.00,0.0344
2680.00,0.0344
2679.00,0.0343
2678.00,0.0342
2677.00,0.0342
2676.00,0.0341
2675.00,0.0342
2674.00,0.0342
2673.00,0.0342
2672.00,0.0342
2671.00,0.0342
2670.00,0.0341
2669.00,0.0341
2668.00,0.0341
2667.00,0.0340
2666.00,0.0340
2665.00,0.0341
2664.00,0.0341
2663.00,0.0341
2662.00,0.0341
2661.00,0.0341
2660.00,0.0341
2659.00,0.0341
2658.00,0.0341
2657.00,0.0341
2656.00,0.0341
2655.00,0.0341
2654.00,0.0341
2653.00,0.0341
2652.00,0.0341
2651.00,0.0341
2650.00,0.0341
2649.00,0.0341
2648.00,0.0340
2647.00,0.0340
2646.00,0.0339
2645.00,0.0340
2644.00,0.0340
2643.00,0.0340
2642.00,0.0340
2641.00,0.0340
2640.00,0.0340
2639.00,0.0340
2638.00,0.0340
2637.00,0.0340
2636.00,0.0339
2635.00,0.0339
2634.00,0.0339
2633.00,0.0340
2632.00,0.0340
2631.00,0.0340
2630.00,0.0339
2629.00,0.0338
2628.00,0.0338
2627.00,0.0337
2626.00,0.0338
2625.00,0.0339
2624.00,0.0339
2623.00,0.0339
2622.00,0.0339
2621.00,0.0339
2620.00,0.0339
2619.00,0.0339
2618.00,0.0340
2617.00,0.0340
2616.00,0.0340
2615.00,0.0340
2614.00,0.0339
2613.00,0.0339
2612.00,0.0339
2611.00,0.0339
2610.00,0.0339
2609.00,0.0338
2608.00,0.0337
2607.00,0.0337
2606.00,0.0338
2605.00,0.0339
2604.00,0.0340
2603.00,0.0340
2602.00,0.0339
2601.00,0.0339
2600.00,0.0338
2599.00,0.0338
2598.00,0.0337
2597.00,0.0337
2596.00,0.0337
2595.00,0.0336
2594.00,0.0336
2593.00,0.0336
2592.00,0.0336
2591.00,0.0337
2590.00,0.0337
2589.00,0.0337
2588.00,0.0337
2587.00,0.0336
2586.00,0.0335
2585.00,0.0334
2584.00,0.0334
2583.00,0.0334
2582.00,0.0335
2581.00,0.0335
2580.00,0.0336
2579.00,0.0336
2578.00,0.0336
2577.00,0.0335
2576.00,0.0334
2575.00,0.0334
2574.00,0.0334
2573.00,0.0334
2572.00,0.0334
2571.00,0.0334
2570.00,0.0333
2569.00,0.0332
2568.00,0.0332
2567.00,0.0333
2566.00,0.0334
2565.00,0.0334
2564.00,0.0333
2563.00,0.0334
2562.00,0.0334
2561.00,0.0335
2560.00,0.0335
2559.00,0.0335
2558.00,0.0334
2557.00,0.0334
2556.00,0.0334
2555.00,0.0334
2554.00,0.0333
2553.00,0.0333
2552.00,0.0332
2551.00,0.0331
2550.00,0.0330
2549.00,0.0328
2548.00,0.0327
2547.00,0.0326
2546.00,0.0326
2545.00,0.0327
2544.00,0.0328
2543.00,0.0328
2542.00,0.0327
2541.00,0.0326
2540.00,0.0325
2539.00,0.0324
2538.00,0.0324
2537.00,0.0323
2536.00,0.0323
2535.00,0.0324
2534.00,0.0324
2533.00,0.0325
2532.00,0.0326
2531.00,0.0325
2530.00,0.0325
2529.00,0.0324
2528.00,0.0324
2527.00,0.0323
2526.00,0.0323
2525.00,0.0322
2524.00,0.0322
2523.00,0.0322
2522.00,0.0322
2521.00,0.0323
2520.00,0.0323
2519.00,0.0323
2518.00,0.0324
2517.00,0.0325
2516.00,0.0325
2515.00,0.0325
2514.00,0.0324
2513.00,0.0323
2512.00,0.0322
2511.00,0.0323
2510.00,0.0323
2509.00,0.0323
2508.00,0.0323
2507.00,0.0323
2506.00,0.0322
2505.00,0.0322
2504.00,0.0321
2503.00,0.0321
2502.00,0.0321
2501.00,0.0321
2500.00,0.0321
2499.00,0.0321
2498.00,0.0321
2497.00,0.0320
2496.00,0.0320
2495.00,0.0321
2494.00,0.0321
2493.00,0.0322
2492.00,0.0321
2491.00,0.0321
2490.00,0.0321
2489.00,0.0320
2488.00,0.0320
2487.00,0.0320
2486.00,0.0319
2485.00,0.0318
2484.00,0.0317
2483.00,0.0317
2482.00,0.0317
2481.00,0.0318
2480.00,0.0318
2479.00,0.0318
2478.00,0.0317
2477.00,0.0317
2476.00,0.0316
2475.00,0.0315
2474.00,0.0315
2473.00,0.0316
2472.00,0.0316
2471.00,0.0315
2470.00,0.0315
2469.00,0.0315
2468.00,0.0314
2467.00,0.0314
2466.00,0.0313
2465.00,0.0313
2464.00,0.0312
2463.00,0.0312
2462.00,0.0311
2461.00,0.0311
2460.00,0.0312
2459.00,0.0312
2458.00,0.0313
2457.00,0.0313
2456.00,0.0313
2455.00,0.0313
2454.00,0.0314
2453.00,0.0314
2452.00,0.0314
2451.00,0.0314
2450.00,0.0312
2449.00,0.0312
2448.00,0.0311
2447.00,0.0311
2446.00,0.0311
2445.00,0.0310
2444.00,0.0309
2443.00,0.0309
2442.00,0.0308
2441.00,0.0308
2440.00,0.0308
2439.00,0.0309
2438.00,0.0309
2437.00,0.0308
2436.00,0.0308
2435.00,0.0307
2434.00,0.0306
2433.00,0.0306
2432.00,0.0305
2431.00,0.0306
2430.00,0.0306
2429.00,0.0306
2428.00,0.0306
2427.00,0.0306
2426.00,0.0305
2425.00,0.0305
2424.00,0.0305
2423.00,0.0305
2422.00,0.0304
2421.00,0.0304
2420.00,0.0303
2419.00,0.0303
2418.00,0.0303
2417.00,0.0302
2416.00,0.0302
2415.00,0.0301
2414.00,0.0301
2413.00,0.0301
2412.00,0.0301
2411.00,0.0301
2410.00,0.0301
2409.00,0.0302
2408.00,0.0302
2407.00,0.0301
2406.00,0.0301
2405.00,0.0301
2404.00,0.0301
2403.00,0.0300
2402.00,0.0299
2401.00,0.0298
2400.00,0.0297
2399.00,0.0297
2398.00,0.0297
2397.00,0.0296
2396.00,0.0296
2395.00,0.0295
2394.00,0.0294
2393.00,0.0294
2392.00,0.0293
2391.00,0.0293
2390.00,0.0293
2389.00,0.0293
2388.00,0.0293
2387.00,0.0292
2386.00,0.0292
2385.00,0.0291
2384.00,0.0290
2383.00,0.0289
2382.00,0.0289
2381.00,0.0289
2380.00,0.0290
2379.00,0.0291
2378.00,0.0291
2377.00,0.0290
2376.00,0.0289
2375.00,0.0288
2374.00,0.0287
2373.00,0.0286
2372.00,0.0286
2371.00,0.0285
2370.00,0.0284
2369.00,0.0281
2368.00,0.0279
2367.00,0.0278
2366.00,0.0280
2365.00,0.0282
2364.00,0.0283
2363.00,0.0283
2362.00,0.0282
2361.00,0.0283
2360.00,0.0285
2359.00,0.0286
2358.00,0.0286
2357.00,0.0284
2356.00,0.0282
2355.00,0.0280
2354.00,0.0279
2353.00,0.0279
2352.00,0.0280
2351.00,0.0280
2350.00,0.0280
2349.00,0.0280
2348.00,0.0279
2347.00,0.0277
2346.00,0.0275
2345.00,0.0276
2344.00,0.0278
2343.00,0.0280
2342.00,0.0281
2341.00,0.0282
2340.00,0.0283
2339.00,0.0282
2338.00,0.0280
2337.00,0.0279
2336.00,0.0278
2335.00,0.0278
2334.00,0.0278
2333.00,0.0278
2332.00,0.0278
2331.00,0.0277
2330.00,0.0277
2329.00,0.0277
2328.00,0.0277
2327.00,0.0278
2326.00,0.0278
2325.00,0.0278
2324.00,0.0277
2323.00,0.0277
2322.00,0.0277
2321.00,0.0277
2320.00,0.0277
2319.00,0.0276
2318.00,0.0276
2317.00,0.0276
2316.00,0.0276
2315.00,0.0277
2314.00,0.0277
2313.00,0.0277
2312.00,0.0277
2311.00,0.0277
2310.00,0.0278
2309.00,0.0279
2308.00,0.0279
2307.00,0.0278
2306.00,0.0277
2305.00,0.0277
2304.00,0.0276
2303.00,0.0275
2302.00,0.0275
2301.00,0.0275
2300.00,0.0276
2299.00,0.0276
2298.00,0.0276
2297.00,0.0276
2296.00,0.0276
2295.00,0.0276
2294.00,0.0277
2293.00,0.0279
2292.00,0.0281
2291.00,0.0282
2290.00,0.0281
2289.00,0.0281
2288.00,0.0281
2287.00,0.0281
2286.00,0.0282
2285.00,0.0284
2284.00,0.0285
2283.00,0.0285
2282.00,0.0285
2281.00,0.0284
2280.00,0.0283
2279.00,0.0282
2278.00,0.0282
2277.00,0.0282
2276.00,0.0281
2275.00,0.0280
2274.00,0.0279
2273.00,0.0278
2272.00,0.0278
2271.00,0.0278
2270.00,0.0278
2269.00,0.0278
2268.00,0.0278
2267.00,0.0278
2266.00,0.0278
2265.00,0.0278
2264.00,0.0279
2263.00,0.0279
2262.00,0.0279
2261.00,0.0279
2260.00,0.0279
2259.00,0.0278
2258.00,0.0276
2257.00,0.0274
2256.00,0.0273
2255.00,0.0273
2254.00,0.0274
2253.00,0.0274
2252.00,0.0273
2251.00,0.0273
2250.00,0.0273
2249.00,0.0274
2248.00,0.0274
2247.00,0.0274
2246.00,0.0275
2245.00,0.0277
2244.00,0.0277
2243.00,0.0276
2242.00,0.0275
2241.00,0.0274
2240.00,0.0273
2239.00,0.0273
2238.00,0.0273
2237.00,0.0273
2236.00,0.0273
2235.00,0.0273
2234.00,0.0274
2233.00,0.0274
2232.00,0.0273
2231.00,0.0271
2230.00,0.0269
2229.00,0.0269
2228.00,0.0270
2227.00,0.0270
2226.00,0.0271
2225.00,0.0270
2224.00,0.0269
2223.00,0.0268
2222.00,0.0266
2221.00,0.0266
2220.00,0.0267
2219.00,0.0268
2218.00,0.0269
2217.00,0.0271
2216.00,0.0271
2215.00,0.0272
2214.00,0.0273
2213.00,0.0272
2212.00,0.0269
2211.00,0.0267
2210.00,0.0266
2209.00,0.0267
2208.00,0.0269
2207.00,0.0269
2206.00,0.0269
2205.00,0.0267
2204.00,0.0266
2203.00,0.0265
2202.00,0.0264
2201.00,0.0264
2200.00,0.0264
2199.00,0.0264
2198.00,0.0263
2197.00,0.0263
2196.00,0.0263
2195.00,0.0263
2194.00,0.0263
2193.00,0.0263
2192.00,0.0263
2191.00,0.0262
2190.00,0.0260
2189.00,0.0259
2188.00,0.0260
2187.00,0.0264
2186.00,0.0267
2185.00,0.0268
2184.00,0.0266
2183.00,0.0261
2182.00,0.0259
2181.00,0.0259
2180.00,0.0261
2179.00,0.0264
2178.00,0.0266
2177.00,0.0267
2176.00,0.0267
2175.00,0.0266
2174.00,0.0264
2173.00,0.0262
2172.00,0.0261
2171.00,0.0262
2170.00,0.0264
2169.00,0.0266
2168.00,0.0267
2167.00,0.0267
2166.00,0.0267
2165.00,0.0267
2164.00,0.0269
2163.00,0.0271
2162.00,0.0274
2161.00,0.0273
2160.00,0.0268
2159.00,0.0259
2158.00,0.0251
2157.00,0.0246
2156.00,0.0245
2155.00,0.0246
2154.00,0.0250
2153.00,0.0253
2152.00,0.0255
2151.00,0.0253
2150.00,0.0249
2149.00,0.0246
2148.00,0.0246
2147.00,0.0249
2146.00,0.0252
2145.00,0.0255
2144.00,0.0257
2143.00,0.0257
2142.00,0.0257
2141.00,0.0257
2140.00,0.0257
2139.00,0.0255
2138.00,0.0253
2137.00,0.0250
2136.00,0.0247
2135.00,0.0244
2134.00,0.0243
2133.00,0.0243
2132.00,0.0243
2131.00,0.0243
2130.00,0.0244
2129.00,0.0246
2128.00,0.0247
2127.00,0.0248
2126.00,0.0247
2125.00,0.0246
2124.00,0.0245
2123.00,0.0244
2122.00,0.0244
2121.00,0.0243
2120.00,0.0243
2119.00,0.0242
2118.00,0.0242
2117.00,0.0242
2116.00,0.0242
2115.00,0.0240
2114.00,0.0238
2113.00,0.0238
2112.00,0.0238
2111.00,0.0239
2110.00,0.0241
2109.00,0.0242
2108.00,0.0243
2107.00,0.0244
2106.00,0.0245
2105.00,0.0245
2104.00,0.0244
2103.00,0.0243
2102.00,0.0243
2101.00,0.0243
2100.00,0.0242
2099.00,0.0240
2098.00,0.0238
2097.00,0.0237
2096.00,0.0236
2095.00,0.0237
2094.00,0.0237
2093.00,0.0238
2092.00,0.0237
2091.00,0.0236
2090.00,0.0235
2089.00,0.0234
2088.00,0.0235
2087.00,0.0236
2086.00,0.0237
2085.00,0.0238
2084.00,0.0239
2083.00,0.0240
2082.00,0.0240
2081.00,0.0240
2080.00,0.0239
2079.00,0.0238
2078.00,0.0237
2077.00,0.0236
2076.00,0.0237
2075.00,0.0238
2074.00,0.0238
2073.00,0.0238
2072.00,0.0238
2071.00,0.0238
2070.00,0.0237
2069.00,0.0234
2068.00,0.0231
2067.00,0.0229
2066.00,0.0229
2065.00,0.0231
2064.00,0.0234
2063.00,0.0235
2062.00,0.0236
2061.00,0.0235
2060.00,0.0233
2059.00,0.0231
2058.00,0.0231
2057.00,0.0231
2056.00,0.0231
2055.00,0.0231
2054.00,0.0232
2053.00,0.0234
2052.00,0.0235
2051.00,0.0234
2050.00,0.0232
2049.00,0.0229
2048.00,0.0227
2047.00,0.0227
2046.00,0.0228
2045.00,0.0231
2044.00,0.0235
2043.00,0.0237
2042.00,0.0237
2041.00,0.0236
2040.00,0.0233
2039.00,0.0231
2038.00,0.0230
2037.00,0.0232
2036.00,0.0234
2035.00,0.0234
2034.00,0.0232
2033.00,0.0231
2032.00,0.0232
2031.00,0.0234
2030.00,0.0235
2029.00,0.0233
2028.00,0.0229
2027.00,0.0225
2026.00,0.0223
2025.00,0.0221
2024.00,0.0219
2023.00,0.0217
2022.00,0.0217
2021.00,0.0218
2020.00,0.0218
2019.00,0.0215
2018.00,0.0212
2017.00,0.0210
2016.00,0.0211
2015.00,0.0213
2014.00,0.0215
2013.00,0.0216
2012.00,0.0216
2011.00,0.0217
2010.00,0.0218
2009.00,0.0219
2008.00,0.0219
2007.00,0.0217
2006.00,0.0215
2005.00,0.0213
2004.00,0.0213
2003.00,0.0215
2002.00,0.0220
2001.00,0.0224
2000.00,0.0225
1999.00,0.0222
1998.00,0.0219
1997.00,0.0219
1996.00,0.0221
1995.00,0.0223
1994.00,0.0224
1993.00,0.0223
1992.00,0.0221
1991.00,0.0217
1990.00,0.0214
1989.00,0.0213
1988.00,0.0212
1987.00,0.0213
1986.00,0.0213
1985.00,0.0214
1984.00,0.0213
1983.00,0.0213
1982.00,0.0212
1981.00,0.0211
1980.00,0.0210
1979.00,0.0207
1978.00,0.0204
1977.00,0.0201
1976.00,0.0201
1975.00,0.0204
1974.00,0.0207
1973.00,0.0208
1972.00,0.0207
1971.00,0.0205
1970.00,0.0205
1969.00,0.0207
1968.00,0.0209
1967.00,0.0207
1966.00,0.0203
1965.00,0.0200
1964.00,0.0199
1963.00,0.0199
1962.00,0.0200
1961.00,0.0200
1960.00,0.0201
1959.00,0.0202
1958.00,0.0202
1957.00,0.0201
1956.00,0.0199
1955.00,0.0198
1954.00,0.0198
1953.00,0.0199
1952.00,0.0199
1951.00,0.0198
1950.00,0.0196
1949.00,0.0196
1948.00,0.0196
1947.00,0.0197
1946.00,0.0197
1945.00,0.0196
1944.00,0.0194
1943.00,0.0190
1942.00,0.0187
1941.00,0.0186
1940.00,0.0186
1939.00,0.0185
1938.00,0.0184
1937.00,0.0185
1936.00,0.0185
1935.00,0.0185
1934.00,0.0183
1933.00,0.0182
1932.00,0.0183
1931.00,0.0184
1930.00,0.0185
1929.00,0.0186
1928.00,0.0186
1927.00,0.0187
1926.00,0.0187
1925.00,0.0188
1924.00,0.0187
1923.00,0.0186
1922.00,0.0185
1921.00,0.0184
1920.00,0.0183
1919.00,0.0180
1918.00,0.0177
1917.00,0.0176
1916.00,0.0177
1915.00,0.0178
1914.00,0.0180
1913.00,0.0181
1912.00,0.0181
1911.00,0.0180
1910.00,0.0178
1909.00,0.0176
1908.00,0.0174
1907.00,0.0173
1906.00,0.0173
1905.00,0.0174
1904.00,0.0175
1903.00,0.0174
1902.00,0.0173
1901.00,0.0173
1900.00,0.0173
1899.00,0.0173
1898.00,0.0173
1897.00,0.0172
1896.00,0.0170
1895.00,0.0168
1894.00,0.0168
1893.00,0.0169
1892.00,0.0171
1891.00,0.0172
1890.00,0.0171
1889.00,0.0168
1888.00,0.0167
1887.00,0.0165
1886.00,0.0165
1885.00,0.0165
1884.00,0.0165
1883.00,0.0165
1882.00,0.0164
1881.00,0.0163
1880.00,0.0163
1879.00,0.0162
1878.00,0.0161
1877.00,0.0161
1876.00,0.0161
1875.00,0.0161
1874.00,0.0162
1873.00,0.0164
1872.00,0.0167
1871.00,0.0167
1870.00,0.0165
1869.00,0.0161
1868.00,0.0158
1867.00,0.0156
1866.00,0.0156
1865.00,0.0156
1864.00,0.0155
1863.00,0.0154
1862.00,0.0153
1861.00,0.0152
1860.00,0.0151
1859.00,0.0150
1858.00,0.0150
1857.00,0.0151
1856.00,0.0152
1855.00,0.0152
1854.00,0.0151
1853.00,0.0150
1852.00,0.0150
1851.00,0.0151
1850.00,0.0151
1849.00,0.0151
1848.00,0.0152
1847.00,0.0153
1846.00,0.0153
1845.00,0.0150
1844.00,0.0145
1843.00,0.0141
1842.00,0.0141
1841.00,0.0143
1840.00,0.0144
1839.00,0.0144
1838.00,0.0144
1837.00,0.0144
1836.00,0.0144
1835.00,0.0144
1834.00,0.0145
1833.00,0.0147
1832.00,0.0149
1831.00,0.0149
1830.00,0.0145
1829.00,0.0142
1828.00,0.0142
1827.00,0.0143
1826.00,0.0143
1825.00,0.0141
1824.00,0.0139
1823.00,0.0138
1822.00,0.0138
1821.00,0.0139
1820.00,0.0139
1819.00,0.0138
1818.00,0.0137
1817.00,0.0136
1816.00,0.0136
1815.00,0.0137
1814.00,0.0138
1813.00,0.0140
1812.00,0.0141
1811.00,0.0140
1810.00,0.0139
1809.00,0.0140
1808.00,0.0140
1807.00,0.0141
1806.00,0.0141
1805.00,0.0143
1804.00,0.0144
1803.00,0.0145
1802.00,0.0146
1801.00,0.0146
1800.00,0.0146
1799.00,0.0146
1798.00,0.0147
1797.00,0.0149
1796.00,0.0151
1795.00,0.0154
1794.00,0.0155
1793.00,0.0154
1792.00,0.0153
1791.00,0.0152
1790.00,0.0153
1789.00,0.0156
1788.00,0.0160
1787.00,0.0162
1786.00,0.0164
1785.00,0.0166
1784.00,0.0168
1783.00,0.0172
1782.00,0.0175
1781.00,0.0177
1780.00,0.0178
1779.00,0.0180
1778.00,0.0183
1777.00,0.0187
1776.00,0.0191
1775.00,0.0195
1774.00,0.0198
1773.00,0.0199
1772.00,0.0199
1771.00,0.0200
1770.00,0.0203
1769.00,0.0207
1768.00,0.0209
1767.00,0.0211
1766.00,0.0214
1765.00,0.0219
1764.00,0.0225
1763.00,0.0228
1762.00,0.0229
1761.00,0.0230
1760.00,0.0234
1759.00,0.0238
1758.00,0.0241
1757.00,0.0244
1756.00,0.0246
1755.00,0.0251
1754.00,0.0256
1753.00,0.0261
1752.00,0.0264
1751.00,0.0267
1750.00,0.0271
1749.00,0.0275
1748.00,0.0279
1747.00,0.0283
1746.00,0.0287
1745.00,0.0291
1744.00,0.0296
1743.00,0.0301
1742.00,0.0305
1741.00,0.0309
1740.00,0.0312
1739.00,0.0314
1738.00,0.0318
1737.00,0.0324
1736.00,0.0330
1735.00,0.0333
1734.00,0.0334
1733.00,0.0339
1732.00,0.0345
1731.00,0.0352
1730.00,0.0358
1729.00,0.0362
1728.00,0.0367
1727.00,0.0371
1726.00,0.0377
1725.00,0.0383
1724.00,0.0389
1723.00,0.0394
1722.00,0.0399
1721.00,0.0404
1720.00,0.0409
1719.00,0.0412
1718.00,0.0414
1717.00,0.0419
1716.00,0.0424
1715.00,0.0429
1714.00,0.0434
1713.00,0.0438
1712.00,0.0442
1711.00,0.0445
1710.00,0.0448
1709.00,0.0452
1708.00,0.0457
1707.00,0.0461
1706.00,0.0464
1705.00,0.0466
1704.00,0.0469
1703.00,0.0472
1702.00,0.0475
1701.00,0.0474
1700.00,0.0471
1699.00,0.0471
1698.00,0.0474
1697.00,0.0479
1696.00,0.0480
1695.00,0.0480
1694.00,0.0481
1693.00,0.0485
1692.00,0.0488
1691.00,0.0491
1690.00,0.0492
1689.00,0.0494
1688.00,0.0495
1687.00,0.0497
1686.00,0.0498
1685.00,0.0498
1684.00,0.0500
1683.00,0.0502
1682.00,0.0503
1681.00,0.0505
1680.00,0.0506
1679.00,0.0508
1678.00,0.0510
1677.00,0.0514
1676.00,0.0516
1675.00,0.0518
1674.00,0.0520
1673.00,0.0523
1672.00,0.0526
1671.00,0.0529
1670.00,0.0530
1669.00,0.0532
1668.00,0.0533
1667.00,0.0535
1666.00,0.0537
1665.00,0.0540
1664.00,0.0543
1663.00,0.0545
1662.00,0.0548
1661.00,0.0550
1660.00,0.0554
1659.00,0.0558
1658.00,0.0561
1657.00,0.0564
1656.00,0.0567
1655.00,0.0569
1654.00,0.0569
1653.00,0.0573
1652.00,0.0577
1651.00,0.0581
1650.00,0.0587
1649.00,0.0593
1648.00,0.0596
1647.00,0.0600
1646.00,0.0603
1645.00,0.0607
1644.00,0.0610
1643.00,0.0614
1642.00,0.0618
1641.00,0.0621
1640.00,0.0624
1639.00,0.0627
1638.00,0.0631
1637.00,0.0637
1636.00,0.0644
1635.00,0.0651
1634.00,0.0653
1633.00,0.0654
1632.00,0.0656
1631.00,0.0659
1630.00,0.0663
1629.00,0.0668
1628.00,0.0673
1627.00,0.0677
1626.00,0.0681
1625.00,0.0686
1624.00,0.0692
1623.00,0.0696
1622.00,0.0699
1621.00,0.0700
1620.00,0.0702
1619.00,0.0703
1618.00,0.0706
1617.00,0.0711
1616.00,0.0716
1615.00,0.0721
1614.00,0.0725
1613.00,0.0727
1612.00,0.0730
1611.00,0.0734
1610.00,0.0737
1609.00,0.0741
1608.00,0.0744
1607.00,0.0747
1606.00,0.0750
1605.00,0.0753
1604.00,0.0756
1603.00,0.0759
1602.00,0.0761
1601.00,0.0763
1600.00,0.0765
1599.00,0.0768
1598.00,0.0771
1597.00,0.0774
1596.00,0.0778
1595.00,0.0781
1594.00,0.0784
1593.00,0.0787
1592.00,0.0788
1591.00,0.0790
1590.00,0.0792
1589.00,0.0795
1588.00,0.0797
1587.00,0.0800
1586.00,0.0801
1585.00,0.0803
1584.00,0.0804
1583.00,0.0806
1582.00,0.0808
1581.00,0.0809
1580.00,0.0810
1579.00,0.0811
1578.00,0.0812
1577.00,0.0814
1576.00,0.0816
1575.00,0.0817
1574.00,0.0817
1573.00,0.0816
1572.00,0.0817
1571.00,0.0818
1570.00,0.0820
1569.00,0.0821
1568.00,0.0821
1567.00,0.0821
1566.00,0.0820
1565.00,0.0817
1564.00,0.0814
1563.00,0.0811
1562.00,0.0809
1561.00,0.0807
1560.00,0.0807
1559.00,0.0813
1558.00,0.0814
1557.00,0.0808
1556.00,0.0804
1555.00,0.0801
1554.00,0.0798
1553.00,0.0796
1552.00,0.0795
1551.00,0.0793
1550.00,0.0789
1549.00,0.0784
1548.00,0.0779
1547.00,0.0776
1546.00,0.0772
1545.00,0.0769
1544.00,0.0766
1543.00,0.0762
1542.00,0.0758
1541.00,0.0753
1540.00,0.0749
1539.00,0.0743
1538.00,0.0738
1537.00,0.0734
1536.00,0.0732
1535.00,0.0729
1534.00,0.0726
1533.00,0.0721
1532.00,0.0716
1531.00,0.0712
1530.00,0.0709
1529.00,0.0705
1528.00,0.0702
1527.00,0.0697
1526.00,0.0692
1525.00,0.0688
1524.00,0.0684
1523.00,0.0681
1522.00,0.0678
1521.00,0.0675
1520.00,0.0675
1519.00,0.0674
1518.00,0.0672
1517.00,0.0669
1516.00,0.0665
1515.00,0.0661
1514.00,0.0657
1513.00,0.0654
1512.00,0.0651
1511.00,0.0649
1510.00,0.0647
1509.00,0.0645
1508.00,0.0642
1507.00,0.0640
1506.00,0.0636
1505.00,0.0632
1504.00,0.0631
1503.00,0.0630
1502.00,0.0628
1501.00,0.0626
1500.00,0.0625
1499.00,0.0624
1498.00,0.0622
1497.00,0.0621
1496.00,0.0621
1495.00,0.0619
1494.00,0.0618
1493.00,0.0618
1492.00,0.0618
1491.00,0.0619
1490.00,0.0620
1489.00,0.0620
1488.00,0.0620
1487.00,0.0619
1486.00,0.0618
1485.00,0.0616
1484.00,0.0615
1483.00,0.0615
1482.00,0.0615
1481.00,0.0616
1480.00,0.0616
1479.00,0.0617
1478.00,0.0617
1477.00,0.0619
1476.00,0.0620
1475.00,0.0620
1474.00,0.0620
1473.00,0.0622
1472.00,0.0624
1471.00,0.0627
1470.00,0.0628
1469.00,0.0630
1468.00,0.0632
1467.00,0.0634
1466.00,0.0635
1465.00,0.0635
1464.00,0.0636
1463.00,0.0636
1462.00,0.0636
1461.00,0.0637
1460.00,0.0638
1459.00,0.0639
1458.00,0.0641
1457.00,0.0643
1456.00,0.0645
1455.00,0.0646
1454.00,0.0648
1453.00,0.0649
1452.00,0.0652
1451.00,0.0654
1450.00,0.0656
1449.00,0.0658
1448.00,0.0661
1447.00,0.0663
1446.00,0.0664
1445.00,0.0665
1444.00,0.0666
1443.00,0.0666
1442.00,0.0667
1441.00,0.0668
1440.00,0.0669
1439.00,0.0672
1438.00,0.0674
1437.00,0.0676
1436.00,0.0678
1435.00,0.0679
1434.00,0.0679
1433.00,0.0680
1432.00,0.0682
1431.00,0.0684
1430.00,0.0684
1429.00,0.0685
1428.00,0.0685
1427.00,0.0686
1426.00,0.0687
1425.00,0.0689
1424.00,0.0691
1423.00,0.0692
1422.00,0.0692
1421.00,0.0693
1420.00,0.0696
1419.00,0.0700
1418.00,0.0703
1417.00,0.0705
1416.00,0.0706
1415.00,0.0707
1414.00,0.0707
1413.00,0.0707
1412.00,0.0708
1411.00,0.0709
1410.00,0.0709
1409.00,0.0710
1408.00,0.0712
1407.00,0.0714
1406.00,0.0716
1405.00,0.0718
1404.00,0.0719
1403.00,0.0719
1402.00,0.0720
1401.00,0.0721
1400.00,0.0723
1399.00,0.0726
1398.00,0.0728
1397.00,0.0730
1396.00,0.0732
1395.00,0.0734
1394.00,0.0735
1393.00,0.0736
1392.00,0.0737
1391.00,0.0738
1390.00,0.0740
1389.00,0.0741
1388.00,0.0743
1387.00,0.0745
1386.00,0.0746
1385.00,0.0746
1384.00,0.0747
1383.00,0.0748
1382.00,0.0750
1381.00,0.0752
1380.00,0.0753
1379.00,0.0754
1378.00,0.0756
1377.00,0.0757
1376.00,0.0759
1375.00,0.0760
1374.00,0.0761
1373.00,0.0761
1372.00,0.0760
1371.00,0.0760
1370.00,0.0759
1369.00,0.0759
1368.00,0.0759
1367.00,0.0759
1366.00,0.0758
1365.00,0.0757
1364.00,0.0757
1363.00,0.0758
1362.00,0.0759
1361.00,0.0758
1360.00,0.0757
1359.00,0.0755
1358.00,0.0754
1357.00,0.0753
1356.00,0.0753
1355.00,0.0752
1354.00,0.0751
1353.00,0.0749
1352.00,0.0747
1351.00,0.0745
1350.00,0.0743
1349.00,0.0741
1348.00,0.0740
1347.00,0.0739
1346.00,0.0738
1345.00,0.0737
1344.00,0.0735
1343.00,0.0734
1342.00,0.0733
1341.00,0.0733
1340.00,0.0733
1339.00,0.0734
1338.00,0.0733
1337.00,0.0732
1336.00,0.0730
1335.00,0.0729
1334.00,0.0728
1333.00,0.0727
1332.00,0.0727
1331.00,0.0727
1330.00,0.0727
1329.00,0.0726
1328.00,0.0726
1327.00,0.0725
1326.00,0.0725
1325.00,0.0725
1324.00,0.0726
1323.00,0.0728
1322.00,0.0729
1321.00,0.0731
1320.00,0.0732
1319.00,0.0732
1318.00,0.0731
1317.00,0.0730
1316.00,0.0729
1315.00,0.0729
1314.00,0.0730
1313.00,0.0732
1312.00,0.0734
1311.00,0.0736
1310.00,0.0737
1309.00,0.0737
1308.00,0.0737
1307.00,0.0737
1306.00,0.0737
1305.00,0.0738
1304.00,0.0740
1303.00,0.0742
1302.00,0.0743
1301.00,0.0744
1300.00,0.0744
1299.00,0.0744
1298.00,0.0744
1297.00,0.0744
1296.00,0.0745
1295.00,0.0746
1294.00,0.0747
1293.00,0.0749
1292.00,0.0751
1291.00,0.0753
1290.00,0.0755
1289.00,0.0755
1288.00,0.0756
1287.00,0.0755
1286.00,0.0756
1285.00,0.0757
1284.00,0.0758
1283.00,0.0760
1282.00,0.0761
1281.00,0.0761
1280.00,0.0760
1279.00,0.0760
1278.00,0.0760
1277.00,0.0760
1276.00,0.0761
1275.00,0.0761
1274.00,0.0762
1273.00,0.0762
1272.00,0.0762
1271.00,0.0763
1270.00,0.0764
1269.00,0.0765
1268.00,0.0765
1267.00,0.0766
1266.00,0.0766
1265.00,0.0766
1264.00,0.0766
1263.00,0.0765
1262.00,0.0765
1261.00,0.0765
1260.00,0.0765
1259.00,0.0766
1258.00,0.0767
1257.00,0.0767
1256.00,0.0766
1255.00,0.0765
1254.00,0.0765
1253.00,0.0765
1252.00,0.0766
1251.00,0.0766
1250.00,0.0765
1249.00,0.0765
1248.00,0.0765
1247.00,0.0766
1246.00,0.0766
1245.00,0.0767
1244.00,0.0767
1243.00,0.0767
1242.00,0.0766
1241.00,0.0765
1240.00,0.0765
1239.00,0.0765
1238.00,0.0765
1237.00,0.0766
1236.00,0.0766
1235.00,0.0766
1234.00,0.0765
1233.00,0.0764
1232.00,0.0764
1231.00,0.0763
1230.00,0.0763
1229.00,0.0763
1228.00,0.0763
1227.00,0.0763
1226.00,0.0762
1225.00,0.0761
1224.00,0.0761
1223.00,0.0760
1222.00,0.0759
1221.00,0.0759
1220.00,0.0760
1219.00,0.0760
1218.00,0.0760
1217.00,0.0759
1216.00,0.0759
1215.00,0.0758
1214.00,0.0758
1213.00,0.0757
1212.00,0.0757
1211.00,0.0757
1210.00,0.0757
1209.00,0.0758
1208.00,0.0758
1207.00,0.0758
1206.00,0.0756
1205.00,0.0755
1204.00,0.0755
1203.00,0.0754
1202.00,0.0754
1201.00,0.0754
1200.00,0.0753
1199.00,0.0753
1198.00,0.0752
1197.00,0.0752
1196.00,0.0750
1195.00,0.0749
1194.00,0.0748
1193.00,0.0748
1192.00,0.0748
1191.00,0.0747
1190.00,0.0746
1189.00,0.0744
1188.00,0.0742
1187.00,0.0741
1186.00,0.0740
1185.00,0.0740
1184.00,0.0739
1183.00,0.0738
1182.00,0.0737
1181.00,0.0735
1180.00,0.0734
1179.00,0.0732
1178.00,0.0731
1177.00,0.0730
1176.00,0.0730
1175.00,0.0730
1174.00,0.0730
1173.00,0.0729
1172.00,0.0728
1171.00,0.0726
1170.00,0.0725
1169.00,0.0724
1168.00,0.0723
1167.00,0.0722
1166.00,0.0722
1165.00,0.0721
1164.00,0.0720
1163.00,0.0719
1162.00,0.0717
1161.00,0.0717
1160.00,0.0716
1159.00,0.0715
1158.00,0.0713
1157.00,0.0712
1156.00,0.0711
1155.00,0.0711
1154.00,0.0711
1153.00,0.0710
1152.00,0.0708
1151.00,0.0705
1150.00,0.0702
1149.00,0.0699
1148.00,0.0698
1147.00,0.0697
1146.00,0.0697
1145.00,0.0697
1144.00,0.0697
1143.00,0.0696
1142.00,0.0695
1141.00,0.0693
1140.00,0.0692
1139.00,0.0691
1138.00,0.0690
1137.00,0.0690
1136.00,0.0689
1135.00,0.0689
1134.00,0.0688
1133.00,0.0687
1132.00,0.0686
1131.00,0.0685
1130.00,0.0684
1129.00,0.0684
1128.00,0.0685
1127.00,0.0684
1126.00,0.0681
1125.00,0.0678
1124.00,0.0676
1123.00,0.0676
1122.00,0.0678
1121.00,0.0680
1120.00,0.0681
1119.00,0.0680
1118.00,0.0679
1117.00,0.0678
1116.00,0.0678
1115.00,0.0679
1114.00,0.0678
1113.00,0.0676
1112.00,0.0673
1111.00,0.0670
1110.00,0.0669
1109.00,0.0669
1108.00,0.0669
1107.00,0.0668
1106.00,0.0666
1105.00,0.0664
1104.00,0.0664
1103.00,0.0664
1102.00,0.0666
1101.00,0.0667
1100.00,0.0667
1099.00,0.0667
1098.00,0.0667
1097.00,0.0667
1096.00,0.0665
1095.00,0.0664
1094.00,0.0662
1093.00,0.0662
1092.00,0.0662
1091.00,0.0662
1090.00,0.0661
1089.00,0.0659
1088.00,0.0657
1087.00,0.0657
1086.00,0.0659
1085.00,0.0660
1084.00,0.0661
1083.00,0.0661
1082.00,0.0661
1081.00,0.0662
1080.00,0.0662
1079.00,0.0664
1078.00,0.0665
1077.00,0.0667
1076.00,0.0666
1075.00,0.0664
1074.00,0.0662
1073.00,0.0660
1072.00,0.0659
1071.00,0.0657
1070.00,0.0656
1069.00,0.0654
1068.00,0.0652
1067.00,0.0652
1066.00,0.0652
1065.00,0.0653
1064.00,0.0655
1063.00,0.0656
1062.00,0.0656
1061.00,0.0653
1060.00,0.0650
1059.00,0.0649
1058.00,0.0650
1057.00,0.0652
1056.00,0.0654
1055.00,0.0655
1054.00,0.0656
1053.00,0.0656
1052.00,0.0657
1051.00,0.0656
1050.00,0.0656
1049.00,0.0657
1048.00,0.0658
1047.00,0.0658
1046.00,0.0658
1045.00,0.0657
1044.00,0.0658
1043.00,0.0657
1042.00,0.0654
1041.00,0.0652
1040.00,0.0650
1039.00,0.0650
1038.00,0.0651
1037.00,0.0651
1036.00,0.0650
1035.00,0.0649
1034.00,0.0649
1033.00,0.0649
1032.00,0.0649
1031.00,0.0648
1030.00,0.0646
1029.00,0.0644
1028.00,0.0642
1027.00,0.0641
1026.00,0.0640
1025.00,0.0640
1024.00,0.0639
1023.00,0.0638
1022.00,0.0637
1021.00,0.0635
1020.00,0.0633
1019.00,0.0631
1018.00,0.0630
1017.00,0.0629
1016.00,0.0629
1015.00,0.0629
1014.00,0.0629
1013.00,0.0627
1012.00,0.0626
1011.00,0.0624
1010.00,0.0622
1009.00,0.0620
1008.00,0.0618
1007.00,0.0615
1006.00,0.0612
1005.00,0.0610
1004.00,0.0610
1003.00,0.0609
1002.00,0.0609
1001.00,0.0608
1000.00,0.0605
999.00,0.0602
998.00,0.0599
997.00,0.0597
996.00,0.0597
995.00,0.0597
994.00,0.0595
993.00,0.0592
992.00,0.0589
991.00,0.0586
990.00,0.0585
989.00,0.0585
988.00,0.0585
987.00,0.0585
986.00,0.0585
985.00,0.0584
984.00,0.0581
983.00,0.0579
982.00,0.0577
981.00,0.0576
980.00,0.0576
979.00,0.0576
978.00,0.0574
977.00,0.0571
976.00,0.0569
975.00,0.0567
974.00,0.0567
973.00,0.0567
972.00,0.0566
971.00,0.0565
970.00,0.0564
969.00,0.0561
968.00,0.0559
967.00,0.0557
966.00,0.0555
965.00,0.0553
964.00,0.0552
963.00,0.0553
962.00,0.0553
961.00,0.0553
960.00,0.0552
959.00,0.0550
958.00,0.0548
957.00,0.0547
956.00,0.0546
955.00,0.0545
954.00,0.0544
953.00,0.0542
952.00,0.0542
951.00,0.0541
950.00,0.0542
949.00,0.0542
948.00,0.0542
947.00,0.0541
946.00,0.0539
945.00,0.0538
944.00,0.0538
943.00,0.0537
942.00,0.0536
941.00,0.0534
940.00,0.0534
939.00,0.0534
938.00,0.0535
937.00,0.0535
936.00,0.0533
935.00,0.0532
934.00,0.0532
933.00,0.0533
932.00,0.0536
931.00,0.0538
930.00,0.0538
929.00,0.0537
928.00,0.0537
927.00,0.0538
926.00,0.0540
925.00,0.0541
924.00,0.0543
923.00,0.0544
922.00,0.0544
921.00,0.0543
920.00,0.0542
919.00,0.0541
918.00,0.0541
917.00,0.0542
916.00,0.0544
915.00,0.0545
914.00,0.0546
913.00,0.0546
912.00,0.0545
911.00,0.0544
910.00,0.0542
909.00,0.0539
908.00,0.0537
907.00,0.0537
906.00,0.0539
905.00,0.0542
904.00,0.0546
903.00,0.0551
902.00,0.0553
901.00,0.0554
900.00,0.0552
899.00,0.0552
898.00,0.0553
897.00,0.0555
896.00,0.0556
895.00,0.0557
894.00,0.0557
893.00,0.0555
892.00,0.0554
891.00,0.0554
890.00,0.0557
889.00,0.0561
888.00,0.0565
887.00,0.0566
886.00,0.0565
885.00,0.0565
884.00,0.0566
883.00,0.0567
882.00,0.0569
881.00,0.0569
880.00,0.0569
879.00,0.0570
878.00,0.0571
877.00,0.0572
876.00,0.0571
875.00,0.0571
874.00,0.0569
873.00,0.0569
872.00,0.0570
871.00,0.0572
870.00,0.0575
869.00,0.0577
868.00,0.0577
867.00,0.0576
866.00,0.0576
865.00,0.0577
864.00,0.0580
863.00,0.0582
862.00,0.0583
861.00,0.0585
860.00,0.0586
859.00,0.0585
858.00,0.0583
857.00,0.0581
856.00,0.0581
855.00,0.0583
854.00,0.0586
853.00,0.0589
852.00,0.0590
851.00,0.0591
850.00,0.0593
849.00,0.0595
848.00,0.0598
847.00,0.0601
846.00,0.0604
845.00,0.0606
844.00,0.0606
843.00,0.0607
842.00,0.0607
841.00,0.0607
840.00,0.0607
839.00,0.0606
838.00,0.0606
837.00,0.0608
836.00,0.0610
835.00,0.0613
834.00,0.0615
833.00,0.0618
832.00,0.0620
831.00,0.0622
830.00,0.0622
829.00,0.0622
828.00,0.0624
827.00,0.0627
826.00,0.0631
825.00,0.0635
824.00,0.0638
823.00,0.0641
822.00,0.0643
821.00,0.0646
820.00,0.0649
819.00,0.0652
818.00,0.0653
817.00,0.0652
816.00,0.0651
815.00,0.0651
814.00,0.0654
813.00,0.0657
812.00,0.0660
811.00,0.0662
810.00,0.0662
809.00,0.0664
808.00,0.0665
807.00,0.0666
806.00,0.0666
805.00,0.0666
804.00,0.0667
803.00,0.0668
802.00,0.0669
801.00,0.0672
800.00,0.0676
799.00,0.0679
798.00,0.0681
797.00,0.0681
796.00,0.0682
795.00,0.0683
794.00,0.0683
793.00,0.0684
792.00,0.0686
791.00,0.0689
790.00,0.0693
789.00,0.0695
788.00,0.0696
787.00,0.0697
786.00,0.0698
785.00,0.0701
784.00,0.0705
783.00,0.0708
782.00,0.0709
781.00,0.0708
780.00,0.0707
779.00,0.0707
778.00,0.0710
777.00,0.0715
776.00,0.0719
775.00,0.0721
774.00,0.0722
773.00,0.0722
772.00,0.0721
771.00,0.0721
770.00,0.0722
769.00,0.0723
768.00,0.0726
767.00,0.0727
766.00,0.0727
765.00,0.0725
764.00,0.0723
763.00,0.0723
762.00,0.0722
761.00,0.0722
760.00,0.0723
759.00,0.0727
758.00,0.0734
757.00,0.0739
756.00,0.0741
755.00,0.0740
754.00,0.0738
753.00,0.0736
752.00,0.0738
751.00,0.0741
750.00,0.0746
749.00,0.0749
748.00,0.0750
747.00,0.0751
746.00,0.0751
745.00,0.0749
744.00,0.0747
743.00,0.0745
742.00,0.0744
741.00,0.0745
740.00,0.0745
739.00,0.0745
738.00,0.0746
737.00,0.0747
736.00,0.0747
735.00,0.0747
734.00,0.0747
733.00,0.0749
732.00,0.0752
731.00,0.0755
730.00,0.0758
729.00,0.0762
728.00,0.0766
727.00,0.0770
726.00,0.0772
725.00,0.0771
724.00,0.0770
723.00,0.0769
722.00,0.0770
721.00,0.0771
720.00,0.0772
719.00,0.0773
718.00,0.0774
717.00,0.0775
716.00,0.0776
715.00,0.0776
714.00,0.0777
713.00,0.0780
712.00,0.0784
711.00,0.0787
710.00,0.0788
709.00,0.0788
708.00,0.0790
707.00,0.0792
706.00,0.0795
705.00,0.0798
704.00,0.0802
703.00,0.0807
702.00,0.0810
701.00,0.0811
700.00,0.0809
699.00,0.0809
698.00,0.0810
697.00,0.0813
696.00,0.0815
695.00,0.0817
694.00,0.0820
693.00,0.0823
692.00,0.0826
691.00,0.0829
690.00,0.0831
689.00,0.0832
688.00,0.0834
687.00,0.0835
686.00,0.0837
685.00,0.0838
684.00,0.0836
683.00,0.0832
682.00,0.0830
681.00,0.0831
680.00,0.0834
679.00,0.0836
678.00,0.0838
677.00,0.0842
676.00,0.0847
675.00,0.0852
674.00,0.0853
673.00,0.0852
672.00,0.0849
671.00,0.0846
670.00,0.0844
669.00,0.0847
668.00,0.0856
667.00,0.0865
666.00,0.0870
665.00,0.0873
664.00,0.0874
663.00,0.0873
662.00,0.0868
661.00,0.0861
660.00,0.0858
659.00,0.0859
658.00,0.0865
657.00,0.0874
656.00,0.0880
655.00,0.0882
654.00,0.0879
653.00,0.0875
652.00,0.0873
651.00,0.0873
650.00,0.0874
