Created as New Dataset,Monday, April 03 2023
cm-1,A
4000.00,0.0166
3999.00,0.0166
3998.00,0.0166
3997.00,0.0165
3996.00,0.0165
3995.00,0.0164
3994.00,0.0164
3993.00,0.0164
3992.00,0.0164
3991.00,0.0164
3990.00,0.0164
3989.00,0.0164
3988.00,0.0164
3987.00,0.0164
3986.00,0.0163
3985.00,0.0163
3984.00,0.0163
3983.00,0.0164
3982.00,0.0164
3981.00,0.0164
3980.00,0.0164
3979.00,0.0163
3978.00,0.0163
3977.00,0.0163
3976.00,0.0163
3975.00,0.0162
3974.00,0.0162
3973.00,0.0163
3972.00,0.0163
3971.00,0.0164
3970.00,0.0164
3969.00,0.0164
3968.00,0.0163
3967.00,0.0162
3966.00,0.0162
3965.00,0.0161
3964.00,0.0162
3963.00,0.0163
3962.00,0.0163
3961.00,0.0163
3960.00,0.0162
3959.00,0.0162
3958.00,0.0161
3957.00,0.0161
3956.00,0.0161
3955.00,0.0161
3954.00,0.0160
3953.00,0.0160
3952.00,0.0161
3951.00,0.0161
3950.00,0.0162
3949.00,0.0163
3948.00,0.0164
3947.00,0.0164
3946.00,0.0164
3945.00,0.0164
3944.00,0.0163
3943.00,0.0161
3942.00,0.0160
3941.00,0.0160
3940.00,0.0160
3939.00,0.0160
3938.00,0.0160
3937.00,0.0159
3936.00,0.0159
3935.00,0.0160
3934.00,0.0159
3933.00,0.0159
3932.00,0.0160
3931.00,0.0160
3930.00,0.0161
3929.00,0.0161
3928.00,0.0161
3927.00,0.0162
3926.00,0.0161
3925.00,0.0161
3924.00,0.0161
3923.00,0.0162
3922.00,0.0162
3921.00,0.0161
3920.00,0.0161
3919.00,0.0161
3918.00,0.0161
3917.00,0.0161
3916.00,0.0161
3915.00,0.0160
3914.00,0.0159
3913.00,0.0158
3912.00,0.0157
3911.00,0.0156
3910.00,0.0157
3909.00,0.0158
3908.00,0.0159
3907.00,0.0160
3906.00,0.0161
3905.00,0.0161
3904.00,0.0162
3903.00,0.0164
3902.00,0.0166
3901.00,0.0167
3900.00,0.0165
3899.00,0.0163
3898.00,0.0160
3897.00,0.0159
3896.00,0.0158
3895.00,0.0157
3894.00,0.0157
3893.00,0.0157
3892.00,0.0156
3891.00,0.0155
3890.00,0.0156
3889.00,0.0157
3888.00,0.0158
3887.00,0.0157
3886.00,0.0155
3885.00,0.0155
3884.00,0.0157
3883.00,0.0159
3882.00,0.0159
3881.00,0.0157
3880.00,0.0155
3879.00,0.0156
3878.00,0.0157
3877.00,0.0159
3876.00,0.0158
3875.00,0.0156
3874.00,0.0155
3873.00,0.0157
3872.00,0.0158
3871.00,0.0158
3870.00,0.0157
3869.00,0.0157
3868.00,0.0158
3867.00,0.0158
3866.00,0.0157
3865.00,0.0156
3864.00,0.0156
3863.00,0.0157
3862.00,0.0158
3861.00,0.0157
3860.00,0.0156
3859.00,0.0155
3858.00,0.0155
3857.00,0.0156
3856.00,0.0156
3855.00,0.0154
3854.00,0.0152
3853.00,0.0154
3852.00,0.0156
3851.00,0.0156
3850.00,0.0155
3849.00,0.0153
3848.00,0.0151
3847.00,0.0151
3846.00,0.0151
3845.00,0.0151
3844.00,0.0151
3843.00,0.0151
3842.00,0.0153
3841.00,0.0154
3840.00,0.0155
3839.00,0.0156
3838.00,0.0155
3837.00,0.0155
3836.00,0.0155
3835.00,0.0155
3834.00,0.0155
3833.00,0.0154
3832.00,0.0153
3831.00,0.0152
3830.00,0.0152
3829.00,0.0151
3828.00,0.0151
3827.00,0.0149
3826.00,0.0148
3825.00,0.0150
3824.00,0.0153
3823.00,0.0154
3822.00,0.0153
3821.00,0.0151
3820.00,0.0152
3819.00,0.0153
3818.00,0.0154
3817.00,0.0152
3816.00,0.0149
3815.00,0.0149
3814.00,0.0150
3813.00,0.0150
3812.00,0.0149
3811.00,0.0147
3810.00,0.0147
3809.00,0.0147
3808.00,0.0146
3807.00,0.0146
3806.00,0.0147
3805.00,0.0150
3804.00,0.0153
3803.00,0.0153
3802.00,0.0151
3801.00,0.0150
3800.00,0.0151
3799.00,0.0151
3798.00,0.0150
3797.00,0.0148
3796.00,0.0146
3795.00,0.0146
3794.00,0.0147
3793.00,0.0147
3792.00,0.0146
3791.00,0.0145
3790.00,0.0145
3789.00,0.0146
3788.00,0.0146
3787.00,0.0147
3786.00,0.0147
3785.00,0.0147
3784.00,0.0147
3783.00,0.0148
3782.00,0.0148
3781.00,0.0147
3780.00,0.0146
3779.00,0.0145
3778.00,0.0145
3777.00,0.0146
3776.00,0.0145
3775.00,0.0145
3774.00,0.0144
3773.00,0.0144
3772.00,0.0144
3771.00,0.0143
3770.00,0.0143
3769.00,0.0144
3768.00,0.0145
3767.00,0.0146
3766.00,0.0145
3765.00,0.0144
3764.00,0.0145
3763.00,0.0146
3762.00,0.0146
3761.00,0.0146
3760.00,0.0145
3759.00,0.0145
3758.00,0.0144
3757.00,0.0144
3756.00,0.0144
3755.00,0.0144
3754.00,0.0144
3753.00,0.0142
3752.00,0.0141
3751.00,0.0143
3750.00,0.0145
3749.00,0.0146
3748.00,0.0149
3747.00,0.0153
3746.00,0.0153
3745.00,0.0148
3744.00,0.0144
3743.00,0.0143
3742.00,0.0144
3741.00,0.0145
3740.00,0.0145
3739.00,0.0147
3738.00,0.0148
3737.00,0.0149
3736.00,0.0149
3735.00,0.0149
3734.00,0.0149
3733.00,0.0148
3732.00,0.0145
3731.00,0.0142
3730.00,0.0142
3729.00,0.0142
3728.00,0.0141
3727.00,0.0141
3726.00,0.0141
3725.00,0.0141
3724.00,0.0142
3723.00,0.0141
3722.00,0.0141
3721.00,0.0141
3720.00,0.0142
3719.00,0.0141
3718.00,0.0141
3717.00,0.0140
3716.00,0.0141
3715.00,0.0142
3714.00,0.0142
3713.00,0.0142
3712.00,0.0143
3711.00,0.0144
3710.00,0.0144
3709.00,0.0143
3708.00,0.0142
3707.00,0.0142
3706.00,0.0143
3705.00,0.0144
3704.00,0.0145
3703.00,0.0144
3702.00,0.0143
3701.00,0.0143
3700.00,0.0144
3699.00,0.0145
3698.00,0.0144
3697.00,0.0143
3696.00,0.0143
3695.00,0.0143
3694.00,0.0144
3693.00,0.0144
3692.00,0.0145
3691.00,0.0146
3690.00,0.0148
3689.00,0.0148
3688.00,0.0147
3687.00,0.0146
3686.00,0.0145
3685.00,0.0144
3684.00,0.0143
3683.00,0.0142
3682.00,0.0141
3681.00,0.0140
3680.00,0.0140
3679.00,0.0140
3678.00,0.0142
3677.00,0.0142
3676.00,0.0142
3675.00,0.0142
3674.00,0.0144
3673.00,0.0146
3672.00,0.0147
3671.00,0.0147
3670.00,0.0147
3669.00,0.0148
3668.00,0.0148
3667.00,0.0148
3666.00,0.0147
3665.00,0.0146
3664.00,0.0145
3663.00,0.0146
3662.00,0.0147
3661.00,0.0148
3660.00,0.0150
3659.00,0.0153
3658.00,0.0154
3657.00,0.0155
3656.00,0.0155
3655.00,0.0157
3654.00,0.0160
3653.00,0.0163
3652.00,0.0164
3651.00,0.0164
3650.00,0.0166
3649.00,0.0170
3648.00,0.0173
3647.00,0.0173
3646.00,0.0172
3645.00,0.0170
3644.00,0.0170
3643.00,0.0169
3642.00,0.0169
3641.00,0.0170
3640.00,0.0171
3639.00,0.0172
3638.00,0.0173
3637.00,0.0174
3636.00,0.0176
3635.00,0.0177
3634.00,0.0178
3633.00,0.0180
3632.00,0.0183
3631.00,0.0185
3630.00,0.0186
3629.00,0.0189
3628.00,0.0192
3627.00,0.0193
3626.00,0.0192
3625.00,0.0190
3624.00,0.0189
3623.00,0.0189
3622.00,0.0191
3621.00,0.0194
3620.00,0.0198
3619.00,0.0202
3618.00,0.0204
3617.00,0.0205
3616.00,0.0205
3615.00,0.0205
3614.00,0.0205
3613.00,0.0205
3612.00,0.0206
3611.00,0.0207
3610.00,0.0208
3609.00,0.0210
3608.00,0.0212
3607.00,0.0213
3606.00,0.0212
3605.00,0.0211
3604.00,0.0209
3603.00,0.0209
3602.00,0.0211
3601.00,0.0213
3600.00,0.0215
3599.00,0.0216
3598.00,0.0217
3597.00,0.0218
3596.00,0.0219
3595.00,0.0220
3594.00,0.0220
3593.00,0.0220
3592.00,0.0221
3591.00,0.0221
3590.00,0.0222
3589.00,0.0224
3588.00,0.0227
3587.00,0.0230
3586.00,0.0232
3585.00,0.0231
3584.00,0.0230
3583.00,0.0229
3582.00,0.0228
3581.00,0.0228
3580.00,0.0229
3579.00,0.0229
3578.00,0.0231
3577.00,0.0232
3576.00,0.0233
3575.00,0.0234
3574.00,0.0235
3573.00,0.0236
3572.00,0.0236
3571.00,0.0237
3570.00,0.0237
3569.00,0.0239
3568.00,0.0243
3567.00,0.0247
3566.00,0.0251
3565.00,0.0251
3564.00,0.0249
3563.00,0.0247
3562.00,0.0246
3561.00,0.0247
3560.00,0.0247
3559.00,0.0248
3558.00,0.0249
3557.00,0.0250
3556.00,0.0250
3555.00,0.0252
3554.00,0.0253
3553.00,0.0254
3552.00,0.0256
3551.00,0.0257
3550.00,0.0258
3549.00,0.0258
3548.00,0.0259
3547.00,0.0260
3546.00,0.0262
3545.00,0.0264
3544.00,0.0264
3543.00,0.0264
3542.00,0.0264
3541.00,0.0263
3540.00,0.0263
3539.00,0.0262
3538.00,0.0262
3537.00,0.0263
3536.00,0.0264
3535.00,0.0266
3534.00,0.0267
3533.00,0.0268
3532.00,0.0269
3531.00,0.0269
3530.00,0.0270
3529.00,0.0270
3528.00,0.0270
3527.00,0.0271
3526.00,0.0273
3525.00,0.0275
3524.00,0.0278
3523.00,0.0279
3522.00,0.0279
3521.00,0.0278
3520.00,0.0277
3519.00,0.0276
3518.00,0.0275
3517.00,0.0275
3516.00,0.0276
3515.00,0.0276
3514.00,0.0277
3513.00,0.0279
3512.00,0.0281
3511.00,0.0283
3510.00,0.0284
3509.00,0.0285
3508.00,0.0285
3507.00,0.0285
3506.00,0.0285
3505.00,0.0286
3504.00,0.0288
3503.00,0.0290
3502.00,0.0292
3501.00,0.0293
3500.00,0.0292
3499.00,0.0292
3498.00,0.0292
3497.00,0.0293
3496.00,0.0293
3495.00,0.0294
3494.00,0.0294
3493.00,0.0294
3492.00,0.0295
3491.00,0.0295
3490.00,0.0295
3489.00,0.0295
3488.00,0.0296
3487.00,0.0297
3486.00,0.0297
3485.00,0.0298
3484.00,0.0299
3483.00,0.0300
3482.00,0.0301
3481.00,0.0302
3480.00,0.0302
3479.00,0.0302
3478.00,0.0302
3477.00,0.0303
3476.00,0.0304
3475.00,0.0305
3474.00,0.0306
3473.00,0.0307
3472.00,0.0308
3471.00,0.0308
3470.00,0.0308
3469.00,0.0309
3468.00,0.0309
3467.00,0.0310
3466.00,0.0312
3465.00,0.0313
3464.00,0.0314
3463.00,0.0314
3462.00,0.0314
3461.00,0.0314
3460.00,0.0314
3459.00,0.0315
3458.00,0.0316
3457.00,0.0317
3456.00,0.0316
3455.00,0.0316
3454.00,0.0316
3453.00,0.0317
3452.00,0.0318
3451.00,0.0319
3450.00,0.0319
3449.00,0.0320
3448.00,0.0321
3447.00,0.0322
3446.00,0.0324
3445.00,0.0325
3444.00,0.0325
3443.00,0.0325
3442.00,0.0325
3441.00,0.0324
3440.00,0.0324
3439.00,0.0324
3438.00,0.0324
3437.00,0.0325
3436.00,0.0325
3435.00,0.0325
3434.00,0.0325
3433.00,0.0326
3432.00,0.0328
3431.00,0.0329
3430.00,0.0330
3429.00,0.0329
3428.00,0.0329
3427.00,0.0329
3426.00,0.0330
3425.00,0.0332
3424.00,0.0333
3423.00,0.0335
3422.00,0.0335
3421.00,0.0335
3420.00,0.0336
3419.00,0.0336
3418.00,0.0337
3417.00,0.0336
3416.00,0.0336
3415.00,0.0336
3414.00,0.0336
3413.00,0.0336
3412.00,0.0337
3411.00,0.0338
3410.00,0.0339
3409.00,0.0339
3408.00,0.0340
3407.00,0.0341
3406.00,0.0342
3405.00,0.0342
3404.00,0.0341
3403.00,0.0341
3402.00,0.0341
3401.00,0.0342
3400.00,0.0343
3399.00,0.0343
3398.00,0.0344
3397.00,0.0344
3396.00,0.0344
3395.00,0.0344
3394.00,0.0344
3393.00,0.0345
3392.00,0.0345
3391.00,0.0346
3390.00,0.0346
3389.00,0.0346
3388.00,0.0346
3387.00,0.0346
3386.00,0.0347
3385.00,0.0347
3384.00,0.0348
3383.00,0.0349
3382.00,0.0350
3381.00,0.0350
3380.00,0.0351
3379.00,0.0351
3378.00,0.0351
3377.00,0.0351
3376.00,0.0351
3375.00,0.0351
3374.00,0.0351
3373.00,0.0351
3372.00,0.0351
3371.00,0.0351
3370.00,0.0351
3369.00,0.0351
3368.00,0.0352
3367.00,0.0352
3366.00,0.0352
3365.00,0.0352
3364.00,0.0352
3363.00,0.0353
3362.00,0.0354
3361.00,0.0356
3360.00,0.0356
3359.00,0.0356
3358.00,0.0356
3357.00,0.0356
3356.00,0.0356
3355.00,0.0357
3354.00,0.0357
3353.00,0.0358
3352.00,0.0358
3351.00,0.0358
3350.00,0.0358
3349.00,0.0358
3348.00,0.0358
3347.00,0.0357
3346.00,0.0357
3345.00,0.0357
3344.00,0.0357
3343.00,0.0357
3342.00,0.0357
3341.00,0.0358
3340.00,0.0358
3339.00,0.0359
3338.00,0.0359
3337.00,0.0360
3336.00,0.0359
3335.00,0.0359
3334.00,0.0359
3333.00,0.0359
3332.00,0.0359
3331.00,0.0358
3330.00,0.0358
3329.00,0.0358
3328.00,0.0358
3327.00,0.0358
3326.00,0.0359
3325.00,0.0360
3324.00,0.0361
3323.00,0.0361
3322.00,0.0360
3321.00,0.0360
3320.00,0.0359
3319.00,0.0359
3318.00,0.0359
3317.00,0.0359
3316.00,0.0359
3315.00,0.0358
3314.00,0.0359
3313.00,0.0359
3312.00,0.0359
3311.00,0.0359
3310.00,0.0359
3309.00,0.0360
3308.00,0.0361
3307.00,0.0361
3306.00,0.0361
3305.00,0.0361
3304.00,0.0361
3303.00,0.0361
3302.00,0.0361
3301.00,0.0360
3300.00,0.0360
3299.00,0.0360
3298.00,0.0360
3297.00,0.0361
3296.00,0.0362
3295.00,0.0362
3294.00,0.0362
3293.00,0.0362
3292.00,0.0361
3291.00,0.0361
3290.00,0.0361
3289.00,0.0361
3288.00,0.0361
3287.00,0.0362
3286.00,0.0362
3285.00,0.0363
3284.00,0.0363
3283.00,0.0363
3282.00,0.0363
3281.00,0.0362
3280.00,0.0362
3279.00,0.0362
3278.00,0.0362
3277.00,0.0362
3276.00,0.0362
3275.00,0.0362
3274.00,0.0363
3273.00,0.0363
3272.00,0.0364
3271.00,0.0364
3270.00,0.0364
3269.00,0.0364
3268.00,0.0364
3267.00,0.0364
3266.00,0.0364
3265.00,0.0363
3264.00,0.0362
3263.00,0.0362
3262.00,0.0362
3261.00,0.0362
3260.00,0.0363
3259.00,0.0363
3258.00,0.0363
3257.00,0.0363
3256.00,0.0362
3255.00,0.0362
3254.00,0.0362
3253.00,0.0362
3252.00,0.0363
3251.00,0.0362
3250.00,0.0362
3249.00,0.0362
3248.00,0.0362
3247.00,0.0362
3246.00,0.0362
3245.00,0.0363
3244.00,0.0363
3243.00,0.0363
3242.00,0.0363
3241.00,0.0363
3240.00,0.0363
3239.00,0.0363
3238.00,0.0364
3237.00,0.0365
3236.00,0.0365
3235.00,0.0366
3234.00,0.0366
3233.00,0.0366
3232.00,0.0366
3231.00,0.0365
3230.00,0.0365
3229.00,0.0364
3228.00,0.0364
3227.00,0.0364
3226.00,0.0364
3225.00,0.0364
3224.00,0.0364
3223.00,0.0364
3222.00,0.0364
3221.00,0.0364
3220.00,0.0364
3219.00,0.0364
3218.00,0.0364
3217.00,0.0364
3216.00,0.0364
3215.00,0.0364
3214.00,0.0364
3213.00,0.0364
3212.00,0.0363
3211.00,0.0362
3210.00,0.0362
3209.00,0.0362
3208.00,0.0362
3207.00,0.0363
3206.00,0.0363
3205.00,0.0364
3204.00,0.0364
3203.00,0.0364
3202.00,0.0364
3201.00,0.0364
3200.00,0.0364
3199.00,0.0364
3198.00,0.0364
3197.00,0.0364
3196.00,0.0363
3195.00,0.0363
3194.00,0.0363
3193.00,0.0363
3192.00,0.0362
3191.00,0.0362
3190.00,0.0361
3189.00,0.0361
3188.00,0.0360
3187.00,0.0360
3186.00,0.0360
3185.00,0.0360
3184.00,0.0361
3183.00,0.0362
3182.00,0.0362
3181.00,0.0362
3180.00,0.0362
3179.00,0.0361
3178.00,0.0361
3177.00,0.0360
3176.00,0.0360
3175.00,0.0360
3174.00,0.0360
3173.00,0.0360
3172.00,0.0361
3171.00,0.0361
3170.00,0.0360
3169.00,0.0360
3168.00,0.0360
3167.00,0.0360
3166.00,0.0360
3165.00,0.0361
3164.00,0.0361
3163.00,0.0361
3162.00,0.0360
3161.00,0.0359
3160.00,0.0358
3159.00,0.0356
3158.00,0.0356
3157.00,0.0355
3156.00,0.0356
3155.00,0.0356
3154.00,0.0357
3153.00,0.0358
3152.00,0.0358
3151.00,0.0357
3150.00,0.0357
3149.00,0.0357
3148.00,0.0356
3147.00,0.0356
3146.00,0.0355
3145.00,0.0355
3144.00,0.0355
3143.00,0.0355
3142.00,0.0355
3141.00,0.0355
3140.00,0.0355
3139.00,0.0355
3138.00,0.0355
3137.00,0.0354
3136.00,0.0354
3135.00,0.0354
3134.00,0.0354
3133.00,0.0354
3132.00,0.0354
3131.00,0.0354
3130.00,0.0354
3129.00,0.0353
3128.00,0.0353
3127.00,0.0353
3126.00,0.0352
3125.00,0.0352
3124.00,0.0352
3123.00,0.0352
3122.00,0.0351
3121.00,0.0351
3120.00,0.0351
3119.00,0.0351
3118.00,0.0351
3117.00,0.0351
3116.00,0.0351
3115.00,0.0351
3114.00,0.0350
3113.00,0.0350
3112.00,0.0350
3111.00,0.0350
3110.00,0.0349
3109.00,0.0349
3108.00,0.0348
3107.00,0.0348
3106.00,0.0349
3105.00,0.0349
3104.00,0.0349
3103.00,0.0348
3102.00,0.0348
3101.00,0.0347
3100.00,0.0347
3099.00,0.0346
3098.00,0.0346
3097.00,0.0346
3096.00,0.0346
3095.00,0.0347
3094.00,0.0348
3093.00,0.0348
3092.00,0.0347
3091.00,0.0346
3090.00,0.0345
3089.00,0.0344
3088.00,0.0343
3087.00,0.0343
3086.00,0.0343
3085.00,0.0344
3084.00,0.0345
3083.00,0.0345
3082.00,0.0344
3081.00,0.0344
3080.00,0.0344
3079.00,0.0344
3078.00,0.0344
3077.00,0.0344
3076.00,0.0343
3075.00,0.0343
3074.00,0.0343
3073.00,0.0343
3072.00,0.0343
3071.00,0.0344
3070.00,0.0343
3069.00,0.0343
3068.00,0.0343
3067.00,0.0342
3066.00,0.0342
3065.00,0.0341
3064.00,0.0340
3063.00,0.0340
3062.00,0.0339
3061.00,0.0340
3060.00,0.0339
3059.00,0.0339
3058.00,0.0339
3057.00,0.0339
3056.00,0.0339
3055.00,0.0339
3054.00,0.0338
3053.00,0.0338
3052.00,0.0337
3051.00,0.0338
3050.00,0.0338
3049.00,0.0338
3048.00,0.0338
3047.00,0.0338
3046.00,0.0337
3045.00,0.0336
3044.00,0.0335
3043.00,0.0334
3042.00,0.0333
3041.00,0.0333
3040.00,0.0332
3039.00,0.0332
3038.00,0.0332
3037.00,0.0332
3036.00,0.0332
3035.00,0.0333
3034.00,0.0333
3033.00,0.0333
3032.00,0.0332
3031.00,0.0332
3030.00,0.0331
3029.00,0.0330
3028.00,0.0329
3027.00,0.0329
3026.00,0.0329
3025.00,0.0328
3024.00,0.0328
3023.00,0.0328
3022.00,0.0328
3021.00,0.0327
3020.00,0.0327
3019.00,0.0326
3018.00,0.0325
3017.00,0.0324
3016.00,0.0324
3015.00,0.0323
3014.00,0.0322
3013.00,0.0322
3012.00,0.0321
3011.00,0.0320
3010.00,0.0320
3009.00,0.0318
3008.00,0.0316
3007.00,0.0314
3006.00,0.0313
3005.00,0.0312
3004.00,0.0311
3003.00,0.0310
3002.00,0.0309
3001.00,0.0307
3000.00,0.0306
2999.00,0.0305
2998.00,0.0303
2997.00,0.0302
2996.00,0.0301
2995.00,0.0301
2994.00,0.0300
2993.00,0.0299
2992.00,0.0298
2991.00,0.0297
2990.00,0.0296
2989.00,0.0295
2988.00,0.0294
2987.00,0.0293
2986.00,0.0290
2985.00,0.0286
2984.00,0.0283
2983.00,0.0280
2982.00,0.0278
2981.00,0.0279
2980.00,0.0280
2979.00,0.0281
2978.00,0.0283
2977.00,0.0284
2976.00,0.0286
2975.00,0.0286
2974.00,0.0285
2973.00,0.0284
2972.00,0.0283
2971.00,0.0283
2970.00,0.0284
2969.00,0.0286
2968.00,0.0288
2967.00,0.0289
2966.00,0.0289
2965.00,0.0289
2964.00,0.0290
2963.00,0.0291
2962.00,0.0292
2961.00,0.0292
2960.00,0.0292
2959.00,0.0291
2958.00,0.0291
2957.00,0.0292
2956.00,0.0293
2955.00,0.0294
2954.00,0.0295
2953.00,0.0295
2952.00,0.0296
2951.00,0.0296
2950.00,0.0296
2949.00,0.0297
2948.00,0.0297
2947.00,0.0296
2946.00,0.0296
2945.00,0.0296
2944.00,0.0297
2943.00,0.0297
2942.00,0.0298
2941.00,0.0298
2940.00,0.0298
2939.00,0.0297
2938.00,0.0297
2937.00,0.0296
2936.00,0.0296
2935.00,0.0296
2934.00,0.0296
2933.00,0.0296
2932.00,0.0295
2931.00,0.0295
2930.00,0.0294
2929.00,0.0294
2928.00,0.0294
2927.00,0.0294
2926.00,0.0294
2925.00,0.0294
2924.00,0.0294
2923.00,0.0294
2922.00,0.0294
2921.00,0.0294
2920.00,0.0293
2919.00,0.0293
2918.00,0.0292
2917.00,0.0292
2916.00,0.0292
2915.00,0.0291
2914.00,0.0291
2913.00,0.0291
2912.00,0.0291
2911.00,0.0291
2910.00,0.0291
2909.00,0.0290
2908.00,0.0290
2907.00,0.0289
2906.00,0.0289
2905.00,0.0288
2904.00,0.0288
2903.00,0.0287
2902.00,0.0287
2901.00,0.0287
2900.00,0.0287
2899.00,0.0286
2898.00,0.0286
2897.00,0.0285
2896.00,0.0285
2895.00,0.0285
2894.00,0.0284
2893.00,0.0284
2892.00,0.0284
2891.00,0.0283
2890.00,0.0283
2889.00,0.0283
2888.00,0.0283
2887.00,0.0283
2886.00,0.0283
2885.00,0.0282
2884.00,0.0281
2883.00,0.0281
2882.00,0.0281
2881.00,0.0281
2880.00,0.0282
2879.00,0.0282
2878.00,0.0282
2877.00,0.0283
2876.00,0.0282
2875.00,0.0282
2874.00,0.0281
2873.00,0.0280
2872.00,0.0280
2871.00,0.0280
2870.00,0.0280
2869.00,0.0280
2868.00,0.0280
2867.00,0.0279
2866.00,0.0279
2865.00,0.0280
2864.00,0.0280
2863.00,0.0280
2862.00,0.0280
2861.00,0.0280
2860.00,0.0280
2859.00,0.0280
2858.00,0.0280
2857.00,0.0280
2856.00,0.0280
2855.00,0.0280
2854.00,0.0279
2853.00,0.0278
2852.00,0.0278
2851.00,0.0279
2850.00,0.0280
2849.00,0.0280
2848.00,0.0280
2847.00,0.0280
2846.00,0.0280
2845.00,0.0280
2844.00,0.0279
2843.00,0.0279
2842.00,0.0278
2841.00,0.0278
2840.00,0.0277
2839.00,0.0276
2838.00,0.0276
2837.00,0.0275
2836.00,0.0276
2835.00,0.0277
2834.00,0.0277
2833.00,0.0276
2832.00,0.0275
2831.00,0.0274
2830.00,0.0274
2829.00,0.0274
2828.00,0.0274
2827.00,0.0274
2826.00,0.0274
2825.00,0.0273
2824.00,0.0273
2823.00,0.0273
2822.00,0.0272
2821.00,0.0271
2820.00,0.0271
2819.00,0.0270
2818.00,0.0270
2817.00,0.0270
2816.00,0.0269
2815.00,0.0269
2814.00,0.0269
2813.00,0.0268
2812.00,0.0268
2811.00,0.0268
2810.00,0.0268
2809.00,0.0267
2808.00,0.0267
2807.00,0.0267
2806.00,0.0267
2805.00,0.0267
2804.00,0.0267
2803.00,0.0267
2802.00,0.0266
2801.00,0.0266
2800.00,0.0266
2799.00,0.0266
2798.00,0.0265
2797.00,0.0265
2796.00,0.0265
2795.00,0.0264
2794.00,0.0264
2793.00,0.0264
2792.00,0.0263
2791.00,0.0264
2790.00,0.0263
2789.00,0.0263
2788.00,0.0263
2787.00,0.0263
2786.00,0.0262
2785.00,0.0262
2784.00,0.0261
2783.00,0.0260
2782.00,0.0259
2781.00,0.0258
2780.00,0.0258
2779.00,0.0258
2778.00,0.0258
2777.00,0.0259
2776.00,0.0259
2775.00,0.0259
2774.00,0.0259
2773.00,0.0258
2772.00,0.0258
2771.00,0.0257
2770.00,0.0256
2769.00,0.0255
2768.00,0.0254
2767.00,0.0254
2766.00,0.0254
2765.00,0.0254
2764.00,0.0254
2763.00,0.0255
2762.00,0.0254
2761.00,0.0254
2760.00,0.0254
2759.00,0.0254
2758.00,0.0254
2757.00,0.0253
2756.00,0.0253
2755.00,0.0253
2754.00,0.0252
2753.00,0.0252
2752.00,0.0252
2751.00,0.0252
2750.00,0.0252
2749.00,0.0252
2748.00,0.0252
2747.00,0.0251
2746.00,0.0251
2745.00,0.0251
2744.00,0.0251
2743.00,0.0251
2742.00,0.0250
2741.00,0.0250
2740.00,0.0250
2739.00,0.0249
2738.00,0.0248
2737.00,0.0248
2736.00,0.0248
2735.00,0.0248
2734.00,0.0248
2733.00,0.0248
2732.00,0.0248
2731.00,0.0248
2730.00,0.0247
2729.00,0.0247
2728.00,0.0246
2727.00,0.0246
2726.00,0.0246
2725.00,0.0245
2724.00,0.0245
2723.00,0.0245
2722.00,0.0245
2721.00,0.0244
2720.00,0.0244
2719.00,0.0244
2718.00,0.0244
2717.00,0.0244
2716.00,0.0244
2715.00,0.0244
2714.00,0.0244
2713.00,0.0243
2712.00,0.0243
2711.00,0.0242
2710.00,0.0242
2709.00,0.0242
2708.00,0.0241
2707.00,0.0241
2706.00,0.0241
2705.00,0.0240
2704.00,0.0240
2703.00,0.0240
2702.00,0.0239
2701.00,0.0239
2700.00,0.0239
2699.00,0.0239
2698.00,0.0239
2697.00,0.0239
2696.00,0.0238
2695.00,0.0238
2694.00,0.0239
2693.00,0.0239
2692.00,0.0239
2691.00,0.0238
2690.00,0.0238
2689.00,0.0237
2688.00,0.0237
2687.00,0.0237
2686.00,0.0237
2685.00,0.0237
2684.00,0.0237
2683.00,0.0236
2682.00,0.0236
2681.00,0.0236
2680.00,0.0235
2679.00,0.0235
2678.00,0.0234
2677.00,0.0233
2676.00,0.0233
2675.00,0.0233
2674.00,0.0233
2673.00,0.0233
2672.00,0.0233
2671.00,0.0232
2670.00,0.0232
2669.00,0.0232
2668.00,0.0232
2667.00,0.0232
2666.00,0.0232
2665.00,0.0233
2664.00,0.0233
2663.00,0.0233
2662.00,0.0233
2661.00,0.0233
2660.00,0.0233
2659.00,0.0233
2658.00,0.0233
2657.00,0.0233
2656.00,0.0233
2655.00,0.0233
2654.00,0.0233
2653.00,0.0233
2652.00,0.0233
2651.00,0.0233
2650.00,0.0234
2649.00,0.0233
2648.00,0.0233
2647.00,0.0232
2646.00,0.0232
2645.00,0.0232
2644.00,0.0232
2643.00,0.0232
2642.00,0.0232
2641.00,0.0232
2640.00,0.0232
2639.00,0.0232
2638.00,0.0232
2637.00,0.0231
2636.00,0.0231
2635.00,0.0231
2634.00,0.0231
2633.00,0.0231
2632.00,0.0231
2631.00,0.0231
2630.00,0.0230
2629.00,0.0230
2628.00,0.0229
2627.00,0.0229
2626.00,0.0229
2625.00,0.0230
2624.00,0.0231
2623.00,0.0231
2622.00,0.0232
2621.00,0.0232
2620.00,0.0231
2619.00,0.0231
2618.00,0.0231
2617.00,0.0230
2616.00,0.0230
2615.00,0.0229
2614.00,0.0228
2613.00,0.0228
2612.00,0.0229
2611.00,0.0230
2610.00,0.0230
2609.00,0.0229
2608.00,0.0228
2607.00,0.0228
2606.00,0.0228
2605.00,0.0229
2604.00,0.0229
2603.00,0.0229
2602.00,0.0229
2601.00,0.0229
2600.00,0.0228
2599.00,0.0228
2598.00,0.0228
2597.00,0.0227
2596.00,0.0226
2595.00,0.0226
2594.00,0.0226
2593.00,0.0227
2592.00,0.0228
2591.00,0.0228
2590.00,0.0228
2589.00,0.0228
2588.00,0.0227
2587.00,0.0227
2586.00,0.0226
2585.00,0.0225
2584.00,0.0225
2583.00,0.0225
2582.00,0.0225
2581.00,0.0225
2580.00,0.0226
2579.00,0.0226
2578.00,0.0226
2577.00,0.0225
2576.00,0.0224
2575.00,0.0224
2574.00,0.0224
2573.00,0.0225
2572.00,0.0225
2571.00,0.0224
2570.00,0.0224
2569.00,0.0223
2568.00,0.0223
2567.00,0.0224
2566.00,0.0226
2565.00,0.0226
2564.00,0.0225
2563.00,0.0225
2562.00,0.0225
2561.00,0.0225
2560.00,0.0226
2559.00,0.0226
2558.00,0.0226
2557.00,0.0226
2556.00,0.0226
2555.00,0.0226
2554.00,0.0225
2553.00,0.0224
2552.00,0.0223
2551.00,0.0222
2550.00,0.0221
2549.00,0.0220
2548.00,0.0219
2547.00,0.0219
2546.00,0.0219
2545.00,0.0220
2544.00,0.0220
2543.00,0.0220
2542.00,0.0220
2541.00,0.0219
2540.00,0.0218
2539.00,0.0217
2538.00,0.0216
2537.00,0.0215
2536.00,0.0216
2535.00,0.0217
2534.00,0.0218
2533.00,0.0219
2532.00,0.0219
2531.00,0.0219
2530.00,0.0218
2529.00,0.0218
2528.00,0.0217
2527.00,0.0217
2526.00,0.0216
2525.00,0.0216
2524.00,0.0215
2523.00,0.0215
2522.00,0.0215
2521.00,0.0216
2520.00,0.0216
2519.00,0.0217
2518.00,0.0218
2517.00,0.0218
2516.00,0.0219
2515.00,0.0218
2514.00,0.0217
2513.00,0.0216
2512.00,0.0215
2511.00,0.0215
2510.00,0.0216
2509.00,0.0217
2508.00,0.0217
2507.00,0.0217
2506.00,0.0217
2505.00,0.0216
2504.00,0.0216
2503.00,0.0216
2502.00,0.0216
2501.00,0.0217
2500.00,0.0218
2499.00,0.0218
2498.00,0.0218
2497.00,0.0217
2496.00,0.0217
2495.00,0.0217
2494.00,0.0217
2493.00,0.0217
2492.00,0.0217
2491.00,0.0217
2490.00,0.0217
2489.00,0.0217
2488.00,0.0217
2487.00,0.0216
2486.00,0.0215
2485.00,0.0214
2484.00,0.0213
2483.00,0.0213
2482.00,0.0214
2481.00,0.0215
2480.00,0.0215
2479.00,0.0215
2478.00,0.0215
2477.00,0.0214
2476.00,0.0213
2475.00,0.0213
2474.00,0.0213
2473.00,0.0213
2472.00,0.0213
2471.00,0.0213
2470.00,0.0214
2469.00,0.0213
2468.00,0.0213
2467.00,0.0212
2466.00,0.0211
2465.00,0.0211
2464.00,0.0211
2463.00,0.0211
2462.00,0.0211
2461.00,0.0211
2460.00,0.0212
2459.00,0.0212
2458.00,0.0212
2457.00,0.0212
2456.00,0.0212
2455.00,0.0213
2454.00,0.0213
2453.00,0.0214
2452.00,0.0215
2451.00,0.0214
2450.00,0.0214
2449.00,0.0213
2448.00,0.0212
2447.00,0.0212
2446.00,0.0211
2445.00,0.0211
2444.00,0.0210
2443.00,0.0209
2442.00,0.0209
2441.00,0.0210
2440.00,0.0210
2439.00,0.0210
2438.00,0.0210
2437.00,0.0210
2436.00,0.0209
2435.00,0.0209
2434.00,0.0209
2433.00,0.0208
2432.00,0.0208
2431.00,0.0208
2430.00,0.0208
2429.00,0.0208
2428.00,0.0208
2427.00,0.0208
2426.00,0.0208
2425.00,0.0208
2424.00,0.0208
2423.00,0.0208
2422.00,0.0208
2421.00,0.0208
2420.00,0.0207
2419.00,0.0207
2418.00,0.0206
2417.00,0.0206
2416.00,0.0205
2415.00,0.0205
2414.00,0.0206
2413.00,0.0206
2412.00,0.0206
2411.00,0.0206
2410.00,0.0206
2409.00,0.0206
2408.00,0.0206
2407.00,0.0205
2406.00,0.0205
2405.00,0.0204
2404.00,0.0204
2403.00,0.0204
2402.00,0.0203
2401.00,0.0203
2400.00,0.0202
2399.00,0.0202
2398.00,0.0202
2397.00,0.0202
2396.00,0.0201
2395.00,0.0201
2394.00,0.0201
2393.00,0.0201
2392.00,0.0200
2391.00,0.0200
2390.00,0.0200
2389.00,0.0200
2388.00,0.0199
2387.00,0.0199
2386.00,0.0199
2385.00,0.0198
2384.00,0.0197
2383.00,0.0196
2382.00,0.0196
2381.00,0.0196
2380.00,0.0197
2379.00,0.0198
2378.00,0.0198
2377.00,0.0197
2376.00,0.0196
2375.00,0.0196
2374.00,0.0196
2373.00,0.0196
2372.00,0.0197
2371.00,0.0196
2370.00,0.0195
2369.00,0.0192
2368.00,0.0190
2367.00,0.0191
2366.00,0.0193
2365.00,0.0197
2364.00,0.0197
2363.00,0.0196
2362.00,0.0195
2361.00,0.0195
2360.00,0.0197
2359.00,0.0197
2358.00,0.0197
2357.00,0.0196
2356.00,0.0196
2355.00,0.0195
2354.00,0.0193
2353.00,0.0192
2352.00,0.0192
2351.00,0.0193
2350.00,0.0194
2349.00,0.0194
2348.00,0.0193
2347.00,0.0190
2346.00,0.0188
2345.00,0.0189
2344.00,0.0192
2343.00,0.0195
2342.00,0.0198
2341.00,0.0198
2340.00,0.0198
2339.00,0.0196
2338.00,0.0193
2337.00,0.0191
2336.00,0.0190
2335.00,0.0191
2334.00,0.0193
2333.00,0.0193
2332.00,0.0193
2331.00,0.0191
2330.00,0.0191
2329.00,0.0191
2328.00,0.0193
2327.00,0.0195
2326.00,0.0197
2325.00,0.0197
2324.00,0.0197
2323.00,0.0196
2322.00,0.0195
2321.00,0.0195
2320.00,0.0195
2319.00,0.0194
2318.00,0.0194
2317.00,0.0194
2316.00,0.0194
2315.00,0.0194
2314.00,0.0194
2313.00,0.0193
2312.00,0.0193
2311.00,0.0193
2310.00,0.0195
2309.00,0.0196
2308.00,0.0196
2307.00,0.0196
2306.00,0.0196
2305.00,0.0195
2304.00,0.0194
2303.00,0.0192
2302.00,0.0191
2301.00,0.0191
2300.00,0.0192
2299.00,0.0193
2298.00,0.0193
2297.00,0.0193
2296.00,0.0193
2295.00,0.0193
2294.00,0.0194
2293.00,0.0196
2292.00,0.0199
2291.00,0.0200
2290.00,0.0200
2289.00,0.0199
2288.00,0.0199
2287.00,0.0200
2286.00,0.0201
2285.00,0.0202
2284.00,0.0203
2283.00,0.0203
2282.00,0.0203
2281.00,0.0203
2280.00,0.0202
2279.00,0.0201
2278.00,0.0201
2277.00,0.0201
2276.00,0.0200
2275.00,0.0199
2274.00,0.0198
2273.00,0.0197
2272.00,0.0197
2271.00,0.0197
2270.00,0.0197
2269.00,0.0197
2268.00,0.0198
2267.00,0.0198
2266.00,0.0198
2265.00,0.0199
2264.00,0.0199
2263.00,0.0199
2262.00,0.0200
2261.00,0.0200
2260.00,0.0201
2259.00,0.0201
2258.00,0.0199
2257.00,0.0196
2256.00,0.0194
2255.00,0.0193
2254.00,0.0193
2253.00,0.0193
2252.00,0.0194
2251.00,0.0194
2250.00,0.0195
2249.00,0.0194
2248.00,0.0194
2247.00,0.0195
2246.00,0.0197
2245.00,0.0199
2244.00,0.0200
2243.00,0.0200
2242.00,0.0199
2241.00,0.0198
2240.00,0.0198
2239.00,0.0197
2238.00,0.0197
2237.00,0.0197
2236.00,0.0197
2235.00,0.0197
2234.00,0.0198
2233.00,0.0198
2232.00,0.0198
2231.00,0.0197
2230.00,0.0196
2229.00,0.0196
2228.00,0.0197
2227.00,0.0197
2226.00,0.0198
2225.00,0.0197
2224.00,0.0197
2223.00,0.0196
2222.00,0.0195
2221.00,0.0195
2220.00,0.0195
2219.00,0.0195
2218.00,0.0196
2217.00,0.0196
2216.00,0.0196
2215.00,0.0197
2214.00,0.0197
2213.00,0.0197
2212.00,0.0195
2211.00,0.0193
2210.00,0.0192
2209.00,0.0192
2208.00,0.0192
2207.00,0.0193
2206.00,0.0193
2205.00,0.0193
2204.00,0.0192
2203.00,0.0191
2202.00,0.0191
2201.00,0.0191
2200.00,0.0190
2199.00,0.0190
2198.00,0.0191
2197.00,0.0192
2196.00,0.0193
2195.00,0.0192
2194.00,0.0190
2193.00,0.0189
2192.00,0.0187
2191.00,0.0185
2190.00,0.0183
2189.00,0.0183
2188.00,0.0184
2187.00,0.0188
2186.00,0.0192
2185.00,0.0194
2184.00,0.0192
2183.00,0.0190
2182.00,0.0187
2181.00,0.0187
2180.00,0.0187
2179.00,0.0187
2178.00,0.0188
2177.00,0.0188
2176.00,0.0188
2175.00,0.0187
2174.00,0.0186
2173.00,0.0187
2172.00,0.0188
2171.00,0.0190
2170.00,0.0193
2169.00,0.0196
2168.00,0.0197
2167.00,0.0197
2166.00,0.0197
2165.00,0.0198
2164.00,0.0201
2163.00,0.0203
2162.00,0.0202
2161.00,0.0197
2160.00,0.0187
2159.00,0.0177
2158.00,0.0171
2157.00,0.0170
2156.00,0.0172
2155.00,0.0174
2154.00,0.0176
2153.00,0.0179
2152.00,0.0179
2151.00,0.0177
2150.00,0.0173
2149.00,0.0171
2148.00,0.0172
2147.00,0.0174
2146.00,0.0177
2145.00,0.0179
2144.00,0.0180
2143.00,0.0180
2142.00,0.0181
2141.00,0.0182
2140.00,0.0181
2139.00,0.0179
2138.00,0.0177
2137.00,0.0174
2136.00,0.0172
2135.00,0.0170
2134.00,0.0169
2133.00,0.0169
2132.00,0.0169
2131.00,0.0170
2130.00,0.0172
2129.00,0.0174
2128.00,0.0176
2127.00,0.0177
2126.00,0.0176
2125.00,0.0175
2124.00,0.0174
2123.00,0.0173
2122.00,0.0173
2121.00,0.0173
2120.00,0.0174
2119.00,0.0174
2118.00,0.0174
2117.00,0.0174
2116.00,0.0173
2115.00,0.0172
2114.00,0.0170
2113.00,0.0170
2112.00,0.0170
2111.00,0.0172
2110.00,0.0174
2109.00,0.0175
2108.00,0.0176
2107.00,0.0177
2106.00,0.0177
2105.00,0.0177
2104.00,0.0176
2103.00,0.0175
2102.00,0.0174
2101.00,0.0173
2100.00,0.0171
2099.00,0.0169
2098.00,0.0167
2097.00,0.0167
2096.00,0.0166
2095.00,0.0167
2094.00,0.0167
2093.00,0.0169
2092.00,0.0169
2091.00,0.0169
2090.00,0.0168
2089.00,0.0168
2088.00,0.0168
2087.00,0.0168
2086.00,0.0169
2085.00,0.0170
2084.00,0.0171
2083.00,0.0171
2082.00,0.0171
2081.00,0.0172
2080.00,0.0172
2079.00,0.0172
2078.00,0.0172
2077.00,0.0172
2076.00,0.0172
2075.00,0.0172
2074.00,0.0171
2073.00,0.0171
2072.00,0.0172
2071.00,0.0173
2070.00,0.0173
2069.00,0.0171
2068.00,0.0169
2067.00,0.0167
2066.00,0.0167
2065.00,0.0168
2064.00,0.0170
2063.00,0.0170
2062.00,0.0170
2061.00,0.0170
2060.00,0.0168
2059.00,0.0166
2058.00,0.0166
2057.00,0.0167
2056.00,0.0168
2055.00,0.0168
2054.00,0.0169
2053.00,0.0171
2052.00,0.0172
2051.00,0.0173
2050.00,0.0171
2049.00,0.0169
2048.00,0.0168
2047.00,0.0168
2046.00,0.0170
2045.00,0.0172
2044.00,0.0174
2043.00,0.0174
2042.00,0.0172
2041.00,0.0169
2040.00,0.0167
2039.00,0.0167
2038.00,0.0168
2037.00,0.0171
2036.00,0.0172
2035.00,0.0171
2034.00,0.0169
2033.00,0.0169
2032.00,0.0172
2031.00,0.0174
2030.00,0.0174
2029.00,0.0171
2028.00,0.0167
2027.00,0.0165
2026.00,0.0162
2025.00,0.0160
2024.00,0.0157
2023.00,0.0155
2022.00,0.0155
2021.00,0.0154
2020.00,0.0154
2019.00,0.0152
2018.00,0.0150
2017.00,0.0150
2016.00,0.0150
2015.00,0.0152
2014.00,0.0154
2013.00,0.0156
2012.00,0.0156
2011.00,0.0157
2010.00,0.0157
2009.00,0.0157
2008.00,0.0156
2007.00,0.0155
2006.00,0.0154
2005.00,0.0152
2004.00,0.0152
2003.00,0.0154
2002.00,0.0158
2001.00,0.0162
2000.00,0.0163
1999.00,0.0160
1998.00,0.0157
1997.00,0.0156
1996.00,0.0158
1995.00,0.0161
1994.00,0.0164
1993.00,0.0165
1992.00,0.0164
1991.00,0.0162
1990.00,0.0160
1989.00,0.0158
1988.00,0.0157
1987.00,0.0156
1986.00,0.0156
1985.00,0.0157
1984.00,0.0158
1983.00,0.0159
1982.00,0.0159
1981.00,0.0158
1980.00,0.0155
1979.00,0.0150
1978.00,0.0145
1977.00,0.0141
1976.00,0.0141
1975.00,0.0144
1974.00,0.0147
1973.00,0.0148
1972.00,0.0146
1971.00,0.0145
1970.00,0.0146
1969.00,0.0149
1968.00,0.0150
1967.00,0.0149
1966.00,0.0145
1965.00,0.0143
1964.00,0.0142
1963.00,0.0143
1962.00,0.0143
1961.00,0.0143
1960.00,0.0143
1959.00,0.0145
1958.00,0.0145
1957.00,0.0145
1956.00,0.0143
1955.00,0.0141
1954.00,0.0141
1953.00,0.0142
1952.00,0.0142
1951.00,0.0142
1950.00,0.0141
1949.00,0.0140
1948.00,0.0140
1947.00,0.0140
1946.00,0.0140
1945.00,0.0139
1944.00,0.0136
1943.00,0.0133
1942.00,0.0131
1941.00,0.0131
1940.00,0.0130
1939.00,0.0130
1938.00,0.0130
1937.00,0.0131
1936.00,0.0131
1935.00,0.0130
1934.00,0.0128
1933.00,0.0128
1932.00,0.0128
1931.00,0.0130
1930.00,0.0132
1929.00,0.0134
1928.00,0.0135
1927.00,0.0136
1926.00,0.0137
1925.00,0.0137
1924.00,0.0136
1923.00,0.0135
1922.00,0.0134
1921.00,0.0134
1920.00,0.0133
1919.00,0.0131
1918.00,0.0128
1917.00,0.0126
1916.00,0.0127
1915.00,0.0128
1914.00,0.0129
1913.00,0.0129
1912.00,0.0130
1911.00,0.0130
1910.00,0.0128
1909.00,0.0127
1908.00,0.0125
1907.00,0.0125
1906.00,0.0125
1905.00,0.0126
1904.00,0.0127
1903.00,0.0127
1902.00,0.0126
1901.00,0.0125
1900.00,0.0124
1899.00,0.0125
1898.00,0.0126
1897.00,0.0125
1896.00,0.0124
1895.00,0.0122
1894.00,0.0122
1893.00,0.0123
1892.00,0.0125
1891.00,0.0125
1890.00,0.0123
1889.00,0.0122
1888.00,0.0120
1887.00,0.0119
1886.00,0.0119
1885.00,0.0120
1884.00,0.0120
1883.00,0.0119
1882.00,0.0118
1881.00,0.0117
1880.00,0.0117
1879.00,0.0116
1878.00,0.0115
1877.00,0.0115
1876.00,0.0115
1875.00,0.0115
1874.00,0.0117
1873.00,0.0119
1872.00,0.0122
1871.00,0.0123
1870.00,0.0122
1869.00,0.0119
1868.00,0.0116
1867.00,0.0114
1866.00,0.0113
1865.00,0.0113
1864.00,0.0113
1863.00,0.0112
1862.00,0.0111
1861.00,0.0110
1860.00,0.0110
1859.00,0.0110
1858.00,0.0110
1857.00,0.0110
1856.00,0.0110
1855.00,0.0110
1854.00,0.0109
1853.00,0.0109
1852.00,0.0108
1851.00,0.0109
1850.00,0.0109
1849.00,0.0110
1848.00,0.0110
1847.00,0.0111
1846.00,0.0111
1845.00,0.0109
1844.00,0.0105
1843.00,0.0103
1842.00,0.0103
1841.00,0.0105
1840.00,0.0106
1839.00,0.0106
1838.00,0.0105
1837.00,0.0104
1836.00,0.0104
1835.00,0.0104
1834.00,0.0104
1833.00,0.0107
1832.00,0.0109
1831.00,0.0109
1830.00,0.0107
1829.00,0.0104
1828.00,0.0104
1827.00,0.0104
1826.00,0.0103
1825.00,0.0101
1824.00,0.0099
1823.00,0.0098
1822.00,0.0099
1821.00,0.0099
1820.00,0.0099
1819.00,0.0097
1818.00,0.0096
1817.00,0.0095
1816.00,0.0094
1815.00,0.0095
1814.00,0.0096
1813.00,0.0097
1812.00,0.0097
1811.00,0.0096
1810.00,0.0095
1809.00,0.0095
1808.00,0.0095
1807.00,0.0095
1806.00,0.0096
1805.00,0.0097
1804.00,0.0098
1803.00,0.0099
1802.00,0.0099
1801.00,0.0098
1800.00,0.0097
1799.00,0.0096
1798.00,0.0096
1797.00,0.0098
1796.00,0.0100
1795.00,0.0102
1794.00,0.0102
1793.00,0.0100
1792.00,0.0098
1791.00,0.0096
1790.00,0.0095
1789.00,0.0097
1788.00,0.0099
1787.00,0.0100
1786.00,0.0101
1785.00,0.0102
1784.00,0.0103
1783.00,0.0106
1782.00,0.0107
1781.00,0.0107
1780.00,0.0107
1779.00,0.0107
1778.00,0.0109
1777.00,0.0112
1776.00,0.0116
1775.00,0.0119
1774.00,0.0121
1773.00,0.0120
1772.00,0.0116
1771.00,0.0115
1770.00,0.0115
1769.00,0.0116
1768.00,0.0116
1767.00,0.0117
1766.00,0.0120
1765.00,0.0123
1764.00,0.0127
1763.00,0.0127
1762.00,0.0126
1761.00,0.0125
1760.00,0.0127
1759.00,0.0129
1758.00,0.0130
1757.00,0.0130
1756.00,0.0130
1755.00,0.0133
1754.00,0.0137
1753.00,0.0139
1752.00,0.0139
1751.00,0.0140
1750.00,0.0141
1749.00,0.0144
1748.00,0.0145
1747.00,0.0147
1746.00,0.0148
1745.00,0.0150
1744.00,0.0152
1743.00,0.0154
1742.00,0.0156
1741.00,0.0157
1740.00,0.0158
1739.00,0.0158
1738.00,0.0160
1737.00,0.0165
1736.00,0.0168
1735.00,0.0168
1734.00,0.0166
1733.00,0.0167
1732.00,0.0171
1731.00,0.0175
1730.00,0.0178
1729.00,0.0179
1728.00,0.0181
1727.00,0.0184
1726.00,0.0186
1725.00,0.0189
1724.00,0.0192
1723.00,0.0194
1722.00,0.0198
1721.00,0.0202
1720.00,0.0206
1719.00,0.0207
1718.00,0.0206
1717.00,0.0207
1716.00,0.0208
1715.00,0.0210
1714.00,0.0211
1713.00,0.0214
1712.00,0.0216
1711.00,0.0218
1710.00,0.0220
1709.00,0.0222
1708.00,0.0226
1707.00,0.0228
1706.00,0.0228
1705.00,0.0229
1704.00,0.0231
1703.00,0.0234
1702.00,0.0235
1701.00,0.0233
1700.00,0.0231
1699.00,0.0232
1698.00,0.0236
1697.00,0.0238
1696.00,0.0236
1695.00,0.0234
1694.00,0.0235
1693.00,0.0238
1692.00,0.0242
1691.00,0.0244
1690.00,0.0246
1689.00,0.0248
1688.00,0.0251
1687.00,0.0255
1686.00,0.0257
1685.00,0.0255
1684.00,0.0254
1683.00,0.0255
1682.00,0.0256
1681.00,0.0258
1680.00,0.0260
1679.00,0.0262
1678.00,0.0265
1677.00,0.0268
1676.00,0.0270
1675.00,0.0272
1674.00,0.0274
1673.00,0.0278
1672.00,0.0281
1671.00,0.0284
1670.00,0.0285
1669.00,0.0286
1668.00,0.0287
1667.00,0.0288
1666.00,0.0290
1665.00,0.0293
1664.00,0.0295
1663.00,0.0297
1662.00,0.0299
1661.00,0.0301
1660.00,0.0303
1659.00,0.0307
1658.00,0.0310
1657.00,0.0313
1656.00,0.0317
1655.00,0.0320
1654.00,0.0319
1653.00,0.0321
1652.00,0.0323
1651.00,0.0325
1650.00,0.0330
1649.00,0.0334
1648.00,0.0336
1647.00,0.0338
1646.00,0.0339
1645.00,0.0341
1644.00,0.0342
1643.00,0.0344
1642.00,0.0346
1641.00,0.0348
1640.00,0.0351
1639.00,0.0354
1638.00,0.0358
1637.00,0.0361
1636.00,0.0365
1635.00,0.0368
1634.00,0.0369
1633.00,0.0368
1632.00,0.0368
1631.00,0.0370
1630.00,0.0372
1629.00,0.0375
1628.00,0.0379
1627.00,0.0382
1626.00,0.0385
1625.00,0.0388
1624.00,0.0392
1623.00,0.0394
1622.00,0.0396
1621.00,0.0397
1620.00,0.0398
1619.00,0.0400
1618.00,0.0402
1617.00,0.0404
1616.00,0.0408
1615.00,0.0410
1614.00,0.0412
1613.00,0.0413
1612.00,0.0415
1611.00,0.0417
1610.00,0.0420
1609.00,0.0422
1608.00,0.0424
1607.00,0.0427
1606.00,0.0429
1605.00,0.0432
1604.00,0.0434
1603.00,0.0436
1602.00,0.0437
1601.00,0.0437
1600.00,0.0438
1599.00,0.0440
1598.00,0.0442
1597.00,0.0446
1596.00,0.0449
1595.00,0.0452
1594.00,0.0454
1593.00,0.0456
1592.00,0.0457
1591.00,0.0458
1590.00,0.0459
1589.00,0.0461
1588.00,0.0464
1587.00,0.0466
1586.00,0.0468
1585.00,0.0469
1584.00,0.0470
1583.00,0.0472
1582.00,0.0474
1581.00,0.0475
1580.00,0.0476
1579.00,0.0478
1578.00,0.0480
1577.00,0.0483
1576.00,0.0487
1575.00,0.0488
1574.00,0.0487
1573.00,0.0486
1572.00,0.0485
1571.00,0.0486
1570.00,0.0489
1569.00,0.0491
1568.00,0.0491
1567.00,0.0490
1566.00,0.0490
1565.00,0.0488
1564.00,0.0486
1563.00,0.0484
1562.00,0.0482
1561.00,0.0481
1560.00,0.0484
1559.00,0.0495
1558.00,0.0499
1557.00,0.0492
1556.00,0.0486
1555.00,0.0483
1554.00,0.0480
1553.00,0.0479
1552.00,0.0477
1551.00,0.0476
1550.00,0.0474
1549.00,0.0471
1548.00,0.0467
1547.00,0.0465
1546.00,0.0463
1545.00,0.0462
1544.00,0.0463
1543.00,0.0462
1542.00,0.0462
1541.00,0.0462
1540.00,0.0463
1539.00,0.0461
1538.00,0.0455
1537.00,0.0449
1536.00,0.0445
1535.00,0.0442
1534.00,0.0440
1533.00,0.0438
1532.00,0.0435
1531.00,0.0431
1530.00,0.0428
1529.00,0.0426
1528.00,0.0423
1527.00,0.0421
1526.00,0.0417
1525.00,0.0415
1524.00,0.0413
1523.00,0.0410
1522.00,0.0408
1521.00,0.0408
1520.00,0.0408
1519.00,0.0407
1518.00,0.0405
1517.00,0.0401
1516.00,0.0398
1515.00,0.0394
1514.00,0.0390
1513.00,0.0387
1512.00,0.0386
1511.00,0.0385
1510.00,0.0385
1509.00,0.0386
1508.00,0.0387
1507.00,0.0387
1506.00,0.0383
1505.00,0.0378
1504.00,0.0374
1503.00,0.0372
1502.00,0.0370
1501.00,0.0368
1500.00,0.0367
1499.00,0.0367
1498.00,0.0366
1497.00,0.0365
1496.00,0.0364
1495.00,0.0363
1494.00,0.0361
1493.00,0.0360
1492.00,0.0361
1491.00,0.0361
1490.00,0.0363
1489.00,0.0364
1488.00,0.0363
1487.00,0.0360
1486.00,0.0358
1485.00,0.0355
1484.00,0.0354
1483.00,0.0353
1482.00,0.0352
1481.00,0.0352
1480.00,0.0352
1479.00,0.0351
1478.00,0.0351
1477.00,0.0352
1476.00,0.0353
1475.00,0.0353
1474.00,0.0353
1473.00,0.0354
1472.00,0.0355
1471.00,0.0355
1470.00,0.0355
1469.00,0.0355
1468.00,0.0355
1467.00,0.0356
1466.00,0.0355
1465.00,0.0355
1464.00,0.0356
1463.00,0.0356
1462.00,0.0356
1461.00,0.0356
1460.00,0.0357
1459.00,0.0358
1458.00,0.0358
1457.00,0.0359
1456.00,0.0361
1455.00,0.0361
1454.00,0.0361
1453.00,0.0362
1452.00,0.0363
1451.00,0.0364
1450.00,0.0366
1449.00,0.0368
1448.00,0.0370
1447.00,0.0372
1446.00,0.0372
1445.00,0.0372
1444.00,0.0372
1443.00,0.0372
1442.00,0.0372
1441.00,0.0373
1440.00,0.0374
1439.00,0.0375
1438.00,0.0376
1437.00,0.0378
1436.00,0.0382
1435.00,0.0384
1434.00,0.0384
1433.00,0.0385
1432.00,0.0386
1431.00,0.0388
1430.00,0.0389
1429.00,0.0389
1428.00,0.0389
1427.00,0.0390
1426.00,0.0391
1425.00,0.0392
1424.00,0.0395
1423.00,0.0396
1422.00,0.0395
1421.00,0.0395
1420.00,0.0396
1419.00,0.0400
1418.00,0.0403
1417.00,0.0405
1416.00,0.0406
1415.00,0.0406
1414.00,0.0405
1413.00,0.0404
1412.00,0.0405
1411.00,0.0406
1410.00,0.0406
1409.00,0.0407
1408.00,0.0409
1407.00,0.0410
1406.00,0.0412
1405.00,0.0413
1404.00,0.0413
1403.00,0.0413
1402.00,0.0413
1401.00,0.0413
1400.00,0.0414
1399.00,0.0416
1398.00,0.0418
1397.00,0.0419
1396.00,0.0420
1395.00,0.0422
1394.00,0.0423
1393.00,0.0423
1392.00,0.0423
1391.00,0.0422
1390.00,0.0422
1389.00,0.0422
1388.00,0.0424
1387.00,0.0426
1386.00,0.0427
1385.00,0.0427
1384.00,0.0427
1383.00,0.0428
1382.00,0.0429
1381.00,0.0430
1380.00,0.0431
1379.00,0.0432
1378.00,0.0433
1377.00,0.0435
1376.00,0.0436
1375.00,0.0438
1374.00,0.0439
1373.00,0.0439
1372.00,0.0439
1371.00,0.0438
1370.00,0.0438
1369.00,0.0439
1368.00,0.0439
1367.00,0.0439
1366.00,0.0438
1365.00,0.0437
1364.00,0.0437
1363.00,0.0437
1362.00,0.0438
1361.00,0.0439
1360.00,0.0438
1359.00,0.0437
1358.00,0.0436
1357.00,0.0436
1356.00,0.0436
1355.00,0.0436
1354.00,0.0436
1353.00,0.0435
1352.00,0.0433
1351.00,0.0432
1350.00,0.0430
1349.00,0.0430
1348.00,0.0429
1347.00,0.0429
1346.00,0.0428
1345.00,0.0427
1344.00,0.0425
1343.00,0.0424
1342.00,0.0424
1341.00,0.0424
1340.00,0.0425
1339.00,0.0426
1338.00,0.0426
1337.00,0.0425
1336.00,0.0423
1335.00,0.0422
1334.00,0.0421
1333.00,0.0420
1332.00,0.0419
1331.00,0.0419
1330.00,0.0418
1329.00,0.0418
1328.00,0.0417
1327.00,0.0416
1326.00,0.0416
1325.00,0.0415
1324.00,0.0415
1323.00,0.0415
1322.00,0.0416
1321.00,0.0417
1320.00,0.0417
1319.00,0.0416
1318.00,0.0415
1317.00,0.0413
1316.00,0.0411
1315.00,0.0410
1314.00,0.0410
1313.00,0.0411
1312.00,0.0412
1311.00,0.0413
1310.00,0.0412
1309.00,0.0412
1308.00,0.0411
1307.00,0.0410
1306.00,0.0410
1305.00,0.0409
1304.00,0.0409
1303.00,0.0410
1302.00,0.0410
1301.00,0.0409
1300.00,0.0408
1299.00,0.0408
1298.00,0.0407
1297.00,0.0406
1296.00,0.0405
1295.00,0.0405
1294.00,0.0405
1293.00,0.0405
1292.00,0.0406
1291.00,0.0406
1290.00,0.0407
1289.00,0.0407
1288.00,0.0406
1287.00,0.0406
1286.00,0.0405
1285.00,0.0405
1284.00,0.0406
1283.00,0.0407
1282.00,0.0407
1281.00,0.0406
1280.00,0.0405
1279.00,0.0405
1278.00,0.0404
1277.00,0.0404
1276.00,0.0404
1275.00,0.0404
1274.00,0.0403
1273.00,0.0403
1272.00,0.0403
1271.00,0.0403
1270.00,0.0403
1269.00,0.0404
1268.00,0.0404
1267.00,0.0404
1266.00,0.0404
1265.00,0.0404
1264.00,0.0404
1263.00,0.0403
1262.00,0.0403
1261.00,0.0404
1260.00,0.0405
1259.00,0.0406
1258.00,0.0406
1257.00,0.0406
1256.00,0.0405
1255.00,0.0404
1254.00,0.0403
1253.00,0.0404
1252.00,0.0405
1251.00,0.0405
1250.00,0.0405
1249.00,0.0404
1248.00,0.0404
1247.00,0.0405
1246.00,0.0406
1245.00,0.0407
1244.00,0.0407
1243.00,0.0408
1242.00,0.0407
1241.00,0.0406
1240.00,0.0406
1239.00,0.0407
1238.00,0.0407
1237.00,0.0408
1236.00,0.0408
1235.00,0.0408
1234.00,0.0408
1233.00,0.0408
1232.00,0.0408
1231.00,0.0408
1230.00,0.0407
1229.00,0.0407
1228.00,0.0407
1227.00,0.0407
1226.00,0.0407
1225.00,0.0407
1224.00,0.0406
1223.00,0.0406
1222.00,0.0406
1221.00,0.0407
1220.00,0.0408
1219.00,0.0408
1218.00,0.0408
1217.00,0.0407
1216.00,0.0407
1215.00,0.0407
1214.00,0.0407
1213.00,0.0406
1212.00,0.0407
1211.00,0.0408
1210.00,0.0408
1209.00,0.0409
1208.00,0.0409
1207.00,0.0409
1206.00,0.0408
1205.00,0.0408
1204.00,0.0407
1203.00,0.0408
1202.00,0.0407
1201.00,0.0407
1200.00,0.0407
1199.00,0.0407
1198.00,0.0407
1197.00,0.0407
1196.00,0.0406
1195.00,0.0405
1194.00,0.0405
1193.00,0.0405
1192.00,0.0404
1191.00,0.0404
1190.00,0.0403
1189.00,0.0402
1188.00,0.0401
1187.00,0.0401
1186.00,0.0401
1185.00,0.0401
1184.00,0.0401
1183.00,0.0401
1182.00,0.0400
1181.00,0.0398
1180.00,0.0397
1179.00,0.0397
1178.00,0.0397
1177.00,0.0397
1176.00,0.0398
1175.00,0.0398
1174.00,0.0399
1173.00,0.0400
1172.00,0.0400
1171.00,0.0400
1170.00,0.0399
1169.00,0.0399
1168.00,0.0399
1167.00,0.0399
1166.00,0.0400
1165.00,0.0400
1164.00,0.0400
1163.00,0.0400
1162.00,0.0400
1161.00,0.0399
1160.00,0.0399
1159.00,0.0398
1158.00,0.0398
1157.00,0.0397
1156.00,0.0397
1155.00,0.0398
1154.00,0.0398
1153.00,0.0397
1152.00,0.0396
1151.00,0.0395
1150.00,0.0394
1149.00,0.0393
1148.00,0.0392
1147.00,0.0392
1146.00,0.0392
1145.00,0.0392
1144.00,0.0393
1143.00,0.0394
1142.00,0.0395
1141.00,0.0396
1140.00,0.0396
1139.00,0.0395
1138.00,0.0394
1137.00,0.0394
1136.00,0.0395
1135.00,0.0397
1134.00,0.0399
1133.00,0.0400
1132.00,0.0400
1131.00,0.0401
1130.00,0.0401
1129.00,0.0403
1128.00,0.0404
1127.00,0.0405
1126.00,0.0404
1125.00,0.0403
1124.00,0.0404
1123.00,0.0407
1122.00,0.0411
1121.00,0.0415
1120.00,0.0418
1119.00,0.0419
1118.00,0.0420
1117.00,0.0421
1116.00,0.0423
1115.00,0.0424
1114.00,0.0425
1113.00,0.0425
1112.00,0.0425
1111.00,0.0425
1110.00,0.0426
1109.00,0.0427
1108.00,0.0429
1107.00,0.0429
1106.00,0.0429
1105.00,0.0428
1104.00,0.0428
1103.00,0.0429
1102.00,0.0431
1101.00,0.0432
1100.00,0.0434
1099.00,0.0434
1098.00,0.0434
1097.00,0.0434
1096.00,0.0433
1095.00,0.0433
1094.00,0.0433
1093.00,0.0435
1092.00,0.0437
1091.00,0.0437
1090.00,0.0436
1089.00,0.0433
1088.00,0.0432
1087.00,0.0431
1086.00,0.0432
1085.00,0.0434
1084.00,0.0436
1083.00,0.0438
1082.00,0.0440
1081.00,0.0442
1080.00,0.0443
1079.00,0.0445
1078.00,0.0447
1077.00,0.0449
1076.00,0.0448
1075.00,0.0446
1074.00,0.0443
1073.00,0.0443
1072.00,0.0444
1071.00,0.0445
1070.00,0.0445
1069.00,0.0444
1068.00,0.0444
1067.00,0.0445
1066.00,0.0447
1065.00,0.0450
1064.00,0.0454
1063.00,0.0457
1062.00,0.0457
1061.00,0.0456
1060.00,0.0454
1059.00,0.0453
1058.00,0.0455
1057.00,0.0457
1056.00,0.0459
1055.00,0.0461
1054.00,0.0462
1053.00,0.0463
1052.00,0.0464
1051.00,0.0465
1050.00,0.0465
1049.00,0.0467
1048.00,0.0469
1047.00,0.0470
1046.00,0.0470
1045.00,0.0470
1044.00,0.0470
1043.00,0.0470
1042.00,0.0469
1041.00,0.0468
1040.00,0.0467
1039.00,0.0468
1038.00,0.0470
1037.00,0.0472
1036.00,0.0472
1035.00,0.0472
1034.00,0.0471
1033.00,0.0471
1032.00,0.0471
1031.00,0.0470
1030.00,0.0468
1029.00,0.0466
1028.00,0.0464
1027.00,0.0462
1026.00,0.0461
1025.00,0.0461
1024.00,0.0460
1023.00,0.0459
1022.00,0.0456
1021.00,0.0454
1020.00,0.0452
1019.00,0.0450
1018.00,0.0449
1017.00,0.0449
1016.00,0.0449
1015.00,0.0450
1014.00,0.0449
1013.00,0.0449
1012.00,0.0447
1011.00,0.0446
1010.00,0.0445
1009.00,0.0444
1008.00,0.0443
1007.00,0.0441
1006.00,0.0440
1005.00,0.0439
1004.00,0.0439
1003.00,0.0438
1002.00,0.0436
1001.00,0.0434
1000.00,0.0430
999.00,0.0426
998.00,0.0423
997.00,0.0421
996.00,0.0420
995.00,0.0419
994.00,0.0417
993.00,0.0414
992.00,0.0410
991.00,0.0407
990.00,0.0405
989.00,0.0403
988.00,0.0402
987.00,0.0402
986.00,0.0401
985.00,0.0401
984.00,0.0398
983.00,0.0395
982.00,0.0392
981.00,0.0389
980.00,0.0388
979.00,0.0387
978.00,0.0384
977.00,0.0381
976.00,0.0377
975.00,0.0374
974.00,0.0373
973.00,0.0372
972.00,0.0371
971.00,0.0370
970.00,0.0367
969.00,0.0364
968.00,0.0362
967.00,0.0360
966.00,0.0358
965.00,0.0356
964.00,0.0355
963.00,0.0355
962.00,0.0354
961.00,0.0354
960.00,0.0352
959.00,0.0350
958.00,0.0348
957.00,0.0347
956.00,0.0347
955.00,0.0346
954.00,0.0344
953.00,0.0343
952.00,0.0342
951.00,0.0342
950.00,0.0343
949.00,0.0344
948.00,0.0344
947.00,0.0343
946.00,0.0342
945.00,0.0341
944.00,0.0340
943.00,0.0340
942.00,0.0339
941.00,0.0339
940.00,0.0340
939.00,0.0342
938.00,0.0343
937.00,0.0343
936.00,0.0341
935.00,0.0339
934.00,0.0339
933.00,0.0340
932.00,0.0343
931.00,0.0345
930.00,0.0346
929.00,0.0346
928.00,0.0347
927.00,0.0348
926.00,0.0348
925.00,0.0348
924.00,0.0349
923.00,0.0349
922.00,0.0349
921.00,0.0349
920.00,0.0350
919.00,0.0351
918.00,0.0352
917.00,0.0353
916.00,0.0355
915.00,0.0357
914.00,0.0358
913.00,0.0358
912.00,0.0357
911.00,0.0356
910.00,0.0354
909.00,0.0350
908.00,0.0347
907.00,0.0345
906.00,0.0347
905.00,0.0350
904.00,0.0354
903.00,0.0358
902.00,0.0359
901.00,0.0358
900.00,0.0356
899.00,0.0355
898.00,0.0356
897.00,0.0357
896.00,0.0358
895.00,0.0357
894.00,0.0355
893.00,0.0353
892.00,0.0351
891.00,0.0350
890.00,0.0350
889.00,0.0351
888.00,0.0351
887.00,0.0350
886.00,0.0347
885.00,0.0346
884.00,0.0346
883.00,0.0348
882.00,0.0350
881.00,0.0350
880.00,0.0350
879.00,0.0348
878.00,0.0346
877.00,0.0344
876.00,0.0342
875.00,0.0342
874.00,0.0342
873.00,0.0342
872.00,0.0342
871.00,0.0342
870.00,0.0342
869.00,0.0342
868.00,0.0341
867.00,0.0340
866.00,0.0341
865.00,0.0342
864.00,0.0344
863.00,0.0346
862.00,0.0347
861.00,0.0347
860.00,0.0347
859.00,0.0346
858.00,0.0345
857.00,0.0343
856.00,0.0343
855.00,0.0345
854.00,0.0347
853.00,0.0349
852.00,0.0350
851.00,0.0351
850.00,0.0352
849.00,0.0354
848.00,0.0356
847.00,0.0359
846.00,0.0362
845.00,0.0364
844.00,0.0365
843.00,0.0365
842.00,0.0363
841.00,0.0362
840.00,0.0362
839.00,0.0362
838.00,0.0362
837.00,0.0364
836.00,0.0365
835.00,0.0365
834.00,0.0365
833.00,0.0364
832.00,0.0364
831.00,0.0365
830.00,0.0366
829.00,0.0367
828.00,0.0369
827.00,0.0371
826.00,0.0375
825.00,0.0378
824.00,0.0381
823.00,0.0384
822.00,0.0386
821.00,0.0387
820.00,0.0388
819.00,0.0390
818.00,0.0390
817.00,0.0388
816.00,0.0386
815.00,0.0385
814.00,0.0387
813.00,0.0391
812.00,0.0394
811.00,0.0396
810.00,0.0397
809.00,0.0398
808.00,0.0399
807.00,0.0400
806.00,0.0400
805.00,0.0400
804.00,0.0401
803.00,0.0403
802.00,0.0406
801.00,0.0411
800.00,0.0415
799.00,0.0419
798.00,0.0419
797.00,0.0418
796.00,0.0416
795.00,0.0415
794.00,0.0415
793.00,0.0415
792.00,0.0417
791.00,0.0419
790.00,0.0422
789.00,0.0424
788.00,0.0424
787.00,0.0424
786.00,0.0425
785.00,0.0427
784.00,0.0430
783.00,0.0432
782.00,0.0433
781.00,0.0432
780.00,0.0431
779.00,0.0431
778.00,0.0432
777.00,0.0435
776.00,0.0437
775.00,0.0438
774.00,0.0437
773.00,0.0435
772.00,0.0434
771.00,0.0434
770.00,0.0435
769.00,0.0437
768.00,0.0438
767.00,0.0438
766.00,0.0437
765.00,0.0436
764.00,0.0435
763.00,0.0435
762.00,0.0435
761.00,0.0434
760.00,0.0435
759.00,0.0437
758.00,0.0441
757.00,0.0444
756.00,0.0447
755.00,0.0448
754.00,0.0447
753.00,0.0447
752.00,0.0447
751.00,0.0448
750.00,0.0450
749.00,0.0452
748.00,0.0454
747.00,0.0454
746.00,0.0454
745.00,0.0453
744.00,0.0453
743.00,0.0452
742.00,0.0453
741.00,0.0452
740.00,0.0450
739.00,0.0447
738.00,0.0445
737.00,0.0445
736.00,0.0445
735.00,0.0446
734.00,0.0446
733.00,0.0446
732.00,0.0447
731.00,0.0450
730.00,0.0454
729.00,0.0459
728.00,0.0463
727.00,0.0466
726.00,0.0467
725.00,0.0467
724.00,0.0465
723.00,0.0464
722.00,0.0464
721.00,0.0465
720.00,0.0467
719.00,0.0468
718.00,0.0469
717.00,0.0469
716.00,0.0468
715.00,0.0466
714.00,0.0465
713.00,0.0466
712.00,0.0469
711.00,0.0472
710.00,0.0475
709.00,0.0476
708.00,0.0477
707.00,0.0478
706.00,0.0480
705.00,0.0483
704.00,0.0488
703.00,0.0491
702.00,0.0492
701.00,0.0490
700.00,0.0490
699.00,0.0491
698.00,0.0493
697.00,0.0494
696.00,0.0493
695.00,0.0494
694.00,0.0496
693.00,0.0498
692.00,0.0500
691.00,0.0501
690.00,0.0502
689.00,0.0505
688.00,0.0508
687.00,0.0508
686.00,0.0508
685.00,0.0507
684.00,0.0505
683.00,0.0501
682.00,0.0498
681.00,0.0497
680.00,0.0500
679.00,0.0504
678.00,0.0506
677.00,0.0508
676.00,0.0509
675.00,0.0508
674.00,0.0508
673.00,0.0509
672.00,0.0512
671.00,0.0515
670.00,0.0518
669.00,0.0523
668.00,0.0529
667.00,0.0532
666.00,0.0532
665.00,0.0530
664.00,0.0528
663.00,0.0525
662.00,0.0520
661.00,0.0516
660.00,0.0513
659.00,0.0512
658.00,0.0515
657.00,0.0521
656.00,0.0526
655.00,0.0527
654.00,0.0522
653.00,0.0515
652.00,0.0509
651.00,0.0506
650.00,0.0508
