Created as New Dataset,Monday, April 03 2023
cm-1,A
4000.00,0.0135
3999.00,0.0135
3998.00,0.0135
3997.00,0.0135
3996.00,0.0135
3995.00,0.0135
3994.00,0.0134
3993.00,0.0134
3992.00,0.0134
3991.00,0.0134
3990.00,0.0134
3989.00,0.0134
3988.00,0.0134
3987.00,0.0133
3986.00,0.0133
3985.00,0.0133
3984.00,0.0133
3983.00,0.0133
3982.00,0.0133
3981.00,0.0133
3980.00,0.0133
3979.00,0.0133
3978.00,0.0133
3977.00,0.0132
3976.00,0.0132
3975.00,0.0132
3974.00,0.0132
3973.00,0.0132
3972.00,0.0133
3971.00,0.0133
3970.00,0.0134
3969.00,0.0134
3968.00,0.0133
3967.00,0.0132
3966.00,0.0132
3965.00,0.0132
3964.00,0.0132
3963.00,0.0133
3962.00,0.0133
3961.00,0.0133
3960.00,0.0132
3959.00,0.0132
3958.00,0.0131
3957.00,0.0131
3956.00,0.0131
3955.00,0.0131
3954.00,0.0130
3953.00,0.0130
3952.00,0.0131
3951.00,0.0132
3950.00,0.0133
3949.00,0.0133
3948.00,0.0133
3947.00,0.0133
3946.00,0.0133
3945.00,0.0133
3944.00,0.0131
3943.00,0.0130
3942.00,0.0129
3941.00,0.0129
3940.00,0.0129
3939.00,0.0129
3938.00,0.0129
3937.00,0.0129
3936.00,0.0129
3935.00,0.0130
3934.00,0.0129
3933.00,0.0129
3932.00,0.0129
3931.00,0.0129
3930.00,0.0130
3929.00,0.0130
3928.00,0.0131
3927.00,0.0130
3926.00,0.0130
3925.00,0.0129
3924.00,0.0129
3923.00,0.0130
3922.00,0.0130
3921.00,0.0130
3920.00,0.0130
3919.00,0.0130
3918.00,0.0130
3917.00,0.0130
3916.00,0.0129
3915.00,0.0129
3914.00,0.0128
3913.00,0.0127
3912.00,0.0126
3911.00,0.0126
3910.00,0.0126
3909.00,0.0126
3908.00,0.0127
3907.00,0.0128
3906.00,0.0128
3905.00,0.0129
3904.00,0.0129
3903.00,0.0131
3902.00,0.0132
3901.00,0.0133
3900.00,0.0132
3899.00,0.0130
3898.00,0.0128
3897.00,0.0127
3896.00,0.0126
3895.00,0.0126
3894.00,0.0126
3893.00,0.0126
3892.00,0.0125
3891.00,0.0125
3890.00,0.0125
3889.00,0.0126
3888.00,0.0126
3887.00,0.0125
3886.00,0.0123
3885.00,0.0123
3884.00,0.0125
3883.00,0.0127
3882.00,0.0127
3881.00,0.0125
3880.00,0.0123
3879.00,0.0124
3878.00,0.0125
3877.00,0.0127
3876.00,0.0126
3875.00,0.0125
3874.00,0.0124
3873.00,0.0125
3872.00,0.0126
3871.00,0.0126
3870.00,0.0124
3869.00,0.0124
3868.00,0.0125
3867.00,0.0125
3866.00,0.0125
3865.00,0.0123
3864.00,0.0124
3863.00,0.0124
3862.00,0.0125
3861.00,0.0124
3860.00,0.0122
3859.00,0.0121
3858.00,0.0121
3857.00,0.0122
3856.00,0.0122
3855.00,0.0120
3854.00,0.0119
3853.00,0.0120
3852.00,0.0121
3851.00,0.0121
3850.00,0.0120
3849.00,0.0119
3848.00,0.0118
3847.00,0.0118
3846.00,0.0118
3845.00,0.0118
3844.00,0.0118
3843.00,0.0118
3842.00,0.0118
3841.00,0.0119
3840.00,0.0120
3839.00,0.0121
3838.00,0.0121
3837.00,0.0121
3836.00,0.0121
3835.00,0.0122
3834.00,0.0121
3833.00,0.0121
3832.00,0.0119
3831.00,0.0119
3830.00,0.0118
3829.00,0.0118
3828.00,0.0117
3827.00,0.0116
3826.00,0.0116
3825.00,0.0118
3824.00,0.0121
3823.00,0.0122
3822.00,0.0120
3821.00,0.0118
3820.00,0.0117
3819.00,0.0118
3818.00,0.0118
3817.00,0.0117
3816.00,0.0115
3815.00,0.0115
3814.00,0.0116
3813.00,0.0116
3812.00,0.0115
3811.00,0.0114
3810.00,0.0114
3809.00,0.0114
3808.00,0.0113
3807.00,0.0112
3806.00,0.0113
3805.00,0.0116
3804.00,0.0118
3803.00,0.0118
3802.00,0.0116
3801.00,0.0115
3800.00,0.0116
3799.00,0.0117
3798.00,0.0116
3797.00,0.0114
3796.00,0.0113
3795.00,0.0113
3794.00,0.0113
3793.00,0.0113
3792.00,0.0113
3791.00,0.0112
3790.00,0.0112
3789.00,0.0111
3788.00,0.0111
3787.00,0.0111
3786.00,0.0112
3785.00,0.0112
3784.00,0.0113
3783.00,0.0113
3782.00,0.0114
3781.00,0.0113
3780.00,0.0112
3779.00,0.0111
3778.00,0.0111
3777.00,0.0111
3776.00,0.0111
3775.00,0.0110
3774.00,0.0110
3773.00,0.0110
3772.00,0.0110
3771.00,0.0110
3770.00,0.0109
3769.00,0.0109
3768.00,0.0110
3767.00,0.0110
3766.00,0.0109
3765.00,0.0109
3764.00,0.0109
3763.00,0.0110
3762.00,0.0111
3761.00,0.0111
3760.00,0.0110
3759.00,0.0109
3758.00,0.0108
3757.00,0.0108
3756.00,0.0107
3755.00,0.0108
3754.00,0.0108
3753.00,0.0107
3752.00,0.0107
3751.00,0.0108
3750.00,0.0109
3749.00,0.0110
3748.00,0.0113
3747.00,0.0116
3746.00,0.0116
3745.00,0.0113
3744.00,0.0109
3743.00,0.0107
3742.00,0.0107
3741.00,0.0107
3740.00,0.0108
3739.00,0.0110
3738.00,0.0111
3737.00,0.0112
3736.00,0.0112
3735.00,0.0112
3734.00,0.0112
3733.00,0.0110
3732.00,0.0108
3731.00,0.0107
3730.00,0.0106
3729.00,0.0106
3728.00,0.0106
3727.00,0.0106
3726.00,0.0105
3725.00,0.0105
3724.00,0.0105
3723.00,0.0105
3722.00,0.0105
3721.00,0.0105
3720.00,0.0106
3719.00,0.0106
3718.00,0.0105
3717.00,0.0105
3716.00,0.0105
3715.00,0.0106
3714.00,0.0108
3713.00,0.0109
3712.00,0.0110
3711.00,0.0112
3710.00,0.0112
3709.00,0.0111
3708.00,0.0110
3707.00,0.0110
3706.00,0.0112
3705.00,0.0113
3704.00,0.0114
3703.00,0.0114
3702.00,0.0113
3701.00,0.0113
3700.00,0.0114
3699.00,0.0115
3698.00,0.0116
3697.00,0.0115
3696.00,0.0115
3695.00,0.0115
3694.00,0.0115
3693.00,0.0115
3692.00,0.0116
3691.00,0.0118
3690.00,0.0119
3689.00,0.0120
3688.00,0.0120
3687.00,0.0119
3686.00,0.0118
3685.00,0.0117
3684.00,0.0116
3683.00,0.0115
3682.00,0.0115
3681.00,0.0114
3680.00,0.0114
3679.00,0.0114
3678.00,0.0115
3677.00,0.0116
3676.00,0.0117
3675.00,0.0118
3674.00,0.0120
3673.00,0.0122
3672.00,0.0124
3671.00,0.0125
3670.00,0.0126
3669.00,0.0129
3668.00,0.0130
3667.00,0.0131
3666.00,0.0130
3665.00,0.0130
3664.00,0.0131
3663.00,0.0132
3662.00,0.0134
3661.00,0.0137
3660.00,0.0141
3659.00,0.0145
3658.00,0.0148
3657.00,0.0151
3656.00,0.0153
3655.00,0.0156
3654.00,0.0160
3653.00,0.0163
3652.00,0.0164
3651.00,0.0165
3650.00,0.0169
3649.00,0.0175
3648.00,0.0180
3647.00,0.0181
3646.00,0.0182
3645.00,0.0182
3644.00,0.0183
3643.00,0.0184
3642.00,0.0185
3641.00,0.0187
3640.00,0.0190
3639.00,0.0192
3638.00,0.0195
3637.00,0.0197
3636.00,0.0199
3635.00,0.0202
3634.00,0.0204
3633.00,0.0207
3632.00,0.0210
3631.00,0.0214
3630.00,0.0218
3629.00,0.0224
3628.00,0.0230
3627.00,0.0233
3626.00,0.0233
3625.00,0.0233
3624.00,0.0234
3623.00,0.0236
3622.00,0.0239
3621.00,0.0242
3620.00,0.0246
3619.00,0.0250
3618.00,0.0253
3617.00,0.0255
3616.00,0.0256
3615.00,0.0257
3614.00,0.0259
3613.00,0.0261
3612.00,0.0263
3611.00,0.0265
3610.00,0.0267
3609.00,0.0271
3608.00,0.0274
3607.00,0.0277
3606.00,0.0278
3605.00,0.0277
3604.00,0.0277
3603.00,0.0277
3602.00,0.0280
3601.00,0.0283
3600.00,0.0286
3599.00,0.0287
3598.00,0.0289
3597.00,0.0290
3596.00,0.0293
3595.00,0.0296
3594.00,0.0298
3593.00,0.0299
3592.00,0.0299
3591.00,0.0300
3590.00,0.0301
3589.00,0.0304
3588.00,0.0309
3587.00,0.0315
3586.00,0.0318
3585.00,0.0319
3584.00,0.0319
3583.00,0.0318
3582.00,0.0318
3581.00,0.0318
3580.00,0.0320
3579.00,0.0321
3578.00,0.0323
3577.00,0.0326
3576.00,0.0328
3575.00,0.0330
3574.00,0.0331
3573.00,0.0333
3572.00,0.0334
3571.00,0.0334
3570.00,0.0334
3569.00,0.0336
3568.00,0.0341
3567.00,0.0348
3566.00,0.0353
3565.00,0.0355
3564.00,0.0355
3563.00,0.0354
3562.00,0.0354
3561.00,0.0355
3560.00,0.0356
3559.00,0.0358
3558.00,0.0359
3557.00,0.0361
3556.00,0.0362
3555.00,0.0364
3554.00,0.0365
3553.00,0.0368
3552.00,0.0370
3551.00,0.0373
3550.00,0.0374
3549.00,0.0375
3548.00,0.0377
3547.00,0.0380
3546.00,0.0383
3545.00,0.0386
3544.00,0.0388
3543.00,0.0389
3542.00,0.0389
3541.00,0.0389
3540.00,0.0389
3539.00,0.0388
3538.00,0.0389
3537.00,0.0390
3536.00,0.0393
3535.00,0.0395
3534.00,0.0398
3533.00,0.0399
3532.00,0.0401
3531.00,0.0402
3530.00,0.0403
3529.00,0.0404
3528.00,0.0405
3527.00,0.0407
3526.00,0.0409
3525.00,0.0412
3524.00,0.0415
3523.00,0.0418
3522.00,0.0419
3521.00,0.0419
3520.00,0.0419
3519.00,0.0418
3518.00,0.0418
3517.00,0.0419
3516.00,0.0420
3515.00,0.0422
3514.00,0.0424
3513.00,0.0426
3512.00,0.0428
3511.00,0.0429
3510.00,0.0431
3509.00,0.0433
3508.00,0.0434
3507.00,0.0434
3506.00,0.0435
3505.00,0.0436
3504.00,0.0438
3503.00,0.0441
3502.00,0.0444
3501.00,0.0445
3500.00,0.0446
3499.00,0.0446
3498.00,0.0447
3497.00,0.0448
3496.00,0.0450
3495.00,0.0451
3494.00,0.0452
3493.00,0.0453
3492.00,0.0454
3491.00,0.0455
3490.00,0.0455
3489.00,0.0457
3488.00,0.0458
3487.00,0.0460
3486.00,0.0461
3485.00,0.0462
3484.00,0.0463
3483.00,0.0464
3482.00,0.0466
3481.00,0.0468
3480.00,0.0469
3479.00,0.0470
3478.00,0.0471
3477.00,0.0472
3476.00,0.0474
3475.00,0.0476
3474.00,0.0477
3473.00,0.0478
3472.00,0.0479
3471.00,0.0481
3470.00,0.0482
3469.00,0.0483
3468.00,0.0484
3467.00,0.0485
3466.00,0.0486
3465.00,0.0488
3464.00,0.0488
3463.00,0.0489
3462.00,0.0489
3461.00,0.0489
3460.00,0.0491
3459.00,0.0493
3458.00,0.0495
3457.00,0.0496
3456.00,0.0496
3455.00,0.0496
3454.00,0.0497
3453.00,0.0498
3452.00,0.0499
3451.00,0.0500
3450.00,0.0501
3449.00,0.0503
3448.00,0.0505
3447.00,0.0507
3446.00,0.0509
3445.00,0.0510
3444.00,0.0511
3443.00,0.0511
3442.00,0.0511
3441.00,0.0511
3440.00,0.0511
3439.00,0.0511
3438.00,0.0512
3437.00,0.0513
3436.00,0.0515
3435.00,0.0515
3434.00,0.0516
3433.00,0.0517
3432.00,0.0519
3431.00,0.0520
3430.00,0.0521
3429.00,0.0521
3428.00,0.0521
3427.00,0.0522
3426.00,0.0523
3425.00,0.0525
3424.00,0.0526
3423.00,0.0527
3422.00,0.0529
3421.00,0.0530
3420.00,0.0532
3419.00,0.0533
3418.00,0.0534
3417.00,0.0534
3416.00,0.0534
3415.00,0.0534
3414.00,0.0534
3413.00,0.0535
3412.00,0.0537
3411.00,0.0538
3410.00,0.0538
3409.00,0.0539
3408.00,0.0541
3407.00,0.0542
3406.00,0.0542
3405.00,0.0543
3404.00,0.0543
3403.00,0.0543
3402.00,0.0543
3401.00,0.0544
3400.00,0.0545
3399.00,0.0546
3398.00,0.0546
3397.00,0.0547
3396.00,0.0547
3395.00,0.0547
3394.00,0.0548
3393.00,0.0549
3392.00,0.0550
3391.00,0.0551
3390.00,0.0552
3389.00,0.0553
3388.00,0.0553
3387.00,0.0553
3386.00,0.0553
3385.00,0.0554
3384.00,0.0555
3383.00,0.0556
3382.00,0.0557
3381.00,0.0557
3380.00,0.0558
3379.00,0.0559
3378.00,0.0559
3377.00,0.0559
3376.00,0.0559
3375.00,0.0559
3374.00,0.0559
3373.00,0.0560
3372.00,0.0560
3371.00,0.0560
3370.00,0.0560
3369.00,0.0560
3368.00,0.0561
3367.00,0.0562
3366.00,0.0562
3365.00,0.0562
3364.00,0.0562
3363.00,0.0563
3362.00,0.0564
3361.00,0.0565
3360.00,0.0566
3359.00,0.0566
3358.00,0.0566
3357.00,0.0566
3356.00,0.0566
3355.00,0.0566
3354.00,0.0567
3353.00,0.0567
3352.00,0.0567
3351.00,0.0567
3350.00,0.0567
3349.00,0.0568
3348.00,0.0568
3347.00,0.0568
3346.00,0.0568
3345.00,0.0568
3344.00,0.0568
3343.00,0.0567
3342.00,0.0567
3341.00,0.0568
3340.00,0.0568
3339.00,0.0569
3338.00,0.0569
3337.00,0.0570
3336.00,0.0570
3335.00,0.0569
3334.00,0.0570
3333.00,0.0570
3332.00,0.0569
3331.00,0.0569
3330.00,0.0568
3329.00,0.0567
3328.00,0.0567
3327.00,0.0568
3326.00,0.0569
3325.00,0.0570
3324.00,0.0570
3323.00,0.0571
3322.00,0.0570
3321.00,0.0570
3320.00,0.0570
3319.00,0.0569
3318.00,0.0570
3317.00,0.0570
3316.00,0.0570
3315.00,0.0570
3314.00,0.0570
3313.00,0.0570
3312.00,0.0570
3311.00,0.0569
3310.00,0.0569
3309.00,0.0570
3308.00,0.0571
3307.00,0.0572
3306.00,0.0572
3305.00,0.0571
3304.00,0.0570
3303.00,0.0570
3302.00,0.0570
3301.00,0.0570
3300.00,0.0570
3299.00,0.0570
3298.00,0.0570
3297.00,0.0570
3296.00,0.0570
3295.00,0.0571
3294.00,0.0571
3293.00,0.0571
3292.00,0.0571
3291.00,0.0571
3290.00,0.0570
3289.00,0.0570
3288.00,0.0571
3287.00,0.0571
3286.00,0.0571
3285.00,0.0572
3284.00,0.0572
3283.00,0.0572
3282.00,0.0572
3281.00,0.0572
3280.00,0.0572
3279.00,0.0571
3278.00,0.0571
3277.00,0.0571
3276.00,0.0571
3275.00,0.0571
3274.00,0.0572
3273.00,0.0573
3272.00,0.0573
3271.00,0.0574
3270.00,0.0574
3269.00,0.0575
3268.00,0.0575
3267.00,0.0575
3266.00,0.0574
3265.00,0.0573
3264.00,0.0572
3263.00,0.0572
3262.00,0.0572
3261.00,0.0572
3260.00,0.0572
3259.00,0.0573
3258.00,0.0573
3257.00,0.0573
3256.00,0.0573
3255.00,0.0572
3254.00,0.0573
3253.00,0.0573
3252.00,0.0573
3251.00,0.0573
3250.00,0.0573
3249.00,0.0572
3248.00,0.0572
3247.00,0.0572
3246.00,0.0573
3245.00,0.0573
3244.00,0.0574
3243.00,0.0573
3242.00,0.0573
3241.00,0.0573
3240.00,0.0573
3239.00,0.0573
3238.00,0.0573
3237.00,0.0574
3236.00,0.0575
3235.00,0.0576
3234.00,0.0576
3233.00,0.0575
3232.00,0.0575
3231.00,0.0575
3230.00,0.0574
3229.00,0.0574
3228.00,0.0573
3227.00,0.0573
3226.00,0.0574
3225.00,0.0574
3224.00,0.0574
3223.00,0.0574
3222.00,0.0574
3221.00,0.0574
3220.00,0.0573
3219.00,0.0573
3218.00,0.0573
3217.00,0.0574
3216.00,0.0574
3215.00,0.0575
3214.00,0.0575
3213.00,0.0574
3212.00,0.0573
3211.00,0.0572
3210.00,0.0572
3209.00,0.0572
3208.00,0.0572
3207.00,0.0572
3206.00,0.0572
3205.00,0.0572
3204.00,0.0573
3203.00,0.0573
3202.00,0.0573
3201.00,0.0573
3200.00,0.0572
3199.00,0.0572
3198.00,0.0572
3197.00,0.0572
3196.00,0.0572
3195.00,0.0571
3194.00,0.0570
3193.00,0.0570
3192.00,0.0570
3191.00,0.0569
3190.00,0.0568
3189.00,0.0567
3188.00,0.0566
3187.00,0.0565
3186.00,0.0565
3185.00,0.0565
3184.00,0.0566
3183.00,0.0567
3182.00,0.0567
3181.00,0.0567
3180.00,0.0566
3179.00,0.0564
3178.00,0.0563
3177.00,0.0563
3176.00,0.0562
3175.00,0.0562
3174.00,0.0562
3173.00,0.0563
3172.00,0.0563
3171.00,0.0562
3170.00,0.0562
3169.00,0.0562
3168.00,0.0561
3167.00,0.0561
3166.00,0.0561
3165.00,0.0561
3164.00,0.0561
3163.00,0.0561
3162.00,0.0560
3161.00,0.0559
3160.00,0.0558
3159.00,0.0556
3158.00,0.0555
3157.00,0.0555
3156.00,0.0555
3155.00,0.0555
3154.00,0.0556
3153.00,0.0556
3152.00,0.0556
3151.00,0.0555
3150.00,0.0554
3149.00,0.0553
3148.00,0.0553
3147.00,0.0552
3146.00,0.0552
3145.00,0.0552
3144.00,0.0551
3143.00,0.0551
3142.00,0.0550
3141.00,0.0549
3140.00,0.0549
3139.00,0.0548
3138.00,0.0548
3137.00,0.0548
3136.00,0.0548
3135.00,0.0548
3134.00,0.0547
3133.00,0.0547
3132.00,0.0546
3131.00,0.0546
3130.00,0.0546
3129.00,0.0545
3128.00,0.0545
3127.00,0.0544
3126.00,0.0544
3125.00,0.0543
3124.00,0.0543
3123.00,0.0542
3122.00,0.0542
3121.00,0.0541
3120.00,0.0541
3119.00,0.0540
3118.00,0.0540
3117.00,0.0539
3116.00,0.0539
3115.00,0.0538
3114.00,0.0538
3113.00,0.0537
3112.00,0.0537
3111.00,0.0536
3110.00,0.0535
3109.00,0.0535
3108.00,0.0535
3107.00,0.0535
3106.00,0.0535
3105.00,0.0535
3104.00,0.0535
3103.00,0.0534
3102.00,0.0533
3101.00,0.0532
3100.00,0.0531
3099.00,0.0530
3098.00,0.0529
3097.00,0.0529
3096.00,0.0529
3095.00,0.0530
3094.00,0.0531
3093.00,0.0531
3092.00,0.0530
3091.00,0.0529
3090.00,0.0527
3089.00,0.0526
3088.00,0.0525
3087.00,0.0524
3086.00,0.0525
3085.00,0.0525
3084.00,0.0525
3083.00,0.0524
3082.00,0.0523
3081.00,0.0523
3080.00,0.0523
3079.00,0.0522
3078.00,0.0522
3077.00,0.0522
3076.00,0.0521
3075.00,0.0520
3074.00,0.0520
3073.00,0.0519
3072.00,0.0519
3071.00,0.0518
3070.00,0.0517
3069.00,0.0517
3068.00,0.0516
3067.00,0.0516
3066.00,0.0515
3065.00,0.0514
3064.00,0.0513
3063.00,0.0512
3062.00,0.0511
3061.00,0.0511
3060.00,0.0511
3059.00,0.0510
3058.00,0.0510
3057.00,0.0509
3056.00,0.0509
3055.00,0.0508
3054.00,0.0507
3053.00,0.0506
3052.00,0.0506
3051.00,0.0505
3050.00,0.0505
3049.00,0.0505
3048.00,0.0505
3047.00,0.0504
3046.00,0.0503
3045.00,0.0502
3044.00,0.0501
3043.00,0.0500
3042.00,0.0498
3041.00,0.0497
3040.00,0.0496
3039.00,0.0496
3038.00,0.0496
3037.00,0.0496
3036.00,0.0495
3035.00,0.0495
3034.00,0.0495
3033.00,0.0494
3032.00,0.0494
3031.00,0.0493
3030.00,0.0491
3029.00,0.0490
3028.00,0.0489
3027.00,0.0488
3026.00,0.0488
3025.00,0.0488
3024.00,0.0488
3023.00,0.0488
3022.00,0.0487
3021.00,0.0486
3020.00,0.0485
3019.00,0.0484
3018.00,0.0483
3017.00,0.0482
3016.00,0.0481
3015.00,0.0480
3014.00,0.0479
3013.00,0.0478
3012.00,0.0477
3011.00,0.0477
3010.00,0.0476
3009.00,0.0474
3008.00,0.0472
3007.00,0.0470
3006.00,0.0468
3005.00,0.0467
3004.00,0.0466
3003.00,0.0465
3002.00,0.0463
3001.00,0.0461
3000.00,0.0460
2999.00,0.0458
2998.00,0.0457
2997.00,0.0456
2996.00,0.0455
2995.00,0.0454
2994.00,0.0453
2993.00,0.0453
2992.00,0.0451
2991.00,0.0450
2990.00,0.0449
2989.00,0.0448
2988.00,0.0447
2987.00,0.0446
2986.00,0.0443
2985.00,0.0439
2984.00,0.0436
2983.00,0.0433
2982.00,0.0431
2981.00,0.0431
2980.00,0.0432
2979.00,0.0434
2978.00,0.0436
2977.00,0.0438
2976.00,0.0439
2975.00,0.0440
2974.00,0.0439
2973.00,0.0439
2972.00,0.0438
2971.00,0.0439
2970.00,0.0440
2969.00,0.0442
2968.00,0.0443
2967.00,0.0444
2966.00,0.0445
2965.00,0.0446
2964.00,0.0447
2963.00,0.0448
2962.00,0.0449
2961.00,0.0450
2960.00,0.0451
2959.00,0.0451
2958.00,0.0451
2957.00,0.0451
2956.00,0.0452
2955.00,0.0453
2954.00,0.0453
2953.00,0.0454
2952.00,0.0455
2951.00,0.0455
2950.00,0.0455
2949.00,0.0455
2948.00,0.0455
2947.00,0.0455
2946.00,0.0455
2945.00,0.0456
2944.00,0.0456
2943.00,0.0458
2942.00,0.0459
2941.00,0.0460
2940.00,0.0460
2939.00,0.0460
2938.00,0.0461
2937.00,0.0462
2936.00,0.0462
2935.00,0.0463
2934.00,0.0464
2933.00,0.0464
2932.00,0.0465
2931.00,0.0465
2930.00,0.0465
2929.00,0.0466
2928.00,0.0467
2927.00,0.0467
2926.00,0.0467
2925.00,0.0466
2924.00,0.0466
2923.00,0.0465
2922.00,0.0465
2921.00,0.0464
2920.00,0.0463
2919.00,0.0461
2918.00,0.0459
2917.00,0.0457
2916.00,0.0455
2915.00,0.0453
2914.00,0.0450
2913.00,0.0448
2912.00,0.0446
2911.00,0.0445
2910.00,0.0444
2909.00,0.0443
2908.00,0.0441
2907.00,0.0440
2906.00,0.0438
2905.00,0.0437
2904.00,0.0435
2903.00,0.0434
2902.00,0.0433
2901.00,0.0432
2900.00,0.0431
2899.00,0.0430
2898.00,0.0428
2897.00,0.0427
2896.00,0.0427
2895.00,0.0426
2894.00,0.0425
2893.00,0.0424
2892.00,0.0423
2891.00,0.0422
2890.00,0.0421
2889.00,0.0420
2888.00,0.0420
2887.00,0.0420
2886.00,0.0419
2885.00,0.0418
2884.00,0.0417
2883.00,0.0416
2882.00,0.0416
2881.00,0.0416
2880.00,0.0416
2879.00,0.0416
2878.00,0.0416
2877.00,0.0416
2876.00,0.0416
2875.00,0.0416
2874.00,0.0415
2873.00,0.0414
2872.00,0.0413
2871.00,0.0413
2870.00,0.0413
2869.00,0.0413
2868.00,0.0413
2867.00,0.0412
2866.00,0.0412
2865.00,0.0412
2864.00,0.0412
2863.00,0.0412
2862.00,0.0413
2861.00,0.0413
2860.00,0.0414
2859.00,0.0415
2858.00,0.0416
2857.00,0.0417
2856.00,0.0417
2855.00,0.0417
2854.00,0.0416
2853.00,0.0415
2852.00,0.0414
2851.00,0.0414
2850.00,0.0414
2849.00,0.0413
2848.00,0.0411
2847.00,0.0409
2846.00,0.0408
2845.00,0.0406
2844.00,0.0405
2843.00,0.0403
2842.00,0.0402
2841.00,0.0400
2840.00,0.0398
2839.00,0.0396
2838.00,0.0395
2837.00,0.0395
2836.00,0.0394
2835.00,0.0394
2834.00,0.0394
2833.00,0.0393
2832.00,0.0391
2831.00,0.0390
2830.00,0.0389
2829.00,0.0389
2828.00,0.0388
2827.00,0.0388
2826.00,0.0387
2825.00,0.0386
2824.00,0.0386
2823.00,0.0385
2822.00,0.0384
2821.00,0.0384
2820.00,0.0383
2819.00,0.0382
2818.00,0.0381
2817.00,0.0380
2816.00,0.0379
2815.00,0.0379
2814.00,0.0378
2813.00,0.0378
2812.00,0.0378
2811.00,0.0377
2810.00,0.0376
2809.00,0.0376
2808.00,0.0375
2807.00,0.0375
2806.00,0.0374
2805.00,0.0374
2804.00,0.0373
2803.00,0.0373
2802.00,0.0372
2801.00,0.0372
2800.00,0.0371
2799.00,0.0371
2798.00,0.0371
2797.00,0.0370
2796.00,0.0370
2795.00,0.0369
2794.00,0.0368
2793.00,0.0368
2792.00,0.0367
2791.00,0.0367
2790.00,0.0367
2789.00,0.0366
2788.00,0.0366
2787.00,0.0365
2786.00,0.0364
2785.00,0.0364
2784.00,0.0363
2783.00,0.0362
2782.00,0.0361
2781.00,0.0360
2780.00,0.0359
2779.00,0.0359
2778.00,0.0359
2777.00,0.0359
2776.00,0.0359
2775.00,0.0359
2774.00,0.0359
2773.00,0.0358
2772.00,0.0358
2771.00,0.0357
2770.00,0.0355
2769.00,0.0354
2768.00,0.0353
2767.00,0.0353
2766.00,0.0353
2765.00,0.0353
2764.00,0.0353
2763.00,0.0353
2762.00,0.0353
2761.00,0.0352
2760.00,0.0352
2759.00,0.0351
2758.00,0.0351
2757.00,0.0350
2756.00,0.0350
2755.00,0.0349
2754.00,0.0349
2753.00,0.0349
2752.00,0.0348
2751.00,0.0348
2750.00,0.0348
2749.00,0.0348
2748.00,0.0347
2747.00,0.0347
2746.00,0.0346
2745.00,0.0346
2744.00,0.0346
2743.00,0.0345
2742.00,0.0345
2741.00,0.0345
2740.00,0.0344
2739.00,0.0343
2738.00,0.0342
2737.00,0.0341
2736.00,0.0341
2735.00,0.0341
2734.00,0.0341
2733.00,0.0341
2732.00,0.0341
2731.00,0.0340
2730.00,0.0340
2729.00,0.0339
2728.00,0.0338
2727.00,0.0338
2726.00,0.0338
2725.00,0.0337
2724.00,0.0337
2723.00,0.0337
2722.00,0.0336
2721.00,0.0335
2720.00,0.0335
2719.00,0.0335
2718.00,0.0335
2717.00,0.0334
2716.00,0.0334
2715.00,0.0334
2714.00,0.0334
2713.00,0.0333
2712.00,0.0333
2711.00,0.0332
2710.00,0.0332
2709.00,0.0331
2708.00,0.0330
2707.00,0.0330
2706.00,0.0329
2705.00,0.0329
2704.00,0.0328
2703.00,0.0328
2702.00,0.0327
2701.00,0.0327
2700.00,0.0327
2699.00,0.0326
2698.00,0.0326
2697.00,0.0326
2696.00,0.0325
2695.00,0.0325
2694.00,0.0326
2693.00,0.0326
2692.00,0.0325
2691.00,0.0325
2690.00,0.0324
2689.00,0.0323
2688.00,0.0323
2687.00,0.0323
2686.00,0.0323
2685.00,0.0322
2684.00,0.0322
2683.00,0.0322
2682.00,0.0322
2681.00,0.0321
2680.00,0.0321
2679.00,0.0320
2678.00,0.0319
2677.00,0.0318
2676.00,0.0317
2675.00,0.0317
2674.00,0.0317
2673.00,0.0317
2672.00,0.0317
2671.00,0.0317
2670.00,0.0316
2669.00,0.0316
2668.00,0.0316
2667.00,0.0315
2666.00,0.0315
2665.00,0.0316
2664.00,0.0316
2663.00,0.0316
2662.00,0.0316
2661.00,0.0316
2660.00,0.0316
2659.00,0.0316
2658.00,0.0316
2657.00,0.0316
2656.00,0.0316
2655.00,0.0316
2654.00,0.0316
2653.00,0.0316
2652.00,0.0316
2651.00,0.0316
2650.00,0.0316
2649.00,0.0316
2648.00,0.0315
2647.00,0.0314
2646.00,0.0314
2645.00,0.0314
2644.00,0.0315
2643.00,0.0315
2642.00,0.0315
2641.00,0.0315
2640.00,0.0315
2639.00,0.0314
2638.00,0.0314
2637.00,0.0313
2636.00,0.0313
2635.00,0.0313
2634.00,0.0313
2633.00,0.0313
2632.00,0.0313
2631.00,0.0313
2630.00,0.0312
2629.00,0.0311
2628.00,0.0310
2627.00,0.0310
2626.00,0.0310
2625.00,0.0311
2624.00,0.0311
2623.00,0.0311
2622.00,0.0311
2621.00,0.0312
2620.00,0.0312
2619.00,0.0311
2618.00,0.0311
2617.00,0.0311
2616.00,0.0310
2615.00,0.0309
2614.00,0.0308
2613.00,0.0308
2612.00,0.0309
2611.00,0.0309
2610.00,0.0309
2609.00,0.0308
2608.00,0.0307
2607.00,0.0307
2606.00,0.0307
2605.00,0.0308
2604.00,0.0309
2603.00,0.0309
2602.00,0.0308
2601.00,0.0308
2600.00,0.0307
2599.00,0.0307
2598.00,0.0306
2597.00,0.0306
2596.00,0.0305
2595.00,0.0305
2594.00,0.0305
2593.00,0.0305
2592.00,0.0305
2591.00,0.0306
2590.00,0.0305
2589.00,0.0305
2588.00,0.0305
2587.00,0.0304
2586.00,0.0304
2585.00,0.0303
2584.00,0.0303
2583.00,0.0302
2582.00,0.0303
2581.00,0.0303
2580.00,0.0303
2579.00,0.0303
2578.00,0.0303
2577.00,0.0302
2576.00,0.0301
2575.00,0.0301
2574.00,0.0301
2573.00,0.0301
2572.00,0.0301
2571.00,0.0300
2570.00,0.0299
2569.00,0.0299
2568.00,0.0299
2567.00,0.0300
2566.00,0.0301
2565.00,0.0301
2564.00,0.0300
2563.00,0.0300
2562.00,0.0300
2561.00,0.0300
2560.00,0.0300
2559.00,0.0299
2558.00,0.0299
2557.00,0.0299
2556.00,0.0300
2555.00,0.0299
2554.00,0.0299
2553.00,0.0298
2552.00,0.0297
2551.00,0.0296
2550.00,0.0295
2549.00,0.0294
2548.00,0.0293
2547.00,0.0293
2546.00,0.0293
2545.00,0.0293
2544.00,0.0293
2543.00,0.0293
2542.00,0.0293
2541.00,0.0292
2540.00,0.0291
2539.00,0.0290
2538.00,0.0289
2537.00,0.0289
2536.00,0.0289
2535.00,0.0289
2534.00,0.0290
2533.00,0.0291
2532.00,0.0291
2531.00,0.0290
2530.00,0.0290
2529.00,0.0289
2528.00,0.0289
2527.00,0.0288
2526.00,0.0288
2525.00,0.0287
2524.00,0.0287
2523.00,0.0286
2522.00,0.0287
2521.00,0.0287
2520.00,0.0287
2519.00,0.0287
2518.00,0.0288
2517.00,0.0289
2516.00,0.0289
2515.00,0.0288
2514.00,0.0287
2513.00,0.0285
2512.00,0.0285
2511.00,0.0285
2510.00,0.0286
2509.00,0.0287
2508.00,0.0287
2507.00,0.0287
2506.00,0.0286
2505.00,0.0285
2504.00,0.0285
2503.00,0.0284
2502.00,0.0285
2501.00,0.0285
2500.00,0.0286
2499.00,0.0286
2498.00,0.0285
2497.00,0.0285
2496.00,0.0284
2495.00,0.0284
2494.00,0.0285
2493.00,0.0285
2492.00,0.0285
2491.00,0.0284
2490.00,0.0284
2489.00,0.0284
2488.00,0.0284
2487.00,0.0283
2486.00,0.0283
2485.00,0.0281
2484.00,0.0280
2483.00,0.0279
2482.00,0.0280
2481.00,0.0280
2480.00,0.0281
2479.00,0.0281
2478.00,0.0280
2477.00,0.0279
2476.00,0.0278
2475.00,0.0278
2474.00,0.0278
2473.00,0.0278
2472.00,0.0278
2471.00,0.0278
2470.00,0.0278
2469.00,0.0277
2468.00,0.0277
2467.00,0.0276
2466.00,0.0276
2465.00,0.0276
2464.00,0.0276
2463.00,0.0276
2462.00,0.0275
2461.00,0.0276
2460.00,0.0276
2459.00,0.0276
2458.00,0.0277
2457.00,0.0277
2456.00,0.0276
2455.00,0.0276
2454.00,0.0277
2453.00,0.0277
2452.00,0.0277
2451.00,0.0277
2450.00,0.0276
2449.00,0.0275
2448.00,0.0274
2447.00,0.0274
2446.00,0.0273
2445.00,0.0272
2444.00,0.0271
2443.00,0.0270
2442.00,0.0270
2441.00,0.0270
2440.00,0.0271
2439.00,0.0271
2438.00,0.0271
2437.00,0.0270
2436.00,0.0270
2435.00,0.0269
2434.00,0.0268
2433.00,0.0268
2432.00,0.0267
2431.00,0.0267
2430.00,0.0268
2429.00,0.0268
2428.00,0.0267
2427.00,0.0267
2426.00,0.0267
2425.00,0.0267
2424.00,0.0267
2423.00,0.0267
2422.00,0.0266
2421.00,0.0265
2420.00,0.0265
2419.00,0.0264
2418.00,0.0264
2417.00,0.0264
2416.00,0.0263
2415.00,0.0263
2414.00,0.0263
2413.00,0.0263
2412.00,0.0263
2411.00,0.0263
2410.00,0.0263
2409.00,0.0262
2408.00,0.0261
2407.00,0.0260
2406.00,0.0259
2405.00,0.0259
2404.00,0.0259
2403.00,0.0259
2402.00,0.0258
2401.00,0.0258
2400.00,0.0257
2399.00,0.0257
2398.00,0.0257
2397.00,0.0257
2396.00,0.0256
2395.00,0.0255
2394.00,0.0255
2393.00,0.0254
2392.00,0.0254
2391.00,0.0253
2390.00,0.0253
2389.00,0.0253
2388.00,0.0252
2387.00,0.0252
2386.00,0.0252
2385.00,0.0251
2384.00,0.0250
2383.00,0.0249
2382.00,0.0248
2381.00,0.0249
2380.00,0.0249
2379.00,0.0250
2378.00,0.0249
2377.00,0.0247
2376.00,0.0246
2375.00,0.0245
2374.00,0.0245
2373.00,0.0245
2372.00,0.0245
2371.00,0.0244
2370.00,0.0242
2369.00,0.0238
2368.00,0.0236
2367.00,0.0236
2366.00,0.0239
2365.00,0.0243
2364.00,0.0244
2363.00,0.0243
2362.00,0.0242
2361.00,0.0241
2360.00,0.0241
2359.00,0.0241
2358.00,0.0241
2357.00,0.0241
2356.00,0.0241
2355.00,0.0239
2354.00,0.0238
2353.00,0.0238
2352.00,0.0237
2351.00,0.0237
2350.00,0.0237
2349.00,0.0238
2348.00,0.0239
2347.00,0.0238
2346.00,0.0237
2345.00,0.0236
2344.00,0.0237
2343.00,0.0239
2342.00,0.0241
2341.00,0.0243
2340.00,0.0242
2339.00,0.0241
2338.00,0.0238
2337.00,0.0236
2336.00,0.0236
2335.00,0.0237
2334.00,0.0238
2333.00,0.0239
2332.00,0.0239
2331.00,0.0238
2330.00,0.0237
2329.00,0.0237
2328.00,0.0239
2327.00,0.0241
2326.00,0.0242
2325.00,0.0243
2324.00,0.0242
2323.00,0.0242
2322.00,0.0241
2321.00,0.0242
2320.00,0.0242
2319.00,0.0241
2318.00,0.0240
2317.00,0.0239
2316.00,0.0239
2315.00,0.0239
2314.00,0.0238
2313.00,0.0238
2312.00,0.0238
2311.00,0.0239
2310.00,0.0241
2309.00,0.0243
2308.00,0.0244
2307.00,0.0243
2306.00,0.0242
2305.00,0.0241
2304.00,0.0240
2303.00,0.0239
2302.00,0.0237
2301.00,0.0237
2300.00,0.0238
2299.00,0.0239
2298.00,0.0240
2297.00,0.0240
2296.00,0.0240
2295.00,0.0240
2294.00,0.0241
2293.00,0.0243
2292.00,0.0245
2291.00,0.0246
2290.00,0.0246
2289.00,0.0246
2288.00,0.0246
2287.00,0.0247
2286.00,0.0247
2285.00,0.0248
2284.00,0.0249
2283.00,0.0249
2282.00,0.0248
2281.00,0.0247
2280.00,0.0246
2279.00,0.0246
2278.00,0.0246
2277.00,0.0246
2276.00,0.0245
2275.00,0.0244
2274.00,0.0243
2273.00,0.0242
2272.00,0.0241
2271.00,0.0241
2270.00,0.0241
2269.00,0.0241
2268.00,0.0240
2267.00,0.0239
2266.00,0.0239
2265.00,0.0239
2264.00,0.0240
2263.00,0.0241
2262.00,0.0241
2261.00,0.0242
2260.00,0.0242
2259.00,0.0241
2258.00,0.0238
2257.00,0.0236
2256.00,0.0234
2255.00,0.0234
2254.00,0.0235
2253.00,0.0235
2252.00,0.0235
2251.00,0.0235
2250.00,0.0236
2249.00,0.0236
2248.00,0.0236
2247.00,0.0235
2246.00,0.0236
2245.00,0.0236
2244.00,0.0236
2243.00,0.0235
2242.00,0.0235
2241.00,0.0235
2240.00,0.0235
2239.00,0.0235
2238.00,0.0235
2237.00,0.0235
2236.00,0.0235
2235.00,0.0235
2234.00,0.0235
2233.00,0.0236
2232.00,0.0235
2231.00,0.0233
2230.00,0.0232
2229.00,0.0232
2228.00,0.0233
2227.00,0.0233
2226.00,0.0234
2225.00,0.0233
2224.00,0.0232
2223.00,0.0231
2222.00,0.0230
2221.00,0.0230
2220.00,0.0230
2219.00,0.0231
2218.00,0.0231
2217.00,0.0232
2216.00,0.0232
2215.00,0.0232
2214.00,0.0231
2213.00,0.0231
2212.00,0.0230
2211.00,0.0229
2210.00,0.0229
2209.00,0.0229
2208.00,0.0229
2207.00,0.0230
2206.00,0.0230
2205.00,0.0230
2204.00,0.0230
2203.00,0.0229
2202.00,0.0228
2201.00,0.0227
2200.00,0.0226
2199.00,0.0226
2198.00,0.0226
2197.00,0.0228
2196.00,0.0228
2195.00,0.0228
2194.00,0.0227
2193.00,0.0227
2192.00,0.0227
2191.00,0.0225
2190.00,0.0223
2189.00,0.0222
2188.00,0.0224
2187.00,0.0228
2186.00,0.0232
2185.00,0.0234
2184.00,0.0231
2183.00,0.0227
2182.00,0.0223
2181.00,0.0222
2180.00,0.0222
2179.00,0.0223
2178.00,0.0224
2177.00,0.0224
2176.00,0.0224
2175.00,0.0223
2174.00,0.0222
2173.00,0.0222
2172.00,0.0223
2171.00,0.0225
2170.00,0.0229
2169.00,0.0232
2168.00,0.0234
2167.00,0.0235
2166.00,0.0236
2165.00,0.0239
2164.00,0.0241
2163.00,0.0241
2162.00,0.0239
2161.00,0.0232
2160.00,0.0221
2159.00,0.0209
2158.00,0.0200
2157.00,0.0197
2156.00,0.0199
2155.00,0.0202
2154.00,0.0207
2153.00,0.0210
2152.00,0.0211
2151.00,0.0208
2150.00,0.0204
2149.00,0.0202
2148.00,0.0202
2147.00,0.0204
2146.00,0.0207
2145.00,0.0209
2144.00,0.0210
2143.00,0.0210
2142.00,0.0210
2141.00,0.0211
2140.00,0.0210
2139.00,0.0209
2138.00,0.0206
2137.00,0.0203
2136.00,0.0200
2135.00,0.0198
2134.00,0.0197
2133.00,0.0197
2132.00,0.0198
2131.00,0.0198
2130.00,0.0199
2129.00,0.0201
2128.00,0.0204
2127.00,0.0205
2126.00,0.0205
2125.00,0.0203
2124.00,0.0202
2123.00,0.0202
2122.00,0.0201
2121.00,0.0201
2120.00,0.0201
2119.00,0.0201
2118.00,0.0202
2117.00,0.0202
2116.00,0.0202
2115.00,0.0201
2114.00,0.0199
2113.00,0.0199
2112.00,0.0200
2111.00,0.0202
2110.00,0.0204
2109.00,0.0205
2108.00,0.0206
2107.00,0.0206
2106.00,0.0205
2105.00,0.0204
2104.00,0.0203
2103.00,0.0201
2102.00,0.0201
2101.00,0.0200
2100.00,0.0199
2099.00,0.0197
2098.00,0.0195
2097.00,0.0194
2096.00,0.0194
2095.00,0.0194
2094.00,0.0195
2093.00,0.0196
2092.00,0.0196
2091.00,0.0196
2090.00,0.0195
2089.00,0.0194
2088.00,0.0195
2087.00,0.0195
2086.00,0.0197
2085.00,0.0198
2084.00,0.0200
2083.00,0.0201
2082.00,0.0200
2081.00,0.0199
2080.00,0.0199
2079.00,0.0199
2078.00,0.0198
2077.00,0.0199
2076.00,0.0199
2075.00,0.0198
2074.00,0.0198
2073.00,0.0197
2072.00,0.0197
2071.00,0.0198
2070.00,0.0197
2069.00,0.0195
2068.00,0.0192
2067.00,0.0190
2066.00,0.0190
2065.00,0.0190
2064.00,0.0192
2063.00,0.0193
2062.00,0.0194
2061.00,0.0193
2060.00,0.0191
2059.00,0.0190
2058.00,0.0189
2057.00,0.0190
2056.00,0.0191
2055.00,0.0191
2054.00,0.0192
2053.00,0.0195
2052.00,0.0198
2051.00,0.0199
2050.00,0.0196
2049.00,0.0193
2048.00,0.0191
2047.00,0.0190
2046.00,0.0191
2045.00,0.0193
2044.00,0.0195
2043.00,0.0197
2042.00,0.0197
2041.00,0.0196
2040.00,0.0193
2039.00,0.0191
2038.00,0.0191
2037.00,0.0193
2036.00,0.0195
2035.00,0.0194
2034.00,0.0191
2033.00,0.0190
2032.00,0.0191
2031.00,0.0193
2030.00,0.0192
2029.00,0.0188
2028.00,0.0185
2027.00,0.0182
2026.00,0.0180
2025.00,0.0179
2024.00,0.0177
2023.00,0.0176
2022.00,0.0175
2021.00,0.0175
2020.00,0.0175
2019.00,0.0173
2018.00,0.0170
2017.00,0.0168
2016.00,0.0168
2015.00,0.0170
2014.00,0.0172
2013.00,0.0173
2012.00,0.0174
2011.00,0.0174
2010.00,0.0174
2009.00,0.0175
2008.00,0.0174
2007.00,0.0172
2006.00,0.0169
2005.00,0.0167
2004.00,0.0166
2003.00,0.0168
2002.00,0.0172
2001.00,0.0176
2000.00,0.0177
1999.00,0.0176
1998.00,0.0174
1997.00,0.0174
1996.00,0.0176
1995.00,0.0179
1994.00,0.0181
1993.00,0.0181
1992.00,0.0179
1991.00,0.0175
1990.00,0.0172
1989.00,0.0170
1988.00,0.0171
1987.00,0.0172
1986.00,0.0173
1985.00,0.0174
1984.00,0.0175
1983.00,0.0176
1982.00,0.0176
1981.00,0.0176
1980.00,0.0174
1979.00,0.0169
1978.00,0.0162
1977.00,0.0158
1976.00,0.0156
1975.00,0.0158
1974.00,0.0160
1973.00,0.0161
1972.00,0.0160
1971.00,0.0157
1970.00,0.0156
1969.00,0.0158
1968.00,0.0160
1967.00,0.0158
1966.00,0.0155
1965.00,0.0153
1964.00,0.0154
1963.00,0.0155
1962.00,0.0156
1961.00,0.0156
1960.00,0.0156
1959.00,0.0155
1958.00,0.0154
1957.00,0.0152
1956.00,0.0151
1955.00,0.0150
1954.00,0.0150
1953.00,0.0151
1952.00,0.0151
1951.00,0.0149
1950.00,0.0147
1949.00,0.0146
1948.00,0.0146
1947.00,0.0147
1946.00,0.0148
1945.00,0.0148
1944.00,0.0147
1943.00,0.0144
1942.00,0.0141
1941.00,0.0139
1940.00,0.0138
1939.00,0.0137
1938.00,0.0137
1937.00,0.0137
1936.00,0.0137
1935.00,0.0136
1934.00,0.0135
1933.00,0.0134
1932.00,0.0134
1931.00,0.0136
1930.00,0.0137
1929.00,0.0139
1928.00,0.0141
1927.00,0.0141
1926.00,0.0141
1925.00,0.0141
1924.00,0.0140
1923.00,0.0138
1922.00,0.0136
1921.00,0.0136
1920.00,0.0137
1919.00,0.0135
1918.00,0.0132
1917.00,0.0129
1916.00,0.0130
1915.00,0.0131
1914.00,0.0133
1913.00,0.0134
1912.00,0.0134
1911.00,0.0134
1910.00,0.0133
1909.00,0.0131
1908.00,0.0129
1907.00,0.0127
1906.00,0.0127
1905.00,0.0127
1904.00,0.0128
1903.00,0.0128
1902.00,0.0127
1901.00,0.0126
1900.00,0.0126
1899.00,0.0127
1898.00,0.0128
1897.00,0.0128
1896.00,0.0126
1895.00,0.0123
1894.00,0.0121
1893.00,0.0122
1892.00,0.0123
1891.00,0.0124
1890.00,0.0123
1889.00,0.0121
1888.00,0.0119
1887.00,0.0119
1886.00,0.0119
1885.00,0.0119
1884.00,0.0119
1883.00,0.0119
1882.00,0.0118
1881.00,0.0118
1880.00,0.0118
1879.00,0.0117
1878.00,0.0116
1877.00,0.0115
1876.00,0.0115
1875.00,0.0116
1874.00,0.0116
1873.00,0.0117
1872.00,0.0119
1871.00,0.0120
1870.00,0.0118
1869.00,0.0115
1868.00,0.0112
1867.00,0.0110
1866.00,0.0110
1865.00,0.0111
1864.00,0.0111
1863.00,0.0110
1862.00,0.0109
1861.00,0.0108
1860.00,0.0108
1859.00,0.0107
1858.00,0.0107
1857.00,0.0108
1856.00,0.0108
1855.00,0.0107
1854.00,0.0106
1853.00,0.0105
1852.00,0.0105
1851.00,0.0105
1850.00,0.0106
1849.00,0.0107
1848.00,0.0107
1847.00,0.0108
1846.00,0.0109
1845.00,0.0106
1844.00,0.0099
1843.00,0.0095
1842.00,0.0095
1841.00,0.0099
1840.00,0.0102
1839.00,0.0102
1838.00,0.0102
1837.00,0.0101
1836.00,0.0101
1835.00,0.0101
1834.00,0.0101
1833.00,0.0104
1832.00,0.0107
1831.00,0.0107
1830.00,0.0104
1829.00,0.0100
1828.00,0.0099
1827.00,0.0101
1826.00,0.0102
1825.00,0.0099
1824.00,0.0097
1823.00,0.0096
1822.00,0.0098
1821.00,0.0099
1820.00,0.0099
1819.00,0.0099
1818.00,0.0097
1817.00,0.0097
1816.00,0.0096
1815.00,0.0097
1814.00,0.0098
1813.00,0.0100
1812.00,0.0101
1811.00,0.0101
1810.00,0.0100
1809.00,0.0101
1808.00,0.0102
1807.00,0.0103
1806.00,0.0105
1805.00,0.0107
1804.00,0.0109
1803.00,0.0111
1802.00,0.0111
1801.00,0.0110
1800.00,0.0110
1799.00,0.0110
1798.00,0.0111
1797.00,0.0114
1796.00,0.0117
1795.00,0.0120
1794.00,0.0122
1793.00,0.0122
1792.00,0.0120
1791.00,0.0119
1790.00,0.0120
1789.00,0.0124
1788.00,0.0129
1787.00,0.0133
1786.00,0.0135
1785.00,0.0137
1784.00,0.0139
1783.00,0.0142
1782.00,0.0146
1781.00,0.0148
1780.00,0.0150
1779.00,0.0152
1778.00,0.0155
1777.00,0.0159
1776.00,0.0164
1775.00,0.0168
1774.00,0.0172
1773.00,0.0171
1772.00,0.0169
1771.00,0.0170
1770.00,0.0174
1769.00,0.0180
1768.00,0.0185
1767.00,0.0187
1766.00,0.0190
1765.00,0.0196
1764.00,0.0203
1763.00,0.0206
1762.00,0.0207
1761.00,0.0207
1760.00,0.0211
1759.00,0.0217
1758.00,0.0222
1757.00,0.0225
1756.00,0.0228
1755.00,0.0232
1754.00,0.0239
1753.00,0.0245
1752.00,0.0249
1751.00,0.0251
1750.00,0.0254
1749.00,0.0259
1748.00,0.0264
1747.00,0.0269
1746.00,0.0274
1745.00,0.0279
1744.00,0.0285
1743.00,0.0288
1742.00,0.0292
1741.00,0.0296
1740.00,0.0299
1739.00,0.0300
1738.00,0.0303
1737.00,0.0311
1736.00,0.0319
1735.00,0.0323
1734.00,0.0323
1733.00,0.0324
1732.00,0.0331
1731.00,0.0340
1730.00,0.0348
1729.00,0.0353
1728.00,0.0358
1727.00,0.0364
1726.00,0.0370
1725.00,0.0376
1724.00,0.0382
1723.00,0.0387
1722.00,0.0391
1721.00,0.0396
1720.00,0.0402
1719.00,0.0406
1718.00,0.0408
1717.00,0.0413
1716.00,0.0419
1715.00,0.0425
1714.00,0.0431
1713.00,0.0437
1712.00,0.0443
1711.00,0.0448
1710.00,0.0452
1709.00,0.0456
1708.00,0.0461
1707.00,0.0465
1706.00,0.0469
1705.00,0.0471
1704.00,0.0473
1703.00,0.0477
1702.00,0.0482
1701.00,0.0482
1700.00,0.0479
1699.00,0.0479
1698.00,0.0486
1697.00,0.0495
1696.00,0.0499
1695.00,0.0499
1694.00,0.0500
1693.00,0.0505
1692.00,0.0512
1691.00,0.0516
1690.00,0.0520
1689.00,0.0522
1688.00,0.0524
1687.00,0.0526
1686.00,0.0528
1685.00,0.0528
1684.00,0.0530
1683.00,0.0531
1682.00,0.0535
1681.00,0.0540
1680.00,0.0543
1679.00,0.0546
1678.00,0.0548
1677.00,0.0552
1676.00,0.0555
1675.00,0.0556
1674.00,0.0556
1673.00,0.0559
1672.00,0.0563
1671.00,0.0568
1670.00,0.0571
1669.00,0.0574
1668.00,0.0576
1667.00,0.0578
1666.00,0.0581
1665.00,0.0584
1664.00,0.0587
1663.00,0.0590
1662.00,0.0593
1661.00,0.0597
1660.00,0.0601
1659.00,0.0605
1658.00,0.0608
1657.00,0.0609
1656.00,0.0610
1655.00,0.0611
1654.00,0.0611
1653.00,0.0615
1652.00,0.0617
1651.00,0.0620
1650.00,0.0627
1649.00,0.0634
1648.00,0.0641
1647.00,0.0647
1646.00,0.0651
1645.00,0.0655
1644.00,0.0659
1643.00,0.0663
1642.00,0.0667
1641.00,0.0670
1640.00,0.0672
1639.00,0.0674
1638.00,0.0677
1637.00,0.0683
1636.00,0.0691
1635.00,0.0697
1634.00,0.0700
1633.00,0.0702
1632.00,0.0705
1631.00,0.0708
1630.00,0.0712
1629.00,0.0717
1628.00,0.0721
1627.00,0.0725
1626.00,0.0729
1625.00,0.0734
1624.00,0.0741
1623.00,0.0747
1622.00,0.0750
1621.00,0.0752
1620.00,0.0754
1619.00,0.0756
1618.00,0.0759
1617.00,0.0764
1616.00,0.0770
1615.00,0.0774
1614.00,0.0779
1613.00,0.0783
1612.00,0.0787
1611.00,0.0791
1610.00,0.0795
1609.00,0.0800
1608.00,0.0804
1607.00,0.0809
1606.00,0.0813
1605.00,0.0817
1604.00,0.0821
1603.00,0.0825
1602.00,0.0828
1601.00,0.0830
1600.00,0.0833
1599.00,0.0836
1598.00,0.0840
1597.00,0.0844
1596.00,0.0849
1595.00,0.0854
1594.00,0.0858
1593.00,0.0861
1592.00,0.0864
1591.00,0.0867
1590.00,0.0870
1589.00,0.0873
1588.00,0.0877
1587.00,0.0881
1586.00,0.0884
1585.00,0.0887
1584.00,0.0890
1583.00,0.0893
1582.00,0.0896
1581.00,0.0898
1580.00,0.0898
1579.00,0.0899
1578.00,0.0902
1577.00,0.0907
1576.00,0.0913
1575.00,0.0916
1574.00,0.0915
1573.00,0.0914
1572.00,0.0914
1571.00,0.0916
1570.00,0.0920
1569.00,0.0923
1568.00,0.0924
1567.00,0.0924
1566.00,0.0925
1565.00,0.0924
1564.00,0.0922
1563.00,0.0918
1562.00,0.0913
1561.00,0.0906
1560.00,0.0906
1559.00,0.0917
1558.00,0.0921
1557.00,0.0916
1556.00,0.0914
1555.00,0.0914
1554.00,0.0913
1553.00,0.0911
1552.00,0.0909
1551.00,0.0908
1550.00,0.0905
1549.00,0.0900
1548.00,0.0895
1547.00,0.0890
1546.00,0.0885
1545.00,0.0881
1544.00,0.0876
1543.00,0.0870
1542.00,0.0864
1541.00,0.0862
1540.00,0.0863
1539.00,0.0860
1538.00,0.0853
1537.00,0.0847
1536.00,0.0842
1535.00,0.0838
1534.00,0.0832
1533.00,0.0826
1532.00,0.0820
1531.00,0.0813
1530.00,0.0808
1529.00,0.0803
1528.00,0.0798
1527.00,0.0793
1526.00,0.0785
1525.00,0.0778
1524.00,0.0773
1523.00,0.0769
1522.00,0.0765
1521.00,0.0761
1520.00,0.0758
1519.00,0.0756
1518.00,0.0755
1517.00,0.0752
1516.00,0.0748
1515.00,0.0743
1514.00,0.0739
1513.00,0.0735
1512.00,0.0732
1511.00,0.0728
1510.00,0.0724
1509.00,0.0721
1508.00,0.0719
1507.00,0.0716
1506.00,0.0710
1505.00,0.0704
1504.00,0.0701
1503.00,0.0700
1502.00,0.0698
1501.00,0.0695
1500.00,0.0692
1499.00,0.0689
1498.00,0.0687
1497.00,0.0686
1496.00,0.0686
1495.00,0.0684
1494.00,0.0682
1493.00,0.0680
1492.00,0.0680
1491.00,0.0681
1490.00,0.0681
1489.00,0.0682
1488.00,0.0681
1487.00,0.0680
1486.00,0.0678
1485.00,0.0677
1484.00,0.0677
1483.00,0.0677
1482.00,0.0678
1481.00,0.0679
1480.00,0.0679
1479.00,0.0679
1478.00,0.0679
1477.00,0.0680
1476.00,0.0681
1475.00,0.0682
1474.00,0.0684
1473.00,0.0689
1472.00,0.0693
1471.00,0.0697
1470.00,0.0699
1469.00,0.0702
1468.00,0.0705
1467.00,0.0708
1466.00,0.0710
1465.00,0.0712
1464.00,0.0714
1463.00,0.0715
1462.00,0.0715
1461.00,0.0715
1460.00,0.0716
1459.00,0.0717
1458.00,0.0720
1457.00,0.0725
1456.00,0.0727
1455.00,0.0728
1454.00,0.0729
1453.00,0.0732
1452.00,0.0734
1451.00,0.0735
1450.00,0.0737
1449.00,0.0740
1448.00,0.0743
1447.00,0.0745
1446.00,0.0747
1445.00,0.0747
1444.00,0.0748
1443.00,0.0749
1442.00,0.0750
1441.00,0.0750
1440.00,0.0751
1439.00,0.0753
1438.00,0.0755
1437.00,0.0759
1436.00,0.0762
1435.00,0.0764
1434.00,0.0766
1433.00,0.0767
1432.00,0.0769
1431.00,0.0770
1430.00,0.0772
1429.00,0.0774
1428.00,0.0775
1427.00,0.0776
1426.00,0.0778
1425.00,0.0780
1424.00,0.0783
1423.00,0.0784
1422.00,0.0784
1421.00,0.0785
1420.00,0.0789
1419.00,0.0794
1418.00,0.0798
1417.00,0.0801
1416.00,0.0803
1415.00,0.0804
1414.00,0.0804
1413.00,0.0804
1412.00,0.0806
1411.00,0.0808
1410.00,0.0809
1409.00,0.0810
1408.00,0.0811
1407.00,0.0813
1406.00,0.0815
1405.00,0.0817
1404.00,0.0819
1403.00,0.0819
1402.00,0.0819
1401.00,0.0820
1400.00,0.0821
1399.00,0.0824
1398.00,0.0826
1397.00,0.0828
1396.00,0.0830
1395.00,0.0832
1394.00,0.0833
1393.00,0.0834
1392.00,0.0834
1391.00,0.0835
1390.00,0.0836
1389.00,0.0838
1388.00,0.0840
1387.00,0.0843
1386.00,0.0845
1385.00,0.0846
1384.00,0.0847
1383.00,0.0848
1382.00,0.0850
1381.00,0.0852
1380.00,0.0855
1379.00,0.0856
1378.00,0.0857
1377.00,0.0859
1376.00,0.0861
1375.00,0.0865
1374.00,0.0867
1373.00,0.0868
1372.00,0.0868
1371.00,0.0868
1370.00,0.0868
1369.00,0.0869
1368.00,0.0870
1367.00,0.0869
1366.00,0.0868
1365.00,0.0867
1364.00,0.0868
1363.00,0.0870
1362.00,0.0872
1361.00,0.0872
1360.00,0.0871
1359.00,0.0870
1358.00,0.0869
1357.00,0.0869
1356.00,0.0869
1355.00,0.0869
1354.00,0.0868
1353.00,0.0867
1352.00,0.0866
1351.00,0.0864
1350.00,0.0863
1349.00,0.0862
1348.00,0.0861
1347.00,0.0861
1346.00,0.0859
1345.00,0.0858
1344.00,0.0857
1343.00,0.0856
1342.00,0.0855
1341.00,0.0856
1340.00,0.0858
1339.00,0.0859
1338.00,0.0858
1337.00,0.0856
1336.00,0.0853
1335.00,0.0851
1334.00,0.0850
1333.00,0.0849
1332.00,0.0848
1331.00,0.0847
1330.00,0.0846
1329.00,0.0845
1328.00,0.0843
1327.00,0.0842
1326.00,0.0841
1325.00,0.0840
1324.00,0.0840
1323.00,0.0840
1322.00,0.0840
1321.00,0.0840
1320.00,0.0840
1319.00,0.0839
1318.00,0.0837
1317.00,0.0834
1316.00,0.0832
1315.00,0.0831
1314.00,0.0830
1313.00,0.0830
1312.00,0.0830
1311.00,0.0830
1310.00,0.0829
1309.00,0.0829
1308.00,0.0828
1307.00,0.0827
1306.00,0.0826
1305.00,0.0825
1304.00,0.0825
1303.00,0.0826
1302.00,0.0826
1301.00,0.0825
1300.00,0.0824
1299.00,0.0823
1298.00,0.0822
1297.00,0.0821
1296.00,0.0820
1295.00,0.0820
1294.00,0.0821
1293.00,0.0821
1292.00,0.0821
1291.00,0.0822
1290.00,0.0822
1289.00,0.0822
1288.00,0.0822
1287.00,0.0822
1286.00,0.0821
1285.00,0.0820
1284.00,0.0821
1283.00,0.0821
1282.00,0.0821
1281.00,0.0821
1280.00,0.0821
1279.00,0.0820
1278.00,0.0819
1277.00,0.0819
1276.00,0.0819
1275.00,0.0819
1274.00,0.0819
1273.00,0.0818
1272.00,0.0818
1271.00,0.0819
1270.00,0.0820
1269.00,0.0820
1268.00,0.0821
1267.00,0.0821
1266.00,0.0821
1265.00,0.0821
1264.00,0.0821
1263.00,0.0820
1262.00,0.0819
1261.00,0.0818
1260.00,0.0819
1259.00,0.0819
1258.00,0.0820
1257.00,0.0819
1256.00,0.0818
1255.00,0.0817
1254.00,0.0816
1253.00,0.0816
1252.00,0.0816
1251.00,0.0815
1250.00,0.0814
1249.00,0.0813
1248.00,0.0813
1247.00,0.0814
1246.00,0.0814
1245.00,0.0815
1244.00,0.0815
1243.00,0.0815
1242.00,0.0813
1241.00,0.0812
1240.00,0.0812
1239.00,0.0812
1238.00,0.0812
1237.00,0.0812
1236.00,0.0812
1235.00,0.0811
1234.00,0.0811
1233.00,0.0810
1232.00,0.0810
1231.00,0.0810
1230.00,0.0809
1229.00,0.0809
1228.00,0.0809
1227.00,0.0809
1226.00,0.0808
1225.00,0.0806
1224.00,0.0804
1223.00,0.0803
1222.00,0.0803
1221.00,0.0804
1220.00,0.0804
1219.00,0.0804
1218.00,0.0803
1217.00,0.0803
1216.00,0.0802
1215.00,0.0802
1214.00,0.0801
1213.00,0.0801
1212.00,0.0801
1211.00,0.0802
1210.00,0.0802
1209.00,0.0803
1208.00,0.0803
1207.00,0.0802
1206.00,0.0801
1205.00,0.0800
1204.00,0.0799
1203.00,0.0798
1202.00,0.0798
1201.00,0.0797
1200.00,0.0797
1199.00,0.0797
1198.00,0.0796
1197.00,0.0795
1196.00,0.0794
1195.00,0.0793
1194.00,0.0792
1193.00,0.0792
1192.00,0.0792
1191.00,0.0791
1190.00,0.0789
1189.00,0.0787
1188.00,0.0786
1187.00,0.0785
1186.00,0.0785
1185.00,0.0785
1184.00,0.0784
1183.00,0.0783
1182.00,0.0782
1181.00,0.0781
1180.00,0.0780
1179.00,0.0780
1178.00,0.0780
1177.00,0.0780
1176.00,0.0781
1175.00,0.0782
1174.00,0.0784
1173.00,0.0784
1172.00,0.0784
1171.00,0.0783
1170.00,0.0782
1169.00,0.0782
1168.00,0.0782
1167.00,0.0782
1166.00,0.0782
1165.00,0.0782
1164.00,0.0782
1163.00,0.0782
1162.00,0.0781
1161.00,0.0781
1160.00,0.0781
1159.00,0.0780
1158.00,0.0779
1157.00,0.0779
1156.00,0.0780
1155.00,0.0781
1154.00,0.0781
1153.00,0.0781
1152.00,0.0779
1151.00,0.0778
1150.00,0.0777
1149.00,0.0776
1148.00,0.0776
1147.00,0.0776
1146.00,0.0776
1145.00,0.0775
1144.00,0.0776
1143.00,0.0776
1142.00,0.0776
1141.00,0.0776
1140.00,0.0775
1139.00,0.0775
1138.00,0.0774
1137.00,0.0774
1136.00,0.0775
1135.00,0.0777
1134.00,0.0778
1133.00,0.0779
1132.00,0.0778
1131.00,0.0778
1130.00,0.0778
1129.00,0.0780
1128.00,0.0783
1127.00,0.0785
1126.00,0.0785
1125.00,0.0785
1124.00,0.0787
1123.00,0.0791
1122.00,0.0796
1121.00,0.0801
1120.00,0.0805
1119.00,0.0808
1118.00,0.0809
1117.00,0.0811
1116.00,0.0813
1115.00,0.0815
1114.00,0.0817
1113.00,0.0817
1112.00,0.0818
1111.00,0.0819
1110.00,0.0821
1109.00,0.0823
1108.00,0.0824
1107.00,0.0824
1106.00,0.0824
1105.00,0.0825
1104.00,0.0827
1103.00,0.0829
1102.00,0.0831
1101.00,0.0831
1100.00,0.0831
1099.00,0.0831
1098.00,0.0831
1097.00,0.0831
1096.00,0.0831
1095.00,0.0831
1094.00,0.0831
1093.00,0.0832
1092.00,0.0835
1091.00,0.0836
1090.00,0.0836
1089.00,0.0834
1088.00,0.0832
1087.00,0.0832
1086.00,0.0834
1085.00,0.0837
1084.00,0.0839
1083.00,0.0842
1082.00,0.0844
1081.00,0.0846
1080.00,0.0848
1079.00,0.0850
1078.00,0.0853
1077.00,0.0855
1076.00,0.0855
1075.00,0.0853
1074.00,0.0850
1073.00,0.0849
1072.00,0.0848
1071.00,0.0848
1070.00,0.0846
1069.00,0.0844
1068.00,0.0843
1067.00,0.0844
1066.00,0.0845
1065.00,0.0848
1064.00,0.0851
1063.00,0.0853
1062.00,0.0853
1061.00,0.0851
1060.00,0.0848
1059.00,0.0847
1058.00,0.0847
1057.00,0.0848
1056.00,0.0849
1055.00,0.0850
1054.00,0.0851
1053.00,0.0853
1052.00,0.0854
1051.00,0.0855
1050.00,0.0857
1049.00,0.0859
1048.00,0.0861
1047.00,0.0863
1046.00,0.0864
1045.00,0.0864
1044.00,0.0864
1043.00,0.0865
1042.00,0.0864
1041.00,0.0862
1040.00,0.0862
1039.00,0.0863
1038.00,0.0866
1037.00,0.0868
1036.00,0.0869
1035.00,0.0869
1034.00,0.0869
1033.00,0.0869
1032.00,0.0869
1031.00,0.0867
1030.00,0.0864
1029.00,0.0860
1028.00,0.0856
1027.00,0.0853
1026.00,0.0850
1025.00,0.0848
1024.00,0.0846
1023.00,0.0842
1022.00,0.0838
1021.00,0.0835
1020.00,0.0832
1019.00,0.0830
1018.00,0.0828
1017.00,0.0827
1016.00,0.0827
1015.00,0.0827
1014.00,0.0828
1013.00,0.0827
1012.00,0.0827
1011.00,0.0826
1010.00,0.0826
1009.00,0.0825
1008.00,0.0823
1007.00,0.0821
1006.00,0.0819
1005.00,0.0818
1004.00,0.0817
1003.00,0.0815
1002.00,0.0813
1001.00,0.0808
1000.00,0.0803
999.00,0.0796
998.00,0.0791
997.00,0.0787
996.00,0.0784
995.00,0.0782
994.00,0.0778
993.00,0.0773
992.00,0.0768
991.00,0.0763
990.00,0.0759
989.00,0.0756
988.00,0.0754
987.00,0.0753
986.00,0.0752
985.00,0.0750
984.00,0.0747
983.00,0.0742
982.00,0.0738
981.00,0.0735
980.00,0.0734
979.00,0.0732
978.00,0.0729
977.00,0.0726
976.00,0.0722
975.00,0.0720
974.00,0.0718
973.00,0.0717
972.00,0.0715
971.00,0.0713
970.00,0.0709
969.00,0.0706
968.00,0.0703
967.00,0.0700
966.00,0.0698
965.00,0.0696
964.00,0.0694
963.00,0.0694
962.00,0.0694
961.00,0.0694
960.00,0.0694
959.00,0.0692
958.00,0.0690
957.00,0.0688
956.00,0.0687
955.00,0.0685
954.00,0.0683
953.00,0.0682
952.00,0.0682
951.00,0.0684
950.00,0.0685
949.00,0.0685
948.00,0.0684
947.00,0.0682
946.00,0.0680
945.00,0.0679
944.00,0.0679
943.00,0.0679
942.00,0.0679
941.00,0.0679
940.00,0.0680
939.00,0.0681
938.00,0.0682
937.00,0.0683
936.00,0.0682
935.00,0.0681
934.00,0.0681
933.00,0.0682
932.00,0.0684
931.00,0.0686
930.00,0.0687
929.00,0.0687
928.00,0.0688
927.00,0.0690
926.00,0.0691
925.00,0.0692
924.00,0.0693
923.00,0.0694
922.00,0.0695
921.00,0.0696
920.00,0.0696
919.00,0.0697
918.00,0.0699
917.00,0.0701
916.00,0.0704
915.00,0.0707
914.00,0.0708
913.00,0.0708
912.00,0.0709
911.00,0.0708
910.00,0.0706
909.00,0.0703
908.00,0.0699
907.00,0.0697
906.00,0.0698
905.00,0.0701
904.00,0.0705
903.00,0.0709
902.00,0.0710
901.00,0.0708
900.00,0.0706
899.00,0.0705
898.00,0.0705
897.00,0.0706
896.00,0.0706
895.00,0.0706
894.00,0.0705
893.00,0.0704
892.00,0.0703
891.00,0.0702
890.00,0.0702
889.00,0.0704
888.00,0.0705
887.00,0.0704
886.00,0.0702
885.00,0.0700
884.00,0.0701
883.00,0.0705
882.00,0.0708
881.00,0.0710
880.00,0.0709
879.00,0.0708
878.00,0.0705
877.00,0.0702
876.00,0.0700
875.00,0.0699
874.00,0.0700
873.00,0.0701
872.00,0.0703
871.00,0.0705
870.00,0.0706
869.00,0.0706
868.00,0.0705
867.00,0.0704
866.00,0.0704
865.00,0.0705
864.00,0.0707
863.00,0.0709
862.00,0.0710
861.00,0.0711
860.00,0.0711
859.00,0.0711
858.00,0.0710
857.00,0.0709
856.00,0.0709
855.00,0.0710
854.00,0.0712
853.00,0.0712
852.00,0.0713
851.00,0.0714
850.00,0.0716
849.00,0.0719
848.00,0.0723
847.00,0.0726
846.00,0.0729
845.00,0.0732
844.00,0.0733
843.00,0.0732
842.00,0.0731
841.00,0.0729
840.00,0.0728
839.00,0.0729
838.00,0.0730
837.00,0.0733
836.00,0.0737
835.00,0.0739
834.00,0.0740
833.00,0.0741
832.00,0.0742
831.00,0.0744
830.00,0.0746
829.00,0.0749
828.00,0.0753
827.00,0.0757
826.00,0.0761
825.00,0.0765
824.00,0.0769
823.00,0.0773
822.00,0.0777
821.00,0.0780
820.00,0.0783
819.00,0.0784
818.00,0.0784
817.00,0.0783
816.00,0.0782
815.00,0.0781
814.00,0.0783
813.00,0.0786
812.00,0.0791
811.00,0.0795
810.00,0.0797
809.00,0.0799
808.00,0.0801
807.00,0.0803
806.00,0.0806
805.00,0.0809
804.00,0.0811
803.00,0.0814
802.00,0.0817
801.00,0.0821
800.00,0.0825
799.00,0.0829
798.00,0.0832
797.00,0.0833
796.00,0.0833
795.00,0.0833
794.00,0.0832
793.00,0.0832
792.00,0.0833
791.00,0.0835
790.00,0.0838
789.00,0.0840
788.00,0.0841
787.00,0.0842
786.00,0.0844
785.00,0.0847
784.00,0.0851
783.00,0.0854
782.00,0.0855
781.00,0.0855
780.00,0.0854
779.00,0.0855
778.00,0.0857
777.00,0.0860
776.00,0.0863
775.00,0.0864
774.00,0.0863
773.00,0.0862
772.00,0.0862
771.00,0.0863
770.00,0.0865
769.00,0.0867
768.00,0.0869
767.00,0.0869
766.00,0.0869
765.00,0.0869
764.00,0.0871
763.00,0.0872
762.00,0.0872
761.00,0.0872
760.00,0.0873
759.00,0.0876
758.00,0.0880
757.00,0.0883
756.00,0.0885
755.00,0.0885
754.00,0.0886
753.00,0.0888
752.00,0.0891
751.00,0.0895
750.00,0.0899
749.00,0.0901
748.00,0.0902
747.00,0.0903
746.00,0.0902
745.00,0.0901
744.00,0.0900
743.00,0.0901
742.00,0.0902
741.00,0.0902
740.00,0.0901
739.00,0.0898
738.00,0.0897
737.00,0.0897
736.00,0.0898
735.00,0.0899
734.00,0.0899
733.00,0.0898
732.00,0.0898
731.00,0.0900
730.00,0.0903
729.00,0.0908
728.00,0.0914
727.00,0.0919
726.00,0.0923
725.00,0.0924
724.00,0.0923
723.00,0.0922
722.00,0.0922
721.00,0.0925
720.00,0.0929
719.00,0.0931
718.00,0.0932
717.00,0.0933
716.00,0.0933
715.00,0.0933
714.00,0.0933
713.00,0.0936
712.00,0.0941
711.00,0.0944
710.00,0.0947
709.00,0.0948
708.00,0.0951
707.00,0.0953
706.00,0.0956
705.00,0.0960
704.00,0.0965
703.00,0.0969
702.00,0.0971
701.00,0.0971
700.00,0.0971
699.00,0.0973
698.00,0.0977
697.00,0.0982
696.00,0.0987
695.00,0.0990
694.00,0.0994
693.00,0.0997
692.00,0.0999
691.00,0.1002
690.00,0.1004
689.00,0.1006
688.00,0.1009
687.00,0.1009
686.00,0.1008
685.00,0.1007
684.00,0.1006
683.00,0.1004
682.00,0.1003
681.00,0.1005
680.00,0.1009
679.00,0.1014
678.00,0.1016
677.00,0.1019
676.00,0.1023
675.00,0.1027
674.00,0.1027
673.00,0.1027
672.00,0.1028
671.00,0.1030
670.00,0.1033
669.00,0.1040
668.00,0.1050
667.00,0.1057
666.00,0.1060
665.00,0.1061
664.00,0.1062
663.00,0.1060
662.00,0.1055
661.00,0.1048
660.00,0.1042
659.00,0.1039
658.00,0.1042
657.00,0.1050
656.00,0.1060
655.00,0.1065
654.00,0.1064
653.00,0.1061
652.00,0.1058
651.00,0.1057
650.00,0.1058
