Created as New Dataset,Monday, April 03 2023
cm-1,A
4000.00,0.0254
3999.00,0.0255
3998.00,0.0254
3997.00,0.0254
3996.00,0.0254
3995.00,0.0253
3994.00,0.0253
3993.00,0.0253
3992.00,0.0253
3991.00,0.0253
3990.00,0.0253
3989.00,0.0253
3988.00,0.0253
3987.00,0.0253
3986.00,0.0253
3985.00,0.0253
3984.00,0.0253
3983.00,0.0253
3982.00,0.0253
3981.00,0.0252
3980.00,0.0252
3979.00,0.0252
3978.00,0.0252
3977.00,0.0251
3976.00,0.0251
3975.00,0.0251
3974.00,0.0251
3973.00,0.0252
3972.00,0.0252
3971.00,0.0253
3970.00,0.0253
3969.00,0.0253
3968.00,0.0253
3967.00,0.0252
3966.00,0.0251
3965.00,0.0251
3964.00,0.0251
3963.00,0.0252
3962.00,0.0253
3961.00,0.0253
3960.00,0.0252
3959.00,0.0251
3958.00,0.0251
3957.00,0.0250
3956.00,0.0250
3955.00,0.0250
3954.00,0.0249
3953.00,0.0249
3952.00,0.0250
3951.00,0.0251
3950.00,0.0252
3949.00,0.0253
3948.00,0.0254
3947.00,0.0254
3946.00,0.0254
3945.00,0.0254
3944.00,0.0253
3943.00,0.0252
3942.00,0.0251
3941.00,0.0250
3940.00,0.0250
3939.00,0.0250
3938.00,0.0250
3937.00,0.0250
3936.00,0.0250
3935.00,0.0250
3934.00,0.0250
3933.00,0.0250
3932.00,0.0251
3931.00,0.0251
3930.00,0.0252
3929.00,0.0252
3928.00,0.0252
3927.00,0.0252
3926.00,0.0252
3925.00,0.0251
3924.00,0.0251
3923.00,0.0252
3922.00,0.0252
3921.00,0.0252
3920.00,0.0251
3919.00,0.0251
3918.00,0.0252
3917.00,0.0252
3916.00,0.0252
3915.00,0.0251
3914.00,0.0251
3913.00,0.0250
3912.00,0.0249
3911.00,0.0248
3910.00,0.0248
3909.00,0.0248
3908.00,0.0249
3907.00,0.0250
3906.00,0.0251
3905.00,0.0252
3904.00,0.0252
3903.00,0.0254
3902.00,0.0256
3901.00,0.0257
3900.00,0.0256
3899.00,0.0255
3898.00,0.0253
3897.00,0.0251
3896.00,0.0251
3895.00,0.0250
3894.00,0.0250
3893.00,0.0250
3892.00,0.0249
3891.00,0.0248
3890.00,0.0247
3889.00,0.0248
3888.00,0.0249
3887.00,0.0248
3886.00,0.0247
3885.00,0.0246
3884.00,0.0248
3883.00,0.0250
3882.00,0.0250
3881.00,0.0249
3880.00,0.0247
3879.00,0.0247
3878.00,0.0249
3877.00,0.0251
3876.00,0.0251
3875.00,0.0249
3874.00,0.0248
3873.00,0.0249
3872.00,0.0251
3871.00,0.0251
3870.00,0.0249
3869.00,0.0248
3868.00,0.0249
3867.00,0.0251
3866.00,0.0251
3865.00,0.0250
3864.00,0.0251
3863.00,0.0252
3862.00,0.0252
3861.00,0.0251
3860.00,0.0250
3859.00,0.0249
3858.00,0.0249
3857.00,0.0249
3856.00,0.0248
3855.00,0.0246
3854.00,0.0245
3853.00,0.0246
3852.00,0.0248
3851.00,0.0250
3850.00,0.0249
3849.00,0.0248
3848.00,0.0246
3847.00,0.0245
3846.00,0.0245
3845.00,0.0246
3844.00,0.0246
3843.00,0.0246
3842.00,0.0247
3841.00,0.0249
3840.00,0.0251
3839.00,0.0251
3838.00,0.0251
3837.00,0.0250
3836.00,0.0249
3835.00,0.0249
3834.00,0.0249
3833.00,0.0249
3832.00,0.0248
3831.00,0.0247
3830.00,0.0247
3829.00,0.0247
3828.00,0.0247
3827.00,0.0245
3826.00,0.0244
3825.00,0.0246
3824.00,0.0249
3823.00,0.0251
3822.00,0.0250
3821.00,0.0248
3820.00,0.0248
3819.00,0.0249
3818.00,0.0250
3817.00,0.0248
3816.00,0.0245
3815.00,0.0244
3814.00,0.0245
3813.00,0.0246
3812.00,0.0245
3811.00,0.0243
3810.00,0.0242
3809.00,0.0243
3808.00,0.0243
3807.00,0.0242
3806.00,0.0243
3805.00,0.0246
3804.00,0.0249
3803.00,0.0250
3802.00,0.0247
3801.00,0.0246
3800.00,0.0246
3799.00,0.0248
3798.00,0.0248
3797.00,0.0246
3796.00,0.0244
3795.00,0.0244
3794.00,0.0244
3793.00,0.0244
3792.00,0.0244
3791.00,0.0243
3790.00,0.0242
3789.00,0.0243
3788.00,0.0243
3787.00,0.0244
3786.00,0.0245
3785.00,0.0245
3784.00,0.0245
3783.00,0.0245
3782.00,0.0245
3781.00,0.0244
3780.00,0.0243
3779.00,0.0242
3778.00,0.0242
3777.00,0.0242
3776.00,0.0243
3775.00,0.0242
3774.00,0.0241
3773.00,0.0242
3772.00,0.0242
3771.00,0.0242
3770.00,0.0242
3769.00,0.0242
3768.00,0.0243
3767.00,0.0243
3766.00,0.0243
3765.00,0.0242
3764.00,0.0242
3763.00,0.0243
3762.00,0.0244
3761.00,0.0243
3760.00,0.0242
3759.00,0.0242
3758.00,0.0242
3757.00,0.0242
3756.00,0.0242
3755.00,0.0242
3754.00,0.0241
3753.00,0.0239
3752.00,0.0238
3751.00,0.0240
3750.00,0.0241
3749.00,0.0242
3748.00,0.0245
3747.00,0.0249
3746.00,0.0250
3745.00,0.0246
3744.00,0.0242
3743.00,0.0240
3742.00,0.0242
3741.00,0.0244
3740.00,0.0244
3739.00,0.0244
3738.00,0.0245
3737.00,0.0246
3736.00,0.0246
3735.00,0.0247
3734.00,0.0247
3733.00,0.0246
3732.00,0.0243
3731.00,0.0241
3730.00,0.0240
3729.00,0.0241
3728.00,0.0241
3727.00,0.0240
3726.00,0.0240
3725.00,0.0241
3724.00,0.0241
3723.00,0.0241
3722.00,0.0240
3721.00,0.0240
3720.00,0.0240
3719.00,0.0240
3718.00,0.0239
3717.00,0.0238
3716.00,0.0237
3715.00,0.0238
3714.00,0.0239
3713.00,0.0239
3712.00,0.0240
3711.00,0.0242
3710.00,0.0242
3709.00,0.0241
3708.00,0.0240
3707.00,0.0239
3706.00,0.0240
3705.00,0.0240
3704.00,0.0240
3703.00,0.0239
3702.00,0.0238
3701.00,0.0238
3700.00,0.0238
3699.00,0.0239
3698.00,0.0239
3697.00,0.0238
3696.00,0.0237
3695.00,0.0237
3694.00,0.0238
3693.00,0.0238
3692.00,0.0239
3691.00,0.0241
3690.00,0.0244
3689.00,0.0244
3688.00,0.0243
3687.00,0.0241
3686.00,0.0239
3685.00,0.0238
3684.00,0.0237
3683.00,0.0235
3682.00,0.0234
3681.00,0.0234
3680.00,0.0233
3679.00,0.0234
3678.00,0.0235
3677.00,0.0236
3676.00,0.0235
3675.00,0.0234
3674.00,0.0235
3673.00,0.0237
3672.00,0.0238
3671.00,0.0238
3670.00,0.0237
3669.00,0.0238
3668.00,0.0238
3667.00,0.0238
3666.00,0.0236
3665.00,0.0235
3664.00,0.0234
3663.00,0.0233
3662.00,0.0233
3661.00,0.0234
3660.00,0.0235
3659.00,0.0236
3658.00,0.0238
3657.00,0.0238
3656.00,0.0237
3655.00,0.0238
3654.00,0.0241
3653.00,0.0243
3652.00,0.0244
3651.00,0.0242
3650.00,0.0243
3649.00,0.0246
3648.00,0.0248
3647.00,0.0247
3646.00,0.0246
3645.00,0.0244
3644.00,0.0243
3643.00,0.0243
3642.00,0.0242
3641.00,0.0242
3640.00,0.0242
3639.00,0.0243
3638.00,0.0243
3637.00,0.0243
3636.00,0.0244
3635.00,0.0244
3634.00,0.0245
3633.00,0.0246
3632.00,0.0247
3631.00,0.0249
3630.00,0.0249
3629.00,0.0250
3628.00,0.0251
3627.00,0.0252
3626.00,0.0252
3625.00,0.0251
3624.00,0.0250
3623.00,0.0250
3622.00,0.0251
3621.00,0.0253
3620.00,0.0255
3619.00,0.0257
3618.00,0.0257
3617.00,0.0257
3616.00,0.0258
3615.00,0.0257
3614.00,0.0257
3613.00,0.0257
3612.00,0.0257
3611.00,0.0258
3610.00,0.0259
3609.00,0.0259
3608.00,0.0260
3607.00,0.0260
3606.00,0.0259
3605.00,0.0259
3604.00,0.0258
3603.00,0.0258
3602.00,0.0258
3601.00,0.0260
3600.00,0.0261
3599.00,0.0261
3598.00,0.0262
3597.00,0.0262
3596.00,0.0262
3595.00,0.0263
3594.00,0.0263
3593.00,0.0262
3592.00,0.0262
3591.00,0.0262
3590.00,0.0263
3589.00,0.0264
3588.00,0.0266
3587.00,0.0268
3586.00,0.0269
3585.00,0.0269
3584.00,0.0268
3583.00,0.0267
3582.00,0.0265
3581.00,0.0265
3580.00,0.0265
3579.00,0.0265
3578.00,0.0266
3577.00,0.0267
3576.00,0.0268
3575.00,0.0268
3574.00,0.0268
3573.00,0.0269
3572.00,0.0269
3571.00,0.0269
3570.00,0.0270
3569.00,0.0272
3568.00,0.0275
3567.00,0.0278
3566.00,0.0280
3565.00,0.0279
3564.00,0.0278
3563.00,0.0276
3562.00,0.0275
3561.00,0.0274
3560.00,0.0275
3559.00,0.0275
3558.00,0.0276
3557.00,0.0276
3556.00,0.0277
3555.00,0.0277
3554.00,0.0278
3553.00,0.0278
3552.00,0.0279
3551.00,0.0281
3550.00,0.0281
3549.00,0.0282
3548.00,0.0283
3547.00,0.0284
3546.00,0.0285
3545.00,0.0286
3544.00,0.0286
3543.00,0.0286
3542.00,0.0286
3541.00,0.0285
3540.00,0.0284
3539.00,0.0283
3538.00,0.0282
3537.00,0.0283
3536.00,0.0283
3535.00,0.0284
3534.00,0.0285
3533.00,0.0286
3532.00,0.0287
3531.00,0.0287
3530.00,0.0288
3529.00,0.0288
3528.00,0.0288
3527.00,0.0289
3526.00,0.0289
3525.00,0.0291
3524.00,0.0293
3523.00,0.0294
3522.00,0.0294
3521.00,0.0293
3520.00,0.0292
3519.00,0.0290
3518.00,0.0289
3517.00,0.0288
3516.00,0.0289
3515.00,0.0289
3514.00,0.0291
3513.00,0.0292
3512.00,0.0294
3511.00,0.0294
3510.00,0.0295
3509.00,0.0294
3508.00,0.0294
3507.00,0.0295
3506.00,0.0295
3505.00,0.0296
3504.00,0.0298
3503.00,0.0299
3502.00,0.0300
3501.00,0.0300
3500.00,0.0300
3499.00,0.0300
3498.00,0.0300
3497.00,0.0300
3496.00,0.0301
3495.00,0.0301
3494.00,0.0300
3493.00,0.0300
3492.00,0.0300
3491.00,0.0300
3490.00,0.0300
3489.00,0.0301
3488.00,0.0301
3487.00,0.0302
3486.00,0.0302
3485.00,0.0302
3484.00,0.0302
3483.00,0.0303
3482.00,0.0304
3481.00,0.0304
3480.00,0.0305
3479.00,0.0305
3478.00,0.0305
3477.00,0.0306
3476.00,0.0306
3475.00,0.0307
3474.00,0.0308
3473.00,0.0308
3472.00,0.0309
3471.00,0.0309
3470.00,0.0309
3469.00,0.0309
3468.00,0.0309
3467.00,0.0310
3466.00,0.0311
3465.00,0.0312
3464.00,0.0312
3463.00,0.0312
3462.00,0.0311
3461.00,0.0310
3460.00,0.0311
3459.00,0.0312
3458.00,0.0313
3457.00,0.0313
3456.00,0.0313
3455.00,0.0312
3454.00,0.0312
3453.00,0.0313
3452.00,0.0314
3451.00,0.0315
3450.00,0.0316
3449.00,0.0316
3448.00,0.0317
3447.00,0.0317
3446.00,0.0318
3445.00,0.0319
3444.00,0.0319
3443.00,0.0319
3442.00,0.0319
3441.00,0.0318
3440.00,0.0317
3439.00,0.0317
3438.00,0.0317
3437.00,0.0317
3436.00,0.0317
3435.00,0.0317
3434.00,0.0317
3433.00,0.0318
3432.00,0.0318
3431.00,0.0319
3430.00,0.0320
3429.00,0.0320
3428.00,0.0320
3427.00,0.0320
3426.00,0.0320
3425.00,0.0321
3424.00,0.0322
3423.00,0.0324
3422.00,0.0324
3421.00,0.0325
3420.00,0.0325
3419.00,0.0325
3418.00,0.0325
3417.00,0.0325
3416.00,0.0324
3415.00,0.0323
3414.00,0.0323
3413.00,0.0324
3412.00,0.0325
3411.00,0.0325
3410.00,0.0326
3409.00,0.0327
3408.00,0.0328
3407.00,0.0328
3406.00,0.0328
3405.00,0.0328
3404.00,0.0327
3403.00,0.0327
3402.00,0.0327
3401.00,0.0328
3400.00,0.0329
3399.00,0.0329
3398.00,0.0329
3397.00,0.0329
3396.00,0.0328
3395.00,0.0328
3394.00,0.0328
3393.00,0.0328
3392.00,0.0329
3391.00,0.0331
3390.00,0.0331
3389.00,0.0331
3388.00,0.0331
3387.00,0.0331
3386.00,0.0330
3385.00,0.0331
3384.00,0.0331
3383.00,0.0332
3382.00,0.0332
3381.00,0.0333
3380.00,0.0334
3379.00,0.0334
3378.00,0.0335
3377.00,0.0334
3376.00,0.0334
3375.00,0.0333
3374.00,0.0333
3373.00,0.0333
3372.00,0.0332
3371.00,0.0332
3370.00,0.0332
3369.00,0.0333
3368.00,0.0334
3367.00,0.0335
3366.00,0.0335
3365.00,0.0335
3364.00,0.0335
3363.00,0.0335
3362.00,0.0335
3361.00,0.0337
3360.00,0.0337
3359.00,0.0338
3358.00,0.0338
3357.00,0.0337
3356.00,0.0337
3355.00,0.0337
3354.00,0.0337
3353.00,0.0338
3352.00,0.0338
3351.00,0.0338
3350.00,0.0338
3349.00,0.0338
3348.00,0.0338
3347.00,0.0338
3346.00,0.0338
3345.00,0.0338
3344.00,0.0337
3343.00,0.0337
3342.00,0.0337
3341.00,0.0338
3340.00,0.0338
3339.00,0.0339
3338.00,0.0340
3337.00,0.0340
3336.00,0.0339
3335.00,0.0339
3334.00,0.0339
3333.00,0.0339
3332.00,0.0338
3331.00,0.0338
3330.00,0.0337
3329.00,0.0337
3328.00,0.0338
3327.00,0.0339
3326.00,0.0339
3325.00,0.0340
3324.00,0.0341
3323.00,0.0341
3322.00,0.0341
3321.00,0.0340
3320.00,0.0340
3319.00,0.0340
3318.00,0.0340
3317.00,0.0340
3316.00,0.0340
3315.00,0.0340
3314.00,0.0340
3313.00,0.0340
3312.00,0.0339
3311.00,0.0339
3310.00,0.0340
3309.00,0.0341
3308.00,0.0341
3307.00,0.0342
3306.00,0.0342
3305.00,0.0341
3304.00,0.0341
3303.00,0.0341
3302.00,0.0342
3301.00,0.0342
3300.00,0.0342
3299.00,0.0342
3298.00,0.0342
3297.00,0.0342
3296.00,0.0343
3295.00,0.0343
3294.00,0.0343
3293.00,0.0343
3292.00,0.0342
3291.00,0.0342
3290.00,0.0342
3289.00,0.0343
3288.00,0.0343
3287.00,0.0343
3286.00,0.0343
3285.00,0.0343
3284.00,0.0344
3283.00,0.0344
3282.00,0.0344
3281.00,0.0343
3280.00,0.0343
3279.00,0.0343
3278.00,0.0343
3277.00,0.0343
3276.00,0.0343
3275.00,0.0343
3274.00,0.0343
3273.00,0.0344
3272.00,0.0344
3271.00,0.0344
3270.00,0.0345
3269.00,0.0345
3268.00,0.0346
3267.00,0.0346
3266.00,0.0345
3265.00,0.0344
3264.00,0.0344
3263.00,0.0343
3262.00,0.0343
3261.00,0.0343
3260.00,0.0344
3259.00,0.0344
3258.00,0.0345
3257.00,0.0344
3256.00,0.0344
3255.00,0.0343
3254.00,0.0343
3253.00,0.0343
3252.00,0.0344
3251.00,0.0344
3250.00,0.0344
3249.00,0.0344
3248.00,0.0344
3247.00,0.0344
3246.00,0.0344
3245.00,0.0345
3244.00,0.0345
3243.00,0.0344
3242.00,0.0344
3241.00,0.0344
3240.00,0.0344
3239.00,0.0344
3238.00,0.0345
3237.00,0.0345
3236.00,0.0346
3235.00,0.0347
3234.00,0.0347
3233.00,0.0347
3232.00,0.0347
3231.00,0.0346
3230.00,0.0346
3229.00,0.0345
3228.00,0.0344
3227.00,0.0344
3226.00,0.0344
3225.00,0.0344
3224.00,0.0344
3223.00,0.0344
3222.00,0.0345
3221.00,0.0345
3220.00,0.0344
3219.00,0.0344
3218.00,0.0344
3217.00,0.0344
3216.00,0.0345
3215.00,0.0346
3214.00,0.0346
3213.00,0.0345
3212.00,0.0344
3211.00,0.0343
3210.00,0.0343
3209.00,0.0343
3208.00,0.0344
3207.00,0.0344
3206.00,0.0344
3205.00,0.0344
3204.00,0.0345
3203.00,0.0345
3202.00,0.0345
3201.00,0.0344
3200.00,0.0344
3199.00,0.0344
3198.00,0.0344
3197.00,0.0344
3196.00,0.0344
3195.00,0.0344
3194.00,0.0343
3193.00,0.0343
3192.00,0.0343
3191.00,0.0343
3190.00,0.0343
3189.00,0.0342
3188.00,0.0342
3187.00,0.0341
3186.00,0.0341
3185.00,0.0342
3184.00,0.0342
3183.00,0.0343
3182.00,0.0343
3181.00,0.0343
3180.00,0.0342
3179.00,0.0341
3178.00,0.0341
3177.00,0.0340
3176.00,0.0340
3175.00,0.0340
3174.00,0.0340
3173.00,0.0340
3172.00,0.0340
3171.00,0.0340
3170.00,0.0340
3169.00,0.0339
3168.00,0.0339
3167.00,0.0339
3166.00,0.0340
3165.00,0.0340
3164.00,0.0341
3163.00,0.0341
3162.00,0.0341
3161.00,0.0340
3160.00,0.0338
3159.00,0.0337
3158.00,0.0336
3157.00,0.0336
3156.00,0.0336
3155.00,0.0337
3154.00,0.0337
3153.00,0.0338
3152.00,0.0338
3151.00,0.0338
3150.00,0.0337
3149.00,0.0337
3148.00,0.0337
3147.00,0.0337
3146.00,0.0337
3145.00,0.0336
3144.00,0.0336
3143.00,0.0336
3142.00,0.0336
3141.00,0.0336
3140.00,0.0335
3139.00,0.0335
3138.00,0.0336
3137.00,0.0336
3136.00,0.0337
3135.00,0.0336
3134.00,0.0336
3133.00,0.0335
3132.00,0.0335
3131.00,0.0335
3130.00,0.0335
3129.00,0.0335
3128.00,0.0335
3127.00,0.0334
3126.00,0.0334
3125.00,0.0334
3124.00,0.0333
3123.00,0.0333
3122.00,0.0333
3121.00,0.0333
3120.00,0.0333
3119.00,0.0333
3118.00,0.0333
3117.00,0.0333
3116.00,0.0333
3115.00,0.0332
3114.00,0.0332
3113.00,0.0332
3112.00,0.0332
3111.00,0.0332
3110.00,0.0332
3109.00,0.0332
3108.00,0.0332
3107.00,0.0332
3106.00,0.0332
3105.00,0.0332
3104.00,0.0332
3103.00,0.0332
3102.00,0.0331
3101.00,0.0331
3100.00,0.0331
3099.00,0.0330
3098.00,0.0330
3097.00,0.0330
3096.00,0.0331
3095.00,0.0331
3094.00,0.0332
3093.00,0.0332
3092.00,0.0332
3091.00,0.0331
3090.00,0.0330
3089.00,0.0329
3088.00,0.0328
3087.00,0.0328
3086.00,0.0328
3085.00,0.0329
3084.00,0.0329
3083.00,0.0329
3082.00,0.0329
3081.00,0.0329
3080.00,0.0329
3079.00,0.0329
3078.00,0.0329
3077.00,0.0329
3076.00,0.0328
3075.00,0.0328
3074.00,0.0328
3073.00,0.0328
3072.00,0.0328
3071.00,0.0328
3070.00,0.0328
3069.00,0.0328
3068.00,0.0328
3067.00,0.0328
3066.00,0.0328
3065.00,0.0327
3064.00,0.0327
3063.00,0.0326
3062.00,0.0326
3061.00,0.0326
3060.00,0.0326
3059.00,0.0326
3058.00,0.0326
3057.00,0.0326
3056.00,0.0326
3055.00,0.0325
3054.00,0.0325
3053.00,0.0325
3052.00,0.0325
3051.00,0.0325
3050.00,0.0325
3049.00,0.0326
3048.00,0.0326
3047.00,0.0326
3046.00,0.0325
3045.00,0.0325
3044.00,0.0325
3043.00,0.0324
3042.00,0.0323
3041.00,0.0322
3040.00,0.0322
3039.00,0.0322
3038.00,0.0323
3037.00,0.0323
3036.00,0.0323
3035.00,0.0323
3034.00,0.0324
3033.00,0.0323
3032.00,0.0323
3031.00,0.0322
3030.00,0.0322
3029.00,0.0321
3028.00,0.0320
3027.00,0.0320
3026.00,0.0320
3025.00,0.0320
3024.00,0.0320
3023.00,0.0320
3022.00,0.0320
3021.00,0.0319
3020.00,0.0319
3019.00,0.0318
3018.00,0.0317
3017.00,0.0316
3016.00,0.0316
3015.00,0.0316
3014.00,0.0315
3013.00,0.0314
3012.00,0.0314
3011.00,0.0313
3010.00,0.0312
3009.00,0.0311
3008.00,0.0309
3007.00,0.0308
3006.00,0.0307
3005.00,0.0306
3004.00,0.0305
3003.00,0.0304
3002.00,0.0302
3001.00,0.0301
3000.00,0.0300
2999.00,0.0298
2998.00,0.0297
2997.00,0.0296
2996.00,0.0295
2995.00,0.0294
2994.00,0.0294
2993.00,0.0293
2992.00,0.0292
2991.00,0.0292
2990.00,0.0291
2989.00,0.0290
2988.00,0.0289
2987.00,0.0288
2986.00,0.0285
2985.00,0.0281
2984.00,0.0278
2983.00,0.0275
2982.00,0.0274
2981.00,0.0274
2980.00,0.0275
2979.00,0.0277
2978.00,0.0279
2977.00,0.0280
2976.00,0.0282
2975.00,0.0283
2974.00,0.0282
2973.00,0.0282
2972.00,0.0281
2971.00,0.0281
2970.00,0.0282
2969.00,0.0284
2968.00,0.0286
2967.00,0.0287
2966.00,0.0288
2965.00,0.0288
2964.00,0.0289
2963.00,0.0290
2962.00,0.0291
2961.00,0.0292
2960.00,0.0292
2959.00,0.0292
2958.00,0.0292
2957.00,0.0292
2956.00,0.0293
2955.00,0.0294
2954.00,0.0296
2953.00,0.0297
2952.00,0.0297
2951.00,0.0298
2950.00,0.0299
2949.00,0.0300
2948.00,0.0300
2947.00,0.0300
2946.00,0.0300
2945.00,0.0301
2944.00,0.0302
2943.00,0.0302
2942.00,0.0303
2941.00,0.0304
2940.00,0.0303
2939.00,0.0303
2938.00,0.0302
2937.00,0.0302
2936.00,0.0303
2935.00,0.0303
2934.00,0.0303
2933.00,0.0303
2932.00,0.0302
2931.00,0.0302
2930.00,0.0302
2929.00,0.0302
2928.00,0.0302
2927.00,0.0302
2926.00,0.0302
2925.00,0.0302
2924.00,0.0302
2923.00,0.0302
2922.00,0.0302
2921.00,0.0301
2920.00,0.0300
2919.00,0.0299
2918.00,0.0299
2917.00,0.0299
2916.00,0.0299
2915.00,0.0299
2914.00,0.0299
2913.00,0.0300
2912.00,0.0300
2911.00,0.0301
2910.00,0.0301
2909.00,0.0301
2908.00,0.0300
2907.00,0.0300
2906.00,0.0299
2905.00,0.0299
2904.00,0.0298
2903.00,0.0298
2902.00,0.0298
2901.00,0.0298
2900.00,0.0298
2899.00,0.0297
2898.00,0.0297
2897.00,0.0297
2896.00,0.0297
2895.00,0.0297
2894.00,0.0297
2893.00,0.0296
2892.00,0.0296
2891.00,0.0296
2890.00,0.0296
2889.00,0.0296
2888.00,0.0296
2887.00,0.0296
2886.00,0.0296
2885.00,0.0295
2884.00,0.0295
2883.00,0.0295
2882.00,0.0295
2881.00,0.0295
2880.00,0.0296
2879.00,0.0296
2878.00,0.0297
2877.00,0.0297
2876.00,0.0297
2875.00,0.0297
2874.00,0.0296
2873.00,0.0296
2872.00,0.0296
2871.00,0.0296
2870.00,0.0296
2869.00,0.0296
2868.00,0.0296
2867.00,0.0296
2866.00,0.0296
2865.00,0.0297
2864.00,0.0297
2863.00,0.0297
2862.00,0.0297
2861.00,0.0297
2860.00,0.0298
2859.00,0.0298
2858.00,0.0299
2857.00,0.0299
2856.00,0.0300
2855.00,0.0299
2854.00,0.0298
2853.00,0.0298
2852.00,0.0298
2851.00,0.0298
2850.00,0.0299
2849.00,0.0299
2848.00,0.0299
2847.00,0.0299
2846.00,0.0299
2845.00,0.0299
2844.00,0.0299
2843.00,0.0300
2842.00,0.0299
2841.00,0.0299
2840.00,0.0298
2839.00,0.0297
2838.00,0.0297
2837.00,0.0297
2836.00,0.0298
2835.00,0.0298
2834.00,0.0299
2833.00,0.0298
2832.00,0.0298
2831.00,0.0297
2830.00,0.0297
2829.00,0.0297
2828.00,0.0297
2827.00,0.0297
2826.00,0.0297
2825.00,0.0297
2824.00,0.0296
2823.00,0.0296
2822.00,0.0296
2821.00,0.0295
2820.00,0.0295
2819.00,0.0295
2818.00,0.0294
2817.00,0.0294
2816.00,0.0294
2815.00,0.0294
2814.00,0.0294
2813.00,0.0293
2812.00,0.0293
2811.00,0.0293
2810.00,0.0293
2809.00,0.0293
2808.00,0.0293
2807.00,0.0293
2806.00,0.0293
2805.00,0.0293
2804.00,0.0293
2803.00,0.0293
2802.00,0.0293
2801.00,0.0293
2800.00,0.0293
2799.00,0.0293
2798.00,0.0293
2797.00,0.0293
2796.00,0.0293
2795.00,0.0292
2794.00,0.0292
2793.00,0.0292
2792.00,0.0292
2791.00,0.0292
2790.00,0.0292
2789.00,0.0292
2788.00,0.0292
2787.00,0.0291
2786.00,0.0291
2785.00,0.0290
2784.00,0.0290
2783.00,0.0290
2782.00,0.0289
2781.00,0.0288
2780.00,0.0288
2779.00,0.0288
2778.00,0.0288
2777.00,0.0289
2776.00,0.0289
2775.00,0.0289
2774.00,0.0289
2773.00,0.0289
2772.00,0.0289
2771.00,0.0288
2770.00,0.0287
2769.00,0.0286
2768.00,0.0286
2767.00,0.0286
2766.00,0.0287
2765.00,0.0287
2764.00,0.0287
2763.00,0.0287
2762.00,0.0287
2761.00,0.0287
2760.00,0.0286
2759.00,0.0286
2758.00,0.0286
2757.00,0.0286
2756.00,0.0286
2755.00,0.0286
2754.00,0.0286
2753.00,0.0286
2752.00,0.0286
2751.00,0.0286
2750.00,0.0286
2749.00,0.0286
2748.00,0.0286
2747.00,0.0286
2746.00,0.0286
2745.00,0.0286
2744.00,0.0286
2743.00,0.0285
2742.00,0.0285
2741.00,0.0285
2740.00,0.0285
2739.00,0.0284
2738.00,0.0284
2737.00,0.0283
2736.00,0.0283
2735.00,0.0284
2734.00,0.0284
2733.00,0.0285
2732.00,0.0285
2731.00,0.0285
2730.00,0.0284
2729.00,0.0283
2728.00,0.0283
2727.00,0.0283
2726.00,0.0283
2725.00,0.0283
2724.00,0.0283
2723.00,0.0283
2722.00,0.0283
2721.00,0.0282
2720.00,0.0282
2719.00,0.0282
2718.00,0.0282
2717.00,0.0283
2716.00,0.0283
2715.00,0.0283
2714.00,0.0283
2713.00,0.0283
2712.00,0.0282
2711.00,0.0282
2710.00,0.0282
2709.00,0.0281
2708.00,0.0281
2707.00,0.0281
2706.00,0.0281
2705.00,0.0281
2704.00,0.0281
2703.00,0.0281
2702.00,0.0280
2701.00,0.0280
2700.00,0.0280
2699.00,0.0280
2698.00,0.0280
2697.00,0.0280
2696.00,0.0280
2695.00,0.0280
2694.00,0.0280
2693.00,0.0281
2692.00,0.0281
2691.00,0.0281
2690.00,0.0281
2689.00,0.0280
2688.00,0.0280
2687.00,0.0280
2686.00,0.0280
2685.00,0.0280
2684.00,0.0280
2683.00,0.0280
2682.00,0.0280
2681.00,0.0279
2680.00,0.0279
2679.00,0.0278
2678.00,0.0277
2677.00,0.0277
2676.00,0.0277
2675.00,0.0277
2674.00,0.0277
2673.00,0.0278
2672.00,0.0278
2671.00,0.0277
2670.00,0.0277
2669.00,0.0277
2668.00,0.0277
2667.00,0.0277
2666.00,0.0277
2665.00,0.0277
2664.00,0.0277
2663.00,0.0278
2662.00,0.0278
2661.00,0.0278
2660.00,0.0278
2659.00,0.0279
2658.00,0.0279
2657.00,0.0279
2656.00,0.0279
2655.00,0.0279
2654.00,0.0279
2653.00,0.0279
2652.00,0.0279
2651.00,0.0279
2650.00,0.0279
2649.00,0.0279
2648.00,0.0279
2647.00,0.0278
2646.00,0.0278
2645.00,0.0278
2644.00,0.0278
2643.00,0.0279
2642.00,0.0279
2641.00,0.0279
2640.00,0.0279
2639.00,0.0279
2638.00,0.0279
2637.00,0.0279
2636.00,0.0278
2635.00,0.0279
2634.00,0.0279
2633.00,0.0279
2632.00,0.0279
2631.00,0.0279
2630.00,0.0278
2629.00,0.0277
2628.00,0.0277
2627.00,0.0277
2626.00,0.0277
2625.00,0.0278
2624.00,0.0279
2623.00,0.0279
2622.00,0.0280
2621.00,0.0280
2620.00,0.0280
2619.00,0.0280
2618.00,0.0280
2617.00,0.0279
2616.00,0.0279
2615.00,0.0278
2614.00,0.0278
2613.00,0.0278
2612.00,0.0279
2611.00,0.0280
2610.00,0.0279
2609.00,0.0278
2608.00,0.0278
2607.00,0.0278
2606.00,0.0278
2605.00,0.0279
2604.00,0.0279
2603.00,0.0279
2602.00,0.0279
2601.00,0.0279
2600.00,0.0279
2599.00,0.0278
2598.00,0.0278
2597.00,0.0278
2596.00,0.0277
2595.00,0.0277
2594.00,0.0277
2593.00,0.0278
2592.00,0.0278
2591.00,0.0279
2590.00,0.0279
2589.00,0.0279
2588.00,0.0279
2587.00,0.0279
2586.00,0.0278
2585.00,0.0277
2584.00,0.0277
2583.00,0.0277
2582.00,0.0277
2581.00,0.0278
2580.00,0.0278
2579.00,0.0279
2578.00,0.0278
2577.00,0.0278
2576.00,0.0277
2575.00,0.0276
2574.00,0.0276
2573.00,0.0277
2572.00,0.0277
2571.00,0.0277
2570.00,0.0277
2569.00,0.0277
2568.00,0.0277
2567.00,0.0278
2566.00,0.0279
2565.00,0.0279
2564.00,0.0279
2563.00,0.0279
2562.00,0.0279
2561.00,0.0279
2560.00,0.0279
2559.00,0.0278
2558.00,0.0278
2557.00,0.0279
2556.00,0.0280
2555.00,0.0280
2554.00,0.0279
2553.00,0.0279
2552.00,0.0277
2551.00,0.0276
2550.00,0.0275
2549.00,0.0274
2548.00,0.0274
2547.00,0.0274
2546.00,0.0274
2545.00,0.0275
2544.00,0.0276
2543.00,0.0275
2542.00,0.0274
2541.00,0.0273
2540.00,0.0272
2539.00,0.0271
2538.00,0.0271
2537.00,0.0271
2536.00,0.0271
2535.00,0.0272
2534.00,0.0273
2533.00,0.0274
2532.00,0.0275
2531.00,0.0275
2530.00,0.0274
2529.00,0.0273
2528.00,0.0273
2527.00,0.0272
2526.00,0.0272
2525.00,0.0272
2524.00,0.0272
2523.00,0.0273
2522.00,0.0273
2521.00,0.0273
2520.00,0.0273
2519.00,0.0273
2518.00,0.0274
2517.00,0.0275
2516.00,0.0275
2515.00,0.0275
2514.00,0.0274
2513.00,0.0273
2512.00,0.0272
2511.00,0.0272
2510.00,0.0273
2509.00,0.0273
2508.00,0.0274
2507.00,0.0274
2506.00,0.0274
2505.00,0.0274
2504.00,0.0274
2503.00,0.0273
2502.00,0.0273
2501.00,0.0274
2500.00,0.0274
2499.00,0.0274
2498.00,0.0274
2497.00,0.0273
2496.00,0.0273
2495.00,0.0273
2494.00,0.0274
2493.00,0.0274
2492.00,0.0274
2491.00,0.0274
2490.00,0.0274
2489.00,0.0274
2488.00,0.0273
2487.00,0.0273
2486.00,0.0272
2485.00,0.0272
2484.00,0.0271
2483.00,0.0271
2482.00,0.0271
2481.00,0.0273
2480.00,0.0273
2479.00,0.0273
2478.00,0.0273
2477.00,0.0272
2476.00,0.0271
2475.00,0.0271
2474.00,0.0271
2473.00,0.0271
2472.00,0.0271
2471.00,0.0272
2470.00,0.0272
2469.00,0.0271
2468.00,0.0271
2467.00,0.0271
2466.00,0.0270
2465.00,0.0270
2464.00,0.0270
2463.00,0.0270
2462.00,0.0270
2461.00,0.0271
2460.00,0.0271
2459.00,0.0272
2458.00,0.0272
2457.00,0.0272
2456.00,0.0272
2455.00,0.0272
2454.00,0.0273
2453.00,0.0273
2452.00,0.0273
2451.00,0.0273
2450.00,0.0272
2449.00,0.0272
2448.00,0.0271
2447.00,0.0271
2446.00,0.0270
2445.00,0.0270
2444.00,0.0269
2443.00,0.0269
2442.00,0.0269
2441.00,0.0269
2440.00,0.0269
2439.00,0.0269
2438.00,0.0269
2437.00,0.0269
2436.00,0.0269
2435.00,0.0269
2434.00,0.0269
2433.00,0.0268
2432.00,0.0268
2431.00,0.0268
2430.00,0.0269
2429.00,0.0269
2428.00,0.0270
2427.00,0.0269
2426.00,0.0269
2425.00,0.0269
2424.00,0.0268
2423.00,0.0268
2422.00,0.0268
2421.00,0.0267
2420.00,0.0267
2419.00,0.0267
2418.00,0.0267
2417.00,0.0267
2416.00,0.0266
2415.00,0.0266
2414.00,0.0266
2413.00,0.0266
2412.00,0.0267
2411.00,0.0267
2410.00,0.0267
2409.00,0.0267
2408.00,0.0267
2407.00,0.0267
2406.00,0.0267
2405.00,0.0266
2404.00,0.0266
2403.00,0.0265
2402.00,0.0264
2401.00,0.0264
2400.00,0.0264
2399.00,0.0264
2398.00,0.0264
2397.00,0.0264
2396.00,0.0263
2395.00,0.0263
2394.00,0.0263
2393.00,0.0263
2392.00,0.0263
2391.00,0.0263
2390.00,0.0263
2389.00,0.0263
2388.00,0.0262
2387.00,0.0262
2386.00,0.0261
2385.00,0.0261
2384.00,0.0260
2383.00,0.0260
2382.00,0.0260
2381.00,0.0260
2380.00,0.0261
2379.00,0.0261
2378.00,0.0260
2377.00,0.0259
2376.00,0.0258
2375.00,0.0258
2374.00,0.0259
2373.00,0.0259
2372.00,0.0260
2371.00,0.0259
2370.00,0.0258
2369.00,0.0255
2368.00,0.0253
2367.00,0.0254
2366.00,0.0258
2365.00,0.0261
2364.00,0.0261
2363.00,0.0259
2362.00,0.0257
2361.00,0.0256
2360.00,0.0257
2359.00,0.0258
2358.00,0.0257
2357.00,0.0257
2356.00,0.0257
2355.00,0.0257
2354.00,0.0257
2353.00,0.0257
2352.00,0.0257
2351.00,0.0256
2350.00,0.0256
2349.00,0.0257
2348.00,0.0256
2347.00,0.0255
2346.00,0.0253
2345.00,0.0253
2344.00,0.0255
2343.00,0.0257
2342.00,0.0259
2341.00,0.0260
2340.00,0.0260
2339.00,0.0259
2338.00,0.0256
2337.00,0.0255
2336.00,0.0254
2335.00,0.0255
2334.00,0.0257
2333.00,0.0258
2332.00,0.0258
2331.00,0.0257
2330.00,0.0257
2329.00,0.0257
2328.00,0.0258
2327.00,0.0260
2326.00,0.0262
2325.00,0.0262
2324.00,0.0262
2323.00,0.0260
2322.00,0.0260
2321.00,0.0260
2320.00,0.0260
2319.00,0.0259
2318.00,0.0259
2317.00,0.0259
2316.00,0.0259
2315.00,0.0259
2314.00,0.0259
2313.00,0.0260
2312.00,0.0261
2311.00,0.0262
2310.00,0.0263
2309.00,0.0264
2308.00,0.0263
2307.00,0.0262
2306.00,0.0261
2305.00,0.0260
2304.00,0.0260
2303.00,0.0259
2302.00,0.0259
2301.00,0.0258
2300.00,0.0259
2299.00,0.0259
2298.00,0.0260
2297.00,0.0260
2296.00,0.0260
2295.00,0.0260
2294.00,0.0261
2293.00,0.0263
2292.00,0.0264
2291.00,0.0265
2290.00,0.0265
2289.00,0.0264
2288.00,0.0264
2287.00,0.0265
2286.00,0.0266
2285.00,0.0267
2284.00,0.0268
2283.00,0.0269
2282.00,0.0268
2281.00,0.0268
2280.00,0.0267
2279.00,0.0268
2278.00,0.0268
2277.00,0.0268
2276.00,0.0267
2275.00,0.0265
2274.00,0.0264
2273.00,0.0263
2272.00,0.0262
2271.00,0.0262
2270.00,0.0263
2269.00,0.0264
2268.00,0.0264
2267.00,0.0264
2266.00,0.0264
2265.00,0.0264
2264.00,0.0264
2263.00,0.0264
2262.00,0.0265
2261.00,0.0266
2260.00,0.0266
2259.00,0.0266
2258.00,0.0264
2257.00,0.0261
2256.00,0.0259
2255.00,0.0258
2254.00,0.0258
2253.00,0.0259
2252.00,0.0259
2251.00,0.0260
2250.00,0.0261
2249.00,0.0261
2248.00,0.0261
2247.00,0.0261
2246.00,0.0262
2245.00,0.0263
2244.00,0.0264
2243.00,0.0265
2242.00,0.0266
2241.00,0.0265
2240.00,0.0264
2239.00,0.0263
2238.00,0.0262
2237.00,0.0262
2236.00,0.0263
2235.00,0.0264
2234.00,0.0265
2233.00,0.0265
2232.00,0.0264
2231.00,0.0262
2230.00,0.0260
2229.00,0.0260
2228.00,0.0260
2227.00,0.0262
2226.00,0.0263
2225.00,0.0263
2224.00,0.0263
2223.00,0.0261
2222.00,0.0260
2221.00,0.0259
2220.00,0.0259
2219.00,0.0259
2218.00,0.0259
2217.00,0.0259
2216.00,0.0260
2215.00,0.0262
2214.00,0.0263
2213.00,0.0264
2212.00,0.0263
2211.00,0.0261
2210.00,0.0260
2209.00,0.0260
2208.00,0.0261
2207.00,0.0261
2206.00,0.0260
2205.00,0.0260
2204.00,0.0260
2203.00,0.0259
2202.00,0.0259
2201.00,0.0258
2200.00,0.0258
2199.00,0.0258
2198.00,0.0259
2197.00,0.0260
2196.00,0.0260
2195.00,0.0260
2194.00,0.0260
2193.00,0.0260
2192.00,0.0259
2191.00,0.0258
2190.00,0.0256
2189.00,0.0255
2188.00,0.0256
2187.00,0.0259
2186.00,0.0263
2185.00,0.0264
2184.00,0.0261
2183.00,0.0257
2182.00,0.0254
2181.00,0.0254
2180.00,0.0255
2179.00,0.0258
2178.00,0.0260
2177.00,0.0261
2176.00,0.0261
2175.00,0.0259
2174.00,0.0257
2173.00,0.0255
2172.00,0.0255
2171.00,0.0257
2170.00,0.0260
2169.00,0.0264
2168.00,0.0266
2167.00,0.0267
2166.00,0.0268
2165.00,0.0271
2164.00,0.0274
2163.00,0.0277
2162.00,0.0277
2161.00,0.0272
2160.00,0.0264
2159.00,0.0254
2158.00,0.0248
2157.00,0.0246
2156.00,0.0246
2155.00,0.0249
2154.00,0.0251
2153.00,0.0253
2152.00,0.0253
2151.00,0.0250
2150.00,0.0247
2149.00,0.0245
2148.00,0.0245
2147.00,0.0248
2146.00,0.0251
2145.00,0.0253
2144.00,0.0253
2143.00,0.0253
2142.00,0.0254
2141.00,0.0255
2140.00,0.0255
2139.00,0.0254
2138.00,0.0251
2137.00,0.0249
2136.00,0.0248
2135.00,0.0246
2134.00,0.0245
2133.00,0.0246
2132.00,0.0247
2131.00,0.0247
2130.00,0.0248
2129.00,0.0249
2128.00,0.0250
2127.00,0.0250
2126.00,0.0250
2125.00,0.0250
2124.00,0.0249
2123.00,0.0249
2122.00,0.0249
2121.00,0.0248
2120.00,0.0247
2119.00,0.0247
2118.00,0.0247
2117.00,0.0248
2116.00,0.0248
2115.00,0.0246
2114.00,0.0245
2113.00,0.0244
2112.00,0.0244
2111.00,0.0246
2110.00,0.0248
2109.00,0.0250
2108.00,0.0251
2107.00,0.0251
2106.00,0.0251
2105.00,0.0250
2104.00,0.0250
2103.00,0.0249
2102.00,0.0249
2101.00,0.0249
2100.00,0.0247
2099.00,0.0246
2098.00,0.0244
2097.00,0.0244
2096.00,0.0245
2095.00,0.0246
2094.00,0.0246
2093.00,0.0247
2092.00,0.0246
2091.00,0.0245
2090.00,0.0245
2089.00,0.0246
2088.00,0.0246
2087.00,0.0247
2086.00,0.0246
2085.00,0.0247
2084.00,0.0247
2083.00,0.0247
2082.00,0.0247
2081.00,0.0247
2080.00,0.0247
2079.00,0.0247
2078.00,0.0247
2077.00,0.0246
2076.00,0.0246
2075.00,0.0247
2074.00,0.0247
2073.00,0.0247
2072.00,0.0248
2071.00,0.0249
2070.00,0.0249
2069.00,0.0248
2068.00,0.0245
2067.00,0.0243
2066.00,0.0242
2065.00,0.0243
2064.00,0.0245
2063.00,0.0247
2062.00,0.0247
2061.00,0.0247
2060.00,0.0245
2059.00,0.0244
2058.00,0.0244
2057.00,0.0245
2056.00,0.0246
2055.00,0.0246
2054.00,0.0247
2053.00,0.0248
2052.00,0.0250
2051.00,0.0250
2050.00,0.0248
2049.00,0.0246
2048.00,0.0244
2047.00,0.0244
2046.00,0.0245
2045.00,0.0247
2044.00,0.0248
2043.00,0.0249
2042.00,0.0249
2041.00,0.0248
2040.00,0.0246
2039.00,0.0245
2038.00,0.0246
2037.00,0.0249
2036.00,0.0251
2035.00,0.0251
2034.00,0.0249
2033.00,0.0248
2032.00,0.0250
2031.00,0.0252
2030.00,0.0252
2029.00,0.0250
2028.00,0.0248
2027.00,0.0246
2026.00,0.0243
2025.00,0.0240
2024.00,0.0237
2023.00,0.0235
2022.00,0.0235
2021.00,0.0234
2020.00,0.0234
2019.00,0.0233
2018.00,0.0232
2017.00,0.0232
2016.00,0.0233
2015.00,0.0235
2014.00,0.0238
2013.00,0.0240
2012.00,0.0240
2011.00,0.0240
2010.00,0.0240
2009.00,0.0239
2008.00,0.0238
2007.00,0.0236
2006.00,0.0234
2005.00,0.0233
2004.00,0.0234
2003.00,0.0236
2002.00,0.0240
2001.00,0.0243
2000.00,0.0243
1999.00,0.0241
1998.00,0.0239
1997.00,0.0239
1996.00,0.0241
1995.00,0.0243
1994.00,0.0244
1993.00,0.0244
1992.00,0.0242
1991.00,0.0240
1990.00,0.0238
1989.00,0.0236
1988.00,0.0235
1987.00,0.0235
1986.00,0.0236
1985.00,0.0236
1984.00,0.0238
1983.00,0.0239
1982.00,0.0240
1981.00,0.0240
1980.00,0.0237
1979.00,0.0233
1978.00,0.0228
1977.00,0.0224
1976.00,0.0224
1975.00,0.0227
1974.00,0.0231
1973.00,0.0233
1972.00,0.0232
1971.00,0.0229
1970.00,0.0228
1969.00,0.0229
1968.00,0.0230
1967.00,0.0230
1966.00,0.0229
1965.00,0.0227
1964.00,0.0227
1963.00,0.0226
1962.00,0.0227
1961.00,0.0227
1960.00,0.0228
1959.00,0.0228
1958.00,0.0228
1957.00,0.0227
1956.00,0.0225
1955.00,0.0225
1954.00,0.0226
1953.00,0.0227
1952.00,0.0226
1951.00,0.0225
1950.00,0.0223
1949.00,0.0223
1948.00,0.0224
1947.00,0.0225
1946.00,0.0226
1945.00,0.0225
1944.00,0.0222
1943.00,0.0219
1942.00,0.0217
1941.00,0.0216
1940.00,0.0215
1939.00,0.0215
1938.00,0.0215
1937.00,0.0215
1936.00,0.0216
1935.00,0.0216
1934.00,0.0215
1933.00,0.0215
1932.00,0.0215
1931.00,0.0215
1930.00,0.0217
1929.00,0.0218
1928.00,0.0219
1927.00,0.0220
1926.00,0.0220
1925.00,0.0220
1924.00,0.0219
1923.00,0.0218
1922.00,0.0218
1921.00,0.0217
1920.00,0.0216
1919.00,0.0214
1918.00,0.0212
1917.00,0.0212
1916.00,0.0213
1915.00,0.0214
1914.00,0.0214
1913.00,0.0213
1912.00,0.0213
1911.00,0.0213
1910.00,0.0213
1909.00,0.0212
1908.00,0.0210
1907.00,0.0209
1906.00,0.0209
1905.00,0.0209
1904.00,0.0209
1903.00,0.0209
1902.00,0.0209
1901.00,0.0209
1900.00,0.0209
1899.00,0.0210
1898.00,0.0210
1897.00,0.0210
1896.00,0.0208
1895.00,0.0205
1894.00,0.0204
1893.00,0.0204
1892.00,0.0205
1891.00,0.0206
1890.00,0.0206
1889.00,0.0206
1888.00,0.0205
1887.00,0.0204
1886.00,0.0204
1885.00,0.0204
1884.00,0.0203
1883.00,0.0202
1882.00,0.0201
1881.00,0.0201
1880.00,0.0200
1879.00,0.0200
1878.00,0.0199
1877.00,0.0198
1876.00,0.0198
1875.00,0.0198
1874.00,0.0199
1873.00,0.0200
1872.00,0.0202
1871.00,0.0203
1870.00,0.0203
1869.00,0.0202
1868.00,0.0200
1867.00,0.0199
1866.00,0.0197
1865.00,0.0196
1864.00,0.0195
1863.00,0.0194
1862.00,0.0193
1861.00,0.0193
1860.00,0.0192
1859.00,0.0192
1858.00,0.0192
1857.00,0.0192
1856.00,0.0193
1855.00,0.0192
1854.00,0.0191
1853.00,0.0190
1852.00,0.0190
1851.00,0.0190
1850.00,0.0190
1849.00,0.0190
1848.00,0.0190
1847.00,0.0191
1846.00,0.0190
1845.00,0.0189
1844.00,0.0186
1843.00,0.0185
1842.00,0.0184
1841.00,0.0185
1840.00,0.0185
1839.00,0.0184
1838.00,0.0184
1837.00,0.0184
1836.00,0.0184
1835.00,0.0184
1834.00,0.0184
1833.00,0.0185
1832.00,0.0186
1831.00,0.0186
1830.00,0.0185
1829.00,0.0183
1828.00,0.0182
1827.00,0.0182
1826.00,0.0181
1825.00,0.0179
1824.00,0.0177
1823.00,0.0176
1822.00,0.0176
1821.00,0.0176
1820.00,0.0175
1819.00,0.0174
1818.00,0.0172
1817.00,0.0171
1816.00,0.0171
1815.00,0.0171
1814.00,0.0171
1813.00,0.0172
1812.00,0.0172
1811.00,0.0171
1810.00,0.0170
1809.00,0.0169
1808.00,0.0169
1807.00,0.0169
1806.00,0.0169
1805.00,0.0169
1804.00,0.0169
1803.00,0.0169
1802.00,0.0169
1801.00,0.0168
1800.00,0.0167
1799.00,0.0167
1798.00,0.0167
1797.00,0.0167
1796.00,0.0168
1795.00,0.0168
1794.00,0.0168
1793.00,0.0167
1792.00,0.0166
1791.00,0.0165
1790.00,0.0164
1789.00,0.0164
1788.00,0.0164
1787.00,0.0165
1786.00,0.0165
1785.00,0.0165
1784.00,0.0166
1783.00,0.0167
1782.00,0.0167
1781.00,0.0167
1780.00,0.0167
1779.00,0.0167
1778.00,0.0168
1777.00,0.0170
1776.00,0.0172
1775.00,0.0173
1774.00,0.0174
1773.00,0.0174
1772.00,0.0172
1771.00,0.0171
1770.00,0.0172
1769.00,0.0173
1768.00,0.0173
1767.00,0.0173
1766.00,0.0174
1765.00,0.0176
1764.00,0.0178
1763.00,0.0178
1762.00,0.0177
1761.00,0.0176
1760.00,0.0177
1759.00,0.0178
1758.00,0.0179
1757.00,0.0179
1756.00,0.0179
1755.00,0.0181
1754.00,0.0183
1753.00,0.0184
1752.00,0.0184
1751.00,0.0185
1750.00,0.0187
1749.00,0.0189
1748.00,0.0190
1747.00,0.0191
1746.00,0.0191
1745.00,0.0192
1744.00,0.0193
1743.00,0.0195
1742.00,0.0196
1741.00,0.0197
1740.00,0.0197
1739.00,0.0197
1738.00,0.0199
1737.00,0.0201
1736.00,0.0203
1735.00,0.0203
1734.00,0.0203
1733.00,0.0204
1732.00,0.0206
1731.00,0.0209
1730.00,0.0210
1729.00,0.0211
1728.00,0.0212
1727.00,0.0213
1726.00,0.0214
1725.00,0.0216
1724.00,0.0219
1723.00,0.0220
1722.00,0.0222
1721.00,0.0224
1720.00,0.0226
1719.00,0.0227
1718.00,0.0227
1717.00,0.0229
1716.00,0.0231
1715.00,0.0232
1714.00,0.0233
1713.00,0.0234
1712.00,0.0235
1711.00,0.0236
1710.00,0.0237
1709.00,0.0238
1708.00,0.0240
1707.00,0.0242
1706.00,0.0243
1705.00,0.0244
1704.00,0.0245
1703.00,0.0246
1702.00,0.0246
1701.00,0.0245
1700.00,0.0243
1699.00,0.0242
1698.00,0.0244
1697.00,0.0246
1696.00,0.0246
1695.00,0.0245
1694.00,0.0245
1693.00,0.0247
1692.00,0.0249
1691.00,0.0251
1690.00,0.0252
1689.00,0.0253
1688.00,0.0254
1687.00,0.0254
1686.00,0.0254
1685.00,0.0254
1684.00,0.0254
1683.00,0.0255
1682.00,0.0255
1681.00,0.0256
1680.00,0.0256
1679.00,0.0257
1678.00,0.0259
1677.00,0.0261
1676.00,0.0262
1675.00,0.0264
1674.00,0.0265
1673.00,0.0266
1672.00,0.0268
1671.00,0.0269
1670.00,0.0270
1669.00,0.0271
1668.00,0.0271
1667.00,0.0271
1666.00,0.0272
1665.00,0.0273
1664.00,0.0274
1663.00,0.0276
1662.00,0.0276
1661.00,0.0278
1660.00,0.0279
1659.00,0.0282
1658.00,0.0284
1657.00,0.0285
1656.00,0.0286
1655.00,0.0285
1654.00,0.0284
1653.00,0.0287
1652.00,0.0289
1651.00,0.0292
1650.00,0.0295
1649.00,0.0298
1648.00,0.0300
1647.00,0.0301
1646.00,0.0302
1645.00,0.0303
1644.00,0.0303
1643.00,0.0304
1642.00,0.0305
1641.00,0.0306
1640.00,0.0307
1639.00,0.0309
1638.00,0.0311
1637.00,0.0314
1636.00,0.0318
1635.00,0.0320
1634.00,0.0320
1633.00,0.0318
1632.00,0.0317
1631.00,0.0318
1630.00,0.0320
1629.00,0.0322
1628.00,0.0324
1627.00,0.0327
1626.00,0.0329
1625.00,0.0332
1624.00,0.0334
1623.00,0.0336
1622.00,0.0337
1621.00,0.0338
1620.00,0.0338
1619.00,0.0338
1618.00,0.0339
1617.00,0.0341
1616.00,0.0343
1615.00,0.0346
1614.00,0.0347
1613.00,0.0349
1612.00,0.0350
1611.00,0.0352
1610.00,0.0354
1609.00,0.0355
1608.00,0.0357
1607.00,0.0359
1606.00,0.0361
1605.00,0.0363
1604.00,0.0364
1603.00,0.0366
1602.00,0.0367
1601.00,0.0367
1600.00,0.0368
1599.00,0.0369
1598.00,0.0372
1597.00,0.0374
1596.00,0.0376
1595.00,0.0379
1594.00,0.0380
1593.00,0.0381
1592.00,0.0382
1591.00,0.0383
1590.00,0.0384
1589.00,0.0386
1588.00,0.0387
1587.00,0.0390
1586.00,0.0392
1585.00,0.0393
1584.00,0.0394
1583.00,0.0395
1582.00,0.0396
1581.00,0.0397
1580.00,0.0398
1579.00,0.0399
1578.00,0.0401
1577.00,0.0404
1576.00,0.0406
1575.00,0.0408
1574.00,0.0407
1573.00,0.0407
1572.00,0.0407
1571.00,0.0408
1570.00,0.0411
1569.00,0.0413
1568.00,0.0414
1567.00,0.0414
1566.00,0.0414
1565.00,0.0414
1564.00,0.0413
1563.00,0.0412
1562.00,0.0411
1561.00,0.0410
1560.00,0.0413
1559.00,0.0421
1558.00,0.0425
1557.00,0.0421
1556.00,0.0418
1555.00,0.0417
1554.00,0.0417
1553.00,0.0417
1552.00,0.0418
1551.00,0.0418
1550.00,0.0417
1549.00,0.0415
1548.00,0.0413
1547.00,0.0411
1546.00,0.0411
1545.00,0.0411
1544.00,0.0411
1543.00,0.0411
1542.00,0.0410
1541.00,0.0411
1540.00,0.0411
1539.00,0.0410
1538.00,0.0406
1537.00,0.0403
1536.00,0.0401
1535.00,0.0401
1534.00,0.0400
1533.00,0.0400
1532.00,0.0399
1531.00,0.0397
1530.00,0.0395
1529.00,0.0394
1528.00,0.0393
1527.00,0.0392
1526.00,0.0390
1525.00,0.0388
1524.00,0.0387
1523.00,0.0385
1522.00,0.0384
1521.00,0.0384
1520.00,0.0384
1519.00,0.0384
1518.00,0.0383
1517.00,0.0381
1516.00,0.0379
1515.00,0.0376
1514.00,0.0373
1513.00,0.0371
1512.00,0.0370
1511.00,0.0369
1510.00,0.0369
1509.00,0.0369
1508.00,0.0370
1507.00,0.0371
1506.00,0.0369
1505.00,0.0363
1504.00,0.0360
1503.00,0.0358
1502.00,0.0356
1501.00,0.0354
1500.00,0.0353
1499.00,0.0353
1498.00,0.0353
1497.00,0.0353
1496.00,0.0352
1495.00,0.0350
1494.00,0.0348
1493.00,0.0347
1492.00,0.0346
1491.00,0.0347
1490.00,0.0349
1489.00,0.0349
1488.00,0.0348
1487.00,0.0346
1486.00,0.0343
1485.00,0.0341
1484.00,0.0339
1483.00,0.0338
1482.00,0.0337
1481.00,0.0337
1480.00,0.0336
1479.00,0.0336
1478.00,0.0335
1477.00,0.0335
1476.00,0.0335
1475.00,0.0335
1474.00,0.0335
1473.00,0.0336
1472.00,0.0337
1471.00,0.0338
1470.00,0.0338
1469.00,0.0338
1468.00,0.0338
1467.00,0.0338
1466.00,0.0338
1465.00,0.0338
1464.00,0.0337
1463.00,0.0337
1462.00,0.0336
1461.00,0.0336
1460.00,0.0337
1459.00,0.0337
1458.00,0.0338
1457.00,0.0340
1456.00,0.0341
1455.00,0.0341
1454.00,0.0342
1453.00,0.0342
1452.00,0.0343
1451.00,0.0344
1450.00,0.0345
1449.00,0.0346
1448.00,0.0348
1447.00,0.0350
1446.00,0.0350
1445.00,0.0350
1444.00,0.0350
1443.00,0.0350
1442.00,0.0349
1441.00,0.0349
1440.00,0.0350
1439.00,0.0352
1438.00,0.0353
1437.00,0.0355
1436.00,0.0357
1435.00,0.0357
1434.00,0.0357
1433.00,0.0357
1432.00,0.0358
1431.00,0.0359
1430.00,0.0359
1429.00,0.0359
1428.00,0.0359
1427.00,0.0360
1426.00,0.0361
1425.00,0.0362
1424.00,0.0363
1423.00,0.0364
1422.00,0.0364
1421.00,0.0363
1420.00,0.0364
1419.00,0.0367
1418.00,0.0369
1417.00,0.0370
1416.00,0.0371
1415.00,0.0371
1414.00,0.0370
1413.00,0.0369
1412.00,0.0368
1411.00,0.0368
1410.00,0.0368
1409.00,0.0368
1408.00,0.0369
1407.00,0.0370
1406.00,0.0370
1405.00,0.0371
1404.00,0.0370
1403.00,0.0370
1402.00,0.0370
1401.00,0.0370
1400.00,0.0371
1399.00,0.0372
1398.00,0.0372
1397.00,0.0373
1396.00,0.0374
1395.00,0.0374
1394.00,0.0374
1393.00,0.0374
1392.00,0.0374
1391.00,0.0374
1390.00,0.0375
1389.00,0.0375
1388.00,0.0377
1387.00,0.0379
1386.00,0.0379
1385.00,0.0379
1384.00,0.0379
1383.00,0.0379
1382.00,0.0380
1381.00,0.0382
1380.00,0.0383
1379.00,0.0385
1378.00,0.0386
1377.00,0.0388
1376.00,0.0390
1375.00,0.0392
1374.00,0.0394
1373.00,0.0394
1372.00,0.0394
1371.00,0.0395
1370.00,0.0395
1369.00,0.0396
1368.00,0.0396
1367.00,0.0396
1366.00,0.0396
1365.00,0.0396
1364.00,0.0396
1363.00,0.0398
1362.00,0.0400
1361.00,0.0401
1360.00,0.0400
1359.00,0.0400
1358.00,0.0400
1357.00,0.0400
1356.00,0.0401
1355.00,0.0402
1354.00,0.0402
1353.00,0.0403
1352.00,0.0402
1351.00,0.0401
1350.00,0.0400
1349.00,0.0399
1348.00,0.0399
1347.00,0.0399
1346.00,0.0399
1345.00,0.0399
1344.00,0.0399
1343.00,0.0398
1342.00,0.0398
1341.00,0.0400
1340.00,0.0401
1339.00,0.0403
1338.00,0.0403
1337.00,0.0403
1336.00,0.0402
1335.00,0.0401
1334.00,0.0400
1333.00,0.0399
1332.00,0.0399
1331.00,0.0398
1330.00,0.0399
1329.00,0.0399
1328.00,0.0399
1327.00,0.0399
1326.00,0.0399
1325.00,0.0398
1324.00,0.0399
1323.00,0.0400
1322.00,0.0400
1321.00,0.0401
1320.00,0.0401
1319.00,0.0401
1318.00,0.0399
1317.00,0.0398
1316.00,0.0397
1315.00,0.0396
1314.00,0.0397
1313.00,0.0398
1312.00,0.0399
1311.00,0.0399
1310.00,0.0399
1309.00,0.0399
1308.00,0.0399
1307.00,0.0398
1306.00,0.0398
1305.00,0.0398
1304.00,0.0398
1303.00,0.0399
1302.00,0.0399
1301.00,0.0399
1300.00,0.0398
1299.00,0.0398
1298.00,0.0397
1297.00,0.0397
1296.00,0.0396
1295.00,0.0396
1294.00,0.0396
1293.00,0.0397
1292.00,0.0397
1291.00,0.0398
1290.00,0.0398
1289.00,0.0399
1288.00,0.0399
1287.00,0.0399
1286.00,0.0399
1285.00,0.0399
1284.00,0.0399
1283.00,0.0400
1282.00,0.0400
1281.00,0.0400
1280.00,0.0400
1279.00,0.0399
1278.00,0.0399
1277.00,0.0398
1276.00,0.0399
1275.00,0.0399
1274.00,0.0400
1273.00,0.0400
1272.00,0.0400
1271.00,0.0400
1270.00,0.0400
1269.00,0.0401
1268.00,0.0401
1267.00,0.0402
1266.00,0.0403
1265.00,0.0404
1264.00,0.0404
1263.00,0.0404
1262.00,0.0404
1261.00,0.0404
1260.00,0.0405
1259.00,0.0407
1258.00,0.0408
1257.00,0.0408
1256.00,0.0408
1255.00,0.0407
1254.00,0.0408
1253.00,0.0409
1252.00,0.0411
1251.00,0.0411
1250.00,0.0411
1249.00,0.0412
1248.00,0.0413
1247.00,0.0414
1246.00,0.0415
1245.00,0.0417
1244.00,0.0418
1243.00,0.0418
1242.00,0.0418
1241.00,0.0418
1240.00,0.0418
1239.00,0.0418
1238.00,0.0419
1237.00,0.0420
1236.00,0.0422
1235.00,0.0422
1234.00,0.0423
1233.00,0.0423
1232.00,0.0423
1231.00,0.0423
1230.00,0.0423
1229.00,0.0423
1228.00,0.0424
1227.00,0.0426
1226.00,0.0427
1225.00,0.0427
1224.00,0.0427
1223.00,0.0426
1222.00,0.0427
1221.00,0.0427
1220.00,0.0428
1219.00,0.0428
1218.00,0.0428
1217.00,0.0428
1216.00,0.0428
1215.00,0.0428
1214.00,0.0428
1213.00,0.0428
1212.00,0.0429
1211.00,0.0430
1210.00,0.0430
1209.00,0.0431
1208.00,0.0431
1207.00,0.0431
1206.00,0.0430
1205.00,0.0429
1204.00,0.0429
1203.00,0.0429
1202.00,0.0429
1201.00,0.0429
1200.00,0.0429
1199.00,0.0430
1198.00,0.0430
1197.00,0.0429
1196.00,0.0429
1195.00,0.0428
1194.00,0.0427
1193.00,0.0427
1192.00,0.0427
1191.00,0.0428
1190.00,0.0427
1189.00,0.0427
1188.00,0.0426
1187.00,0.0426
1186.00,0.0426
1185.00,0.0426
1184.00,0.0425
1183.00,0.0425
1182.00,0.0424
1181.00,0.0422
1180.00,0.0421
1179.00,0.0421
1178.00,0.0421
1177.00,0.0422
1176.00,0.0423
1175.00,0.0424
1174.00,0.0424
1173.00,0.0424
1172.00,0.0424
1171.00,0.0423
1170.00,0.0422
1169.00,0.0422
1168.00,0.0422
1167.00,0.0423
1166.00,0.0424
1165.00,0.0424
1164.00,0.0425
1163.00,0.0425
1162.00,0.0425
1161.00,0.0425
1160.00,0.0425
1159.00,0.0425
1158.00,0.0424
1157.00,0.0424
1156.00,0.0425
1155.00,0.0426
1154.00,0.0427
1153.00,0.0428
1152.00,0.0427
1151.00,0.0426
1150.00,0.0425
1149.00,0.0424
1148.00,0.0424
1147.00,0.0424
1146.00,0.0425
1145.00,0.0426
1144.00,0.0427
1143.00,0.0428
1142.00,0.0429
1141.00,0.0430
1140.00,0.0430
1139.00,0.0430
1138.00,0.0430
1137.00,0.0430
1136.00,0.0431
1135.00,0.0433
1134.00,0.0435
1133.00,0.0437
1132.00,0.0437
1131.00,0.0437
1130.00,0.0438
1129.00,0.0440
1128.00,0.0442
1127.00,0.0443
1126.00,0.0442
1125.00,0.0441
1124.00,0.0441
1123.00,0.0444
1122.00,0.0447
1121.00,0.0450
1120.00,0.0453
1119.00,0.0455
1118.00,0.0455
1117.00,0.0456
1116.00,0.0457
1115.00,0.0458
1114.00,0.0459
1113.00,0.0460
1112.00,0.0459
1111.00,0.0459
1110.00,0.0461
1109.00,0.0463
1108.00,0.0465
1107.00,0.0465
1106.00,0.0465
1105.00,0.0464
1104.00,0.0465
1103.00,0.0467
1102.00,0.0470
1101.00,0.0472
1100.00,0.0473
1099.00,0.0473
1098.00,0.0474
1097.00,0.0475
1096.00,0.0476
1095.00,0.0476
1094.00,0.0477
1093.00,0.0478
1092.00,0.0479
1091.00,0.0479
1090.00,0.0479
1089.00,0.0478
1088.00,0.0478
1087.00,0.0478
1086.00,0.0480
1085.00,0.0483
1084.00,0.0484
1083.00,0.0486
1082.00,0.0489
1081.00,0.0490
1080.00,0.0492
1079.00,0.0494
1078.00,0.0497
1077.00,0.0499
1076.00,0.0500
1075.00,0.0498
1074.00,0.0496
1073.00,0.0494
1072.00,0.0494
1071.00,0.0495
1070.00,0.0494
1069.00,0.0493
1068.00,0.0494
1067.00,0.0495
1066.00,0.0497
1065.00,0.0499
1064.00,0.0501
1063.00,0.0503
1062.00,0.0504
1061.00,0.0504
1060.00,0.0503
1059.00,0.0503
1058.00,0.0504
1057.00,0.0506
1056.00,0.0508
1055.00,0.0510
1054.00,0.0511
1053.00,0.0514
1052.00,0.0515
1051.00,0.0516
1050.00,0.0517
1049.00,0.0519
1048.00,0.0521
1047.00,0.0523
1046.00,0.0524
1045.00,0.0525
1044.00,0.0526
1043.00,0.0526
1042.00,0.0524
1041.00,0.0523
1040.00,0.0523
1039.00,0.0524
1038.00,0.0525
1037.00,0.0526
1036.00,0.0526
1035.00,0.0526
1034.00,0.0527
1033.00,0.0528
1032.00,0.0529
1031.00,0.0529
1030.00,0.0527
1029.00,0.0525
1028.00,0.0523
1027.00,0.0522
1026.00,0.0522
1025.00,0.0523
1024.00,0.0524
1023.00,0.0523
1022.00,0.0521
1021.00,0.0519
1020.00,0.0517
1019.00,0.0516
1018.00,0.0515
1017.00,0.0515
1016.00,0.0515
1015.00,0.0515
1014.00,0.0515
1013.00,0.0514
1012.00,0.0513
1011.00,0.0511
1010.00,0.0510
1009.00,0.0508
1008.00,0.0507
1007.00,0.0505
1006.00,0.0503
1005.00,0.0503
1004.00,0.0502
1003.00,0.0501
1002.00,0.0500
1001.00,0.0498
1000.00,0.0494
999.00,0.0490
998.00,0.0486
997.00,0.0483
996.00,0.0483
995.00,0.0482
994.00,0.0480
993.00,0.0477
992.00,0.0474
991.00,0.0471
990.00,0.0468
989.00,0.0467
988.00,0.0466
987.00,0.0466
986.00,0.0466
985.00,0.0465
984.00,0.0463
983.00,0.0459
982.00,0.0456
981.00,0.0454
980.00,0.0453
979.00,0.0452
978.00,0.0450
977.00,0.0447
976.00,0.0444
975.00,0.0442
974.00,0.0441
973.00,0.0440
972.00,0.0439
971.00,0.0436
970.00,0.0433
969.00,0.0431
968.00,0.0429
967.00,0.0427
966.00,0.0425
965.00,0.0423
964.00,0.0422
963.00,0.0422
962.00,0.0422
961.00,0.0421
960.00,0.0420
959.00,0.0418
958.00,0.0417
957.00,0.0416
956.00,0.0414
955.00,0.0413
954.00,0.0410
953.00,0.0409
952.00,0.0409
951.00,0.0409
950.00,0.0411
949.00,0.0411
948.00,0.0411
947.00,0.0409
946.00,0.0407
945.00,0.0406
944.00,0.0405
943.00,0.0404
942.00,0.0403
941.00,0.0403
940.00,0.0404
939.00,0.0405
938.00,0.0406
937.00,0.0406
936.00,0.0405
935.00,0.0404
934.00,0.0403
933.00,0.0405
932.00,0.0408
931.00,0.0410
930.00,0.0411
929.00,0.0411
928.00,0.0411
927.00,0.0411
926.00,0.0412
925.00,0.0413
924.00,0.0414
923.00,0.0414
922.00,0.0413
921.00,0.0412
920.00,0.0412
919.00,0.0413
918.00,0.0414
917.00,0.0415
916.00,0.0416
915.00,0.0417
914.00,0.0416
913.00,0.0415
912.00,0.0415
911.00,0.0414
910.00,0.0413
909.00,0.0410
908.00,0.0407
907.00,0.0405
906.00,0.0405
905.00,0.0407
904.00,0.0411
903.00,0.0415
902.00,0.0416
901.00,0.0415
900.00,0.0413
899.00,0.0412
898.00,0.0412
897.00,0.0413
896.00,0.0415
895.00,0.0414
894.00,0.0413
893.00,0.0410
892.00,0.0408
891.00,0.0406
890.00,0.0407
889.00,0.0408
888.00,0.0409
887.00,0.0409
886.00,0.0406
885.00,0.0404
884.00,0.0404
883.00,0.0406
882.00,0.0407
881.00,0.0407
880.00,0.0405
879.00,0.0402
878.00,0.0399
877.00,0.0397
876.00,0.0395
875.00,0.0395
874.00,0.0396
873.00,0.0397
872.00,0.0397
871.00,0.0397
870.00,0.0397
869.00,0.0396
868.00,0.0395
867.00,0.0393
866.00,0.0393
865.00,0.0394
864.00,0.0396
863.00,0.0397
862.00,0.0398
861.00,0.0398
860.00,0.0397
859.00,0.0395
858.00,0.0393
857.00,0.0391
856.00,0.0392
855.00,0.0393
854.00,0.0396
853.00,0.0396
852.00,0.0396
851.00,0.0396
850.00,0.0397
849.00,0.0400
848.00,0.0402
847.00,0.0405
846.00,0.0408
845.00,0.0410
844.00,0.0412
843.00,0.0412
842.00,0.0410
841.00,0.0409
840.00,0.0408
839.00,0.0408
838.00,0.0408
837.00,0.0410
836.00,0.0412
835.00,0.0413
834.00,0.0413
833.00,0.0413
832.00,0.0413
831.00,0.0414
830.00,0.0414
829.00,0.0415
828.00,0.0417
827.00,0.0420
826.00,0.0422
825.00,0.0424
824.00,0.0425
823.00,0.0428
822.00,0.0430
821.00,0.0432
820.00,0.0434
819.00,0.0435
818.00,0.0434
817.00,0.0431
816.00,0.0428
815.00,0.0427
814.00,0.0428
813.00,0.0431
812.00,0.0435
811.00,0.0437
810.00,0.0439
809.00,0.0439
808.00,0.0440
807.00,0.0439
806.00,0.0438
805.00,0.0437
804.00,0.0437
803.00,0.0438
802.00,0.0440
801.00,0.0443
800.00,0.0447
799.00,0.0449
798.00,0.0450
797.00,0.0449
796.00,0.0450
795.00,0.0450
794.00,0.0450
793.00,0.0449
792.00,0.0448
791.00,0.0448
790.00,0.0450
789.00,0.0452
788.00,0.0453
787.00,0.0453
786.00,0.0454
785.00,0.0456
784.00,0.0458
783.00,0.0459
782.00,0.0459
781.00,0.0459
780.00,0.0458
779.00,0.0457
778.00,0.0458
777.00,0.0460
776.00,0.0461
775.00,0.0461
774.00,0.0459
773.00,0.0456
772.00,0.0455
771.00,0.0455
770.00,0.0457
769.00,0.0459
768.00,0.0460
767.00,0.0459
766.00,0.0457
765.00,0.0457
764.00,0.0457
763.00,0.0457
762.00,0.0456
761.00,0.0453
760.00,0.0453
759.00,0.0455
758.00,0.0459
757.00,0.0463
756.00,0.0464
755.00,0.0464
754.00,0.0463
753.00,0.0462
752.00,0.0462
751.00,0.0464
750.00,0.0466
749.00,0.0467
748.00,0.0469
747.00,0.0469
746.00,0.0469
745.00,0.0467
744.00,0.0465
743.00,0.0463
742.00,0.0463
741.00,0.0463
740.00,0.0462
739.00,0.0461
738.00,0.0460
737.00,0.0460
736.00,0.0460
735.00,0.0460
734.00,0.0458
733.00,0.0458
732.00,0.0458
731.00,0.0461
730.00,0.0464
729.00,0.0468
728.00,0.0472
727.00,0.0476
726.00,0.0479
725.00,0.0479
724.00,0.0477
723.00,0.0474
722.00,0.0472
721.00,0.0472
720.00,0.0474
719.00,0.0475
718.00,0.0474
717.00,0.0473
716.00,0.0472
715.00,0.0471
714.00,0.0471
713.00,0.0474
712.00,0.0478
711.00,0.0480
710.00,0.0480
709.00,0.0478
708.00,0.0477
707.00,0.0478
706.00,0.0480
705.00,0.0483
704.00,0.0489
703.00,0.0493
702.00,0.0495
701.00,0.0493
700.00,0.0491
699.00,0.0490
698.00,0.0490
697.00,0.0492
696.00,0.0494
695.00,0.0496
694.00,0.0499
693.00,0.0501
692.00,0.0503
691.00,0.0504
690.00,0.0505
689.00,0.0507
688.00,0.0508
687.00,0.0507
686.00,0.0504
685.00,0.0501
684.00,0.0500
683.00,0.0498
682.00,0.0497
681.00,0.0496
680.00,0.0497
679.00,0.0499
678.00,0.0501
677.00,0.0503
676.00,0.0506
675.00,0.0507
674.00,0.0508
673.00,0.0508
672.00,0.0510
671.00,0.0512
670.00,0.0514
669.00,0.0517
668.00,0.0521
667.00,0.0524
666.00,0.0524
665.00,0.0523
664.00,0.0521
663.00,0.0517
662.00,0.0512
661.00,0.0508
660.00,0.0505
659.00,0.0506
658.00,0.0510
657.00,0.0518
656.00,0.0523
655.00,0.0524
654.00,0.0521
653.00,0.0518
652.00,0.0516
651.00,0.0514
650.00,0.0514
