Created as New Dataset,Monday, April 03 2023
cm-1,A
4000.00,0.0094
3999.00,0.0094
3998.00,0.0094
3997.00,0.0094
3996.00,0.0093
3995.00,0.0093
3994.00,0.0093
3993.00,0.0092
3992.00,0.0092
3991.00,0.0092
3990.00,0.0092
3989.00,0.0092
3988.00,0.0092
3987.00,0.0092
3986.00,0.0092
3985.00,0.0093
3984.00,0.0093
3983.00,0.0093
3982.00,0.0093
3981.00,0.0092
3980.00,0.0092
3979.00,0.0092
3978.00,0.0091
3977.00,0.0091
3976.00,0.0091
3975.00,0.0091
3974.00,0.0091
3973.00,0.0091
3972.00,0.0092
3971.00,0.0092
3970.00,0.0093
3969.00,0.0092
3968.00,0.0092
3967.00,0.0091
3966.00,0.0091
3965.00,0.0090
3964.00,0.0091
3963.00,0.0092
3962.00,0.0093
3961.00,0.0092
3960.00,0.0092
3959.00,0.0091
3958.00,0.0091
3957.00,0.0090
3956.00,0.0090
3955.00,0.0090
3954.00,0.0090
3953.00,0.0089
3952.00,0.0090
3951.00,0.0090
3950.00,0.0091
3949.00,0.0092
3948.00,0.0092
3947.00,0.0092
3946.00,0.0092
3945.00,0.0091
3944.00,0.0091
3943.00,0.0090
3942.00,0.0090
3941.00,0.0090
3940.00,0.0090
3939.00,0.0090
3938.00,0.0090
3937.00,0.0090
3936.00,0.0090
3935.00,0.0089
3934.00,0.0089
3933.00,0.0089
3932.00,0.0089
3931.00,0.0089
3930.00,0.0089
3929.00,0.0089
3928.00,0.0089
3927.00,0.0090
3926.00,0.0090
3925.00,0.0090
3924.00,0.0090
3923.00,0.0090
3922.00,0.0089
3921.00,0.0089
3920.00,0.0088
3919.00,0.0088
3918.00,0.0089
3917.00,0.0089
3916.00,0.0089
3915.00,0.0089
3914.00,0.0089
3913.00,0.0089
3912.00,0.0089
3911.00,0.0089
3910.00,0.0088
3909.00,0.0088
3908.00,0.0087
3907.00,0.0086
3906.00,0.0086
3905.00,0.0086
3904.00,0.0085
3903.00,0.0085
3902.00,0.0085
3901.00,0.0086
3900.00,0.0087
3899.00,0.0087
3898.00,0.0087
3897.00,0.0086
3896.00,0.0086
3895.00,0.0087
3894.00,0.0087
3893.00,0.0087
3892.00,0.0087
3891.00,0.0086
3890.00,0.0085
3889.00,0.0084
3888.00,0.0084
3887.00,0.0084
3886.00,0.0084
3885.00,0.0084
3884.00,0.0083
3883.00,0.0083
3882.00,0.0084
3881.00,0.0084
3880.00,0.0084
3879.00,0.0084
3878.00,0.0084
3877.00,0.0086
3876.00,0.0087
3875.00,0.0087
3874.00,0.0086
3873.00,0.0084
3872.00,0.0083
3871.00,0.0083
3870.00,0.0084
3869.00,0.0083
3868.00,0.0082
3867.00,0.0082
3866.00,0.0083
3865.00,0.0084
3864.00,0.0086
3863.00,0.0086
3862.00,0.0087
3861.00,0.0087
3860.00,0.0086
3859.00,0.0085
3858.00,0.0083
3857.00,0.0080
3856.00,0.0077
3855.00,0.0077
3854.00,0.0079
3853.00,0.0081
3852.00,0.0082
3851.00,0.0082
3850.00,0.0084
3849.00,0.0085
3848.00,0.0085
3847.00,0.0085
3846.00,0.0084
3845.00,0.0084
3844.00,0.0083
3843.00,0.0082
3842.00,0.0081
3841.00,0.0081
3840.00,0.0082
3839.00,0.0082
3838.00,0.0083
3837.00,0.0083
3836.00,0.0082
3835.00,0.0083
3834.00,0.0083
3833.00,0.0084
3832.00,0.0084
3831.00,0.0084
3830.00,0.0084
3829.00,0.0084
3828.00,0.0084
3827.00,0.0084
3826.00,0.0083
3825.00,0.0083
3824.00,0.0083
3823.00,0.0083
3822.00,0.0084
3821.00,0.0083
3820.00,0.0080
3819.00,0.0078
3818.00,0.0079
3817.00,0.0081
3816.00,0.0084
3815.00,0.0085
3814.00,0.0086
3813.00,0.0086
3812.00,0.0086
3811.00,0.0085
3810.00,0.0083
3809.00,0.0082
3808.00,0.0083
3807.00,0.0084
3806.00,0.0084
3805.00,0.0083
3804.00,0.0084
3803.00,0.0085
3802.00,0.0086
3801.00,0.0085
3800.00,0.0084
3799.00,0.0083
3798.00,0.0084
3797.00,0.0084
3796.00,0.0084
3795.00,0.0083
3794.00,0.0083
3793.00,0.0084
3792.00,0.0085
3791.00,0.0085
3790.00,0.0085
3789.00,0.0086
3788.00,0.0086
3787.00,0.0086
3786.00,0.0086
3785.00,0.0086
3784.00,0.0086
3783.00,0.0085
3782.00,0.0085
3781.00,0.0085
3780.00,0.0084
3779.00,0.0084
3778.00,0.0084
3777.00,0.0084
3776.00,0.0084
3775.00,0.0084
3774.00,0.0084
3773.00,0.0083
3772.00,0.0083
3771.00,0.0082
3770.00,0.0082
3769.00,0.0081
3768.00,0.0080
3767.00,0.0081
3766.00,0.0082
3765.00,0.0083
3764.00,0.0083
3763.00,0.0082
3762.00,0.0082
3761.00,0.0083
3760.00,0.0083
3759.00,0.0082
3758.00,0.0081
3757.00,0.0080
3756.00,0.0080
3755.00,0.0079
3754.00,0.0078
3753.00,0.0077
3752.00,0.0077
3751.00,0.0078
3750.00,0.0078
3749.00,0.0078
3748.00,0.0078
3747.00,0.0078
3746.00,0.0079
3745.00,0.0081
3744.00,0.0080
3743.00,0.0079
3742.00,0.0078
3741.00,0.0080
3740.00,0.0082
3739.00,0.0082
3738.00,0.0082
3737.00,0.0081
3736.00,0.0081
3735.00,0.0080
3734.00,0.0079
3733.00,0.0078
3732.00,0.0078
3731.00,0.0078
3730.00,0.0079
3729.00,0.0080
3728.00,0.0081
3727.00,0.0082
3726.00,0.0082
3725.00,0.0081
3724.00,0.0081
3723.00,0.0081
3722.00,0.0081
3721.00,0.0082
3720.00,0.0082
3719.00,0.0082
3718.00,0.0082
3717.00,0.0081
3716.00,0.0080
3715.00,0.0079
3714.00,0.0079
3713.00,0.0080
3712.00,0.0081
3711.00,0.0081
3710.00,0.0080
3709.00,0.0079
3708.00,0.0080
3707.00,0.0082
3706.00,0.0084
3705.00,0.0085
3704.00,0.0086
3703.00,0.0085
3702.00,0.0085
3701.00,0.0084
3700.00,0.0085
3699.00,0.0085
3698.00,0.0086
3697.00,0.0087
3696.00,0.0086
3695.00,0.0085
3694.00,0.0084
3693.00,0.0083
3692.00,0.0082
3691.00,0.0082
3690.00,0.0084
3689.00,0.0085
3688.00,0.0085
3687.00,0.0085
3686.00,0.0085
3685.00,0.0086
3684.00,0.0085
3683.00,0.0085
3682.00,0.0083
3681.00,0.0081
3680.00,0.0079
3679.00,0.0077
3678.00,0.0074
3677.00,0.0073
3676.00,0.0073
3675.00,0.0072
3674.00,0.0071
3673.00,0.0071
3672.00,0.0073
3671.00,0.0077
3670.00,0.0080
3669.00,0.0081
3668.00,0.0080
3667.00,0.0080
3666.00,0.0080
3665.00,0.0081
3664.00,0.0082
3663.00,0.0083
3662.00,0.0083
3661.00,0.0084
3660.00,0.0084
3659.00,0.0084
3658.00,0.0085
3657.00,0.0085
3656.00,0.0085
3655.00,0.0084
3654.00,0.0084
3653.00,0.0083
3652.00,0.0082
3651.00,0.0082
3650.00,0.0081
3649.00,0.0082
3648.00,0.0082
3647.00,0.0083
3646.00,0.0083
3645.00,0.0085
3644.00,0.0087
3643.00,0.0089
3642.00,0.0090
3641.00,0.0090
3640.00,0.0090
3639.00,0.0091
3638.00,0.0091
3637.00,0.0091
3636.00,0.0092
3635.00,0.0092
3634.00,0.0091
3633.00,0.0090
3632.00,0.0089
3631.00,0.0088
3630.00,0.0090
3629.00,0.0093
3628.00,0.0094
3627.00,0.0093
3626.00,0.0094
3625.00,0.0095
3624.00,0.0096
3623.00,0.0096
3622.00,0.0097
3621.00,0.0097
3620.00,0.0098
3619.00,0.0099
3618.00,0.0098
3617.00,0.0098
3616.00,0.0098
3615.00,0.0099
3614.00,0.0099
3613.00,0.0099
3612.00,0.0098
3611.00,0.0099
3610.00,0.0100
3609.00,0.0102
3608.00,0.0103
3607.00,0.0104
3606.00,0.0104
3605.00,0.0103
3604.00,0.0104
3603.00,0.0105
3602.00,0.0106
3601.00,0.0107
3600.00,0.0107
3599.00,0.0107
3598.00,0.0106
3597.00,0.0106
3596.00,0.0106
3595.00,0.0107
3594.00,0.0107
3593.00,0.0107
3592.00,0.0107
3591.00,0.0107
3590.00,0.0107
3589.00,0.0108
3588.00,0.0109
3587.00,0.0110
3586.00,0.0111
3585.00,0.0111
3584.00,0.0112
3583.00,0.0113
3582.00,0.0113
3581.00,0.0114
3580.00,0.0114
3579.00,0.0114
3578.00,0.0115
3577.00,0.0115
3576.00,0.0115
3575.00,0.0116
3574.00,0.0116
3573.00,0.0116
3572.00,0.0116
3571.00,0.0115
3570.00,0.0115
3569.00,0.0115
3568.00,0.0116
3567.00,0.0118
3566.00,0.0119
3565.00,0.0120
3564.00,0.0119
3563.00,0.0120
3562.00,0.0121
3561.00,0.0122
3560.00,0.0122
3559.00,0.0123
3558.00,0.0124
3557.00,0.0124
3556.00,0.0125
3555.00,0.0126
3554.00,0.0127
3553.00,0.0127
3552.00,0.0128
3551.00,0.0129
3550.00,0.0129
3549.00,0.0129
3548.00,0.0130
3547.00,0.0131
3546.00,0.0131
3545.00,0.0132
3544.00,0.0132
3543.00,0.0132
3542.00,0.0132
3541.00,0.0132
3540.00,0.0132
3539.00,0.0131
3538.00,0.0131
3537.00,0.0131
3536.00,0.0131
3535.00,0.0133
3534.00,0.0134
3533.00,0.0136
3532.00,0.0136
3531.00,0.0136
3530.00,0.0136
3529.00,0.0135
3528.00,0.0134
3527.00,0.0134
3526.00,0.0135
3525.00,0.0136
3524.00,0.0138
3523.00,0.0140
3522.00,0.0140
3521.00,0.0140
3520.00,0.0140
3519.00,0.0139
3518.00,0.0138
3517.00,0.0138
3516.00,0.0138
3515.00,0.0139
3514.00,0.0140
3513.00,0.0141
3512.00,0.0142
3511.00,0.0142
3510.00,0.0142
3509.00,0.0142
3508.00,0.0142
3507.00,0.0142
3506.00,0.0143
3505.00,0.0143
3504.00,0.0144
3503.00,0.0145
3502.00,0.0146
3501.00,0.0146
3500.00,0.0146
3499.00,0.0147
3498.00,0.0147
3497.00,0.0148
3496.00,0.0148
3495.00,0.0148
3494.00,0.0148
3493.00,0.0148
3492.00,0.0148
3491.00,0.0148
3490.00,0.0148
3489.00,0.0148
3488.00,0.0149
3487.00,0.0149
3486.00,0.0150
3485.00,0.0150
3484.00,0.0150
3483.00,0.0150
3482.00,0.0151
3481.00,0.0152
3480.00,0.0152
3479.00,0.0153
3478.00,0.0153
3477.00,0.0153
3476.00,0.0154
3475.00,0.0155
3474.00,0.0156
3473.00,0.0156
3472.00,0.0157
3471.00,0.0157
3470.00,0.0158
3469.00,0.0158
3468.00,0.0158
3467.00,0.0158
3466.00,0.0158
3465.00,0.0159
3464.00,0.0159
3463.00,0.0159
3462.00,0.0158
3461.00,0.0157
3460.00,0.0158
3459.00,0.0159
3458.00,0.0160
3457.00,0.0161
3456.00,0.0160
3455.00,0.0160
3454.00,0.0159
3453.00,0.0160
3452.00,0.0161
3451.00,0.0162
3450.00,0.0163
3449.00,0.0163
3448.00,0.0163
3447.00,0.0164
3446.00,0.0164
3445.00,0.0164
3444.00,0.0164
3443.00,0.0165
3442.00,0.0164
3441.00,0.0164
3440.00,0.0163
3439.00,0.0163
3438.00,0.0164
3437.00,0.0164
3436.00,0.0164
3435.00,0.0164
3434.00,0.0164
3433.00,0.0164
3432.00,0.0165
3431.00,0.0166
3430.00,0.0167
3429.00,0.0167
3428.00,0.0167
3427.00,0.0167
3426.00,0.0167
3425.00,0.0168
3424.00,0.0169
3423.00,0.0169
3422.00,0.0170
3421.00,0.0170
3420.00,0.0169
3419.00,0.0169
3418.00,0.0170
3417.00,0.0170
3416.00,0.0170
3415.00,0.0169
3414.00,0.0169
3413.00,0.0170
3412.00,0.0171
3411.00,0.0172
3410.00,0.0172
3409.00,0.0173
3408.00,0.0173
3407.00,0.0174
3406.00,0.0173
3405.00,0.0173
3404.00,0.0172
3403.00,0.0172
3402.00,0.0172
3401.00,0.0172
3400.00,0.0173
3399.00,0.0174
3398.00,0.0174
3397.00,0.0174
3396.00,0.0174
3395.00,0.0173
3394.00,0.0174
3393.00,0.0174
3392.00,0.0175
3391.00,0.0175
3390.00,0.0175
3389.00,0.0176
3388.00,0.0175
3387.00,0.0175
3386.00,0.0175
3385.00,0.0175
3384.00,0.0176
3383.00,0.0177
3382.00,0.0178
3381.00,0.0178
3380.00,0.0178
3379.00,0.0178
3378.00,0.0178
3377.00,0.0178
3376.00,0.0178
3375.00,0.0178
3374.00,0.0178
3373.00,0.0177
3372.00,0.0177
3371.00,0.0177
3370.00,0.0177
3369.00,0.0177
3368.00,0.0178
3367.00,0.0179
3366.00,0.0178
3365.00,0.0178
3364.00,0.0177
3363.00,0.0178
3362.00,0.0179
3361.00,0.0180
3360.00,0.0181
3359.00,0.0182
3358.00,0.0181
3357.00,0.0181
3356.00,0.0180
3355.00,0.0180
3354.00,0.0181
3353.00,0.0181
3352.00,0.0181
3351.00,0.0182
3350.00,0.0181
3349.00,0.0181
3348.00,0.0181
3347.00,0.0181
3346.00,0.0181
3345.00,0.0180
3344.00,0.0180
3343.00,0.0180
3342.00,0.0180
3341.00,0.0180
3340.00,0.0181
3339.00,0.0181
3338.00,0.0182
3337.00,0.0182
3336.00,0.0182
3335.00,0.0182
3334.00,0.0182
3333.00,0.0182
3332.00,0.0182
3331.00,0.0181
3330.00,0.0180
3329.00,0.0180
3328.00,0.0180
3327.00,0.0180
3326.00,0.0181
3325.00,0.0182
3324.00,0.0183
3323.00,0.0183
3322.00,0.0182
3321.00,0.0182
3320.00,0.0181
3319.00,0.0181
3318.00,0.0181
3317.00,0.0181
3316.00,0.0181
3315.00,0.0181
3314.00,0.0181
3313.00,0.0181
3312.00,0.0180
3311.00,0.0180
3310.00,0.0180
3309.00,0.0181
3308.00,0.0182
3307.00,0.0183
3306.00,0.0183
3305.00,0.0182
3304.00,0.0182
3303.00,0.0182
3302.00,0.0182
3301.00,0.0182
3300.00,0.0182
3299.00,0.0182
3298.00,0.0182
3297.00,0.0183
3296.00,0.0183
3295.00,0.0184
3294.00,0.0184
3293.00,0.0183
3292.00,0.0182
3291.00,0.0182
3290.00,0.0182
3289.00,0.0182
3288.00,0.0182
3287.00,0.0182
3286.00,0.0183
3285.00,0.0183
3284.00,0.0183
3283.00,0.0183
3282.00,0.0183
3281.00,0.0182
3280.00,0.0182
3279.00,0.0181
3278.00,0.0181
3277.00,0.0181
3276.00,0.0182
3275.00,0.0182
3274.00,0.0183
3273.00,0.0183
3272.00,0.0183
3271.00,0.0183
3270.00,0.0183
3269.00,0.0184
3268.00,0.0184
3267.00,0.0184
3266.00,0.0183
3265.00,0.0182
3264.00,0.0181
3263.00,0.0181
3262.00,0.0181
3261.00,0.0181
3260.00,0.0181
3259.00,0.0182
3258.00,0.0182
3257.00,0.0181
3256.00,0.0180
3255.00,0.0180
3254.00,0.0180
3253.00,0.0180
3252.00,0.0181
3251.00,0.0181
3250.00,0.0181
3249.00,0.0180
3248.00,0.0180
3247.00,0.0180
3246.00,0.0179
3245.00,0.0180
3244.00,0.0180
3243.00,0.0180
3242.00,0.0180
3241.00,0.0180
3240.00,0.0179
3239.00,0.0179
3238.00,0.0180
3237.00,0.0180
3236.00,0.0181
3235.00,0.0181
3234.00,0.0181
3233.00,0.0181
3232.00,0.0181
3231.00,0.0180
3230.00,0.0179
3229.00,0.0178
3228.00,0.0178
3227.00,0.0178
3226.00,0.0178
3225.00,0.0178
3224.00,0.0178
3223.00,0.0178
3222.00,0.0178
3221.00,0.0178
3220.00,0.0177
3219.00,0.0177
3218.00,0.0177
3217.00,0.0177
3216.00,0.0178
3215.00,0.0178
3214.00,0.0178
3213.00,0.0177
3212.00,0.0176
3211.00,0.0175
3210.00,0.0175
3209.00,0.0174
3208.00,0.0174
3207.00,0.0174
3206.00,0.0174
3205.00,0.0174
3204.00,0.0175
3203.00,0.0175
3202.00,0.0175
3201.00,0.0175
3200.00,0.0175
3199.00,0.0175
3198.00,0.0175
3197.00,0.0174
3196.00,0.0174
3195.00,0.0174
3194.00,0.0173
3193.00,0.0173
3192.00,0.0173
3191.00,0.0172
3190.00,0.0171
3189.00,0.0171
3188.00,0.0170
3187.00,0.0169
3186.00,0.0169
3185.00,0.0169
3184.00,0.0170
3183.00,0.0170
3182.00,0.0171
3181.00,0.0171
3180.00,0.0171
3179.00,0.0170
3178.00,0.0168
3177.00,0.0167
3176.00,0.0167
3175.00,0.0167
3174.00,0.0167
3173.00,0.0167
3172.00,0.0167
3171.00,0.0167
3170.00,0.0167
3169.00,0.0166
3168.00,0.0166
3167.00,0.0166
3166.00,0.0166
3165.00,0.0167
3164.00,0.0168
3163.00,0.0168
3162.00,0.0167
3161.00,0.0166
3160.00,0.0164
3159.00,0.0163
3158.00,0.0162
3157.00,0.0162
3156.00,0.0162
3155.00,0.0163
3154.00,0.0163
3153.00,0.0164
3152.00,0.0163
3151.00,0.0163
3150.00,0.0162
3149.00,0.0161
3148.00,0.0161
3147.00,0.0161
3146.00,0.0161
3145.00,0.0161
3144.00,0.0161
3143.00,0.0161
3142.00,0.0160
3141.00,0.0160
3140.00,0.0159
3139.00,0.0159
3138.00,0.0159
3137.00,0.0159
3136.00,0.0159
3135.00,0.0159
3134.00,0.0159
3133.00,0.0158
3132.00,0.0158
3131.00,0.0158
3130.00,0.0158
3129.00,0.0158
3128.00,0.0157
3127.00,0.0157
3126.00,0.0156
3125.00,0.0156
3124.00,0.0156
3123.00,0.0155
3122.00,0.0155
3121.00,0.0155
3120.00,0.0155
3119.00,0.0155
3118.00,0.0155
3117.00,0.0155
3116.00,0.0154
3115.00,0.0154
3114.00,0.0154
3113.00,0.0154
3112.00,0.0154
3111.00,0.0153
3110.00,0.0153
3109.00,0.0152
3108.00,0.0152
3107.00,0.0152
3106.00,0.0153
3105.00,0.0153
3104.00,0.0153
3103.00,0.0152
3102.00,0.0152
3101.00,0.0151
3100.00,0.0151
3099.00,0.0150
3098.00,0.0150
3097.00,0.0149
3096.00,0.0150
3095.00,0.0151
3094.00,0.0151
3093.00,0.0151
3092.00,0.0151
3091.00,0.0150
3090.00,0.0149
3089.00,0.0148
3088.00,0.0147
3087.00,0.0147
3086.00,0.0147
3085.00,0.0148
3084.00,0.0148
3083.00,0.0149
3082.00,0.0148
3081.00,0.0148
3080.00,0.0148
3079.00,0.0148
3078.00,0.0148
3077.00,0.0147
3076.00,0.0147
3075.00,0.0147
3074.00,0.0147
3073.00,0.0147
3072.00,0.0147
3071.00,0.0147
3070.00,0.0147
3069.00,0.0147
3068.00,0.0147
3067.00,0.0146
3066.00,0.0146
3065.00,0.0145
3064.00,0.0144
3063.00,0.0143
3062.00,0.0143
3061.00,0.0143
3060.00,0.0143
3059.00,0.0143
3058.00,0.0143
3057.00,0.0143
3056.00,0.0143
3055.00,0.0143
3054.00,0.0142
3053.00,0.0142
3052.00,0.0142
3051.00,0.0142
3050.00,0.0142
3049.00,0.0143
3048.00,0.0143
3047.00,0.0143
3046.00,0.0142
3045.00,0.0142
3044.00,0.0141
3043.00,0.0141
3042.00,0.0140
3041.00,0.0139
3040.00,0.0138
3039.00,0.0138
3038.00,0.0139
3037.00,0.0139
3036.00,0.0139
3035.00,0.0139
3034.00,0.0139
3033.00,0.0139
3032.00,0.0138
3031.00,0.0138
3030.00,0.0137
3029.00,0.0136
3028.00,0.0136
3027.00,0.0136
3026.00,0.0136
3025.00,0.0136
3024.00,0.0136
3023.00,0.0136
3022.00,0.0135
3021.00,0.0135
3020.00,0.0135
3019.00,0.0134
3018.00,0.0133
3017.00,0.0133
3016.00,0.0132
3015.00,0.0132
3014.00,0.0131
3013.00,0.0130
3012.00,0.0130
3011.00,0.0129
3010.00,0.0128
3009.00,0.0127
3008.00,0.0125
3007.00,0.0124
3006.00,0.0122
3005.00,0.0121
3004.00,0.0120
3003.00,0.0119
3002.00,0.0117
3001.00,0.0116
3000.00,0.0114
2999.00,0.0113
2998.00,0.0112
2997.00,0.0111
2996.00,0.0110
2995.00,0.0110
2994.00,0.0109
2993.00,0.0109
2992.00,0.0108
2991.00,0.0107
2990.00,0.0106
2989.00,0.0106
2988.00,0.0105
2987.00,0.0103
2986.00,0.0100
2985.00,0.0096
2984.00,0.0092
2983.00,0.0089
2982.00,0.0088
2981.00,0.0088
2980.00,0.0090
2979.00,0.0092
2978.00,0.0095
2977.00,0.0097
2976.00,0.0099
2975.00,0.0099
2974.00,0.0099
2973.00,0.0099
2972.00,0.0098
2971.00,0.0099
2970.00,0.0101
2969.00,0.0104
2968.00,0.0106
2967.00,0.0108
2966.00,0.0109
2965.00,0.0111
2964.00,0.0112
2963.00,0.0114
2962.00,0.0116
2961.00,0.0117
2960.00,0.0118
2959.00,0.0118
2958.00,0.0118
2957.00,0.0119
2956.00,0.0120
2955.00,0.0122
2954.00,0.0123
2953.00,0.0124
2952.00,0.0125
2951.00,0.0126
2950.00,0.0127
2949.00,0.0128
2948.00,0.0129
2947.00,0.0129
2946.00,0.0130
2945.00,0.0131
2944.00,0.0133
2943.00,0.0134
2942.00,0.0136
2941.00,0.0137
2940.00,0.0138
2939.00,0.0139
2938.00,0.0140
2937.00,0.0141
2936.00,0.0142
2935.00,0.0144
2934.00,0.0145
2933.00,0.0146
2932.00,0.0147
2931.00,0.0148
2930.00,0.0149
2929.00,0.0151
2928.00,0.0152
2927.00,0.0153
2926.00,0.0153
2925.00,0.0153
2924.00,0.0152
2923.00,0.0152
2922.00,0.0151
2921.00,0.0150
2920.00,0.0148
2919.00,0.0147
2918.00,0.0145
2917.00,0.0143
2916.00,0.0141
2915.00,0.0140
2914.00,0.0138
2913.00,0.0137
2912.00,0.0136
2911.00,0.0136
2910.00,0.0135
2909.00,0.0135
2908.00,0.0134
2907.00,0.0133
2906.00,0.0132
2905.00,0.0131
2904.00,0.0130
2903.00,0.0129
2902.00,0.0129
2901.00,0.0128
2900.00,0.0128
2899.00,0.0127
2898.00,0.0126
2897.00,0.0126
2896.00,0.0125
2895.00,0.0125
2894.00,0.0124
2893.00,0.0123
2892.00,0.0123
2891.00,0.0122
2890.00,0.0122
2889.00,0.0121
2888.00,0.0121
2887.00,0.0121
2886.00,0.0120
2885.00,0.0119
2884.00,0.0119
2883.00,0.0119
2882.00,0.0119
2881.00,0.0119
2880.00,0.0120
2879.00,0.0121
2878.00,0.0122
2877.00,0.0122
2876.00,0.0123
2875.00,0.0123
2874.00,0.0123
2873.00,0.0122
2872.00,0.0122
2871.00,0.0122
2870.00,0.0123
2869.00,0.0124
2868.00,0.0124
2867.00,0.0124
2866.00,0.0125
2865.00,0.0125
2864.00,0.0126
2863.00,0.0127
2862.00,0.0128
2861.00,0.0130
2860.00,0.0131
2859.00,0.0133
2858.00,0.0135
2857.00,0.0136
2856.00,0.0136
2855.00,0.0136
2854.00,0.0136
2853.00,0.0135
2852.00,0.0135
2851.00,0.0135
2850.00,0.0134
2849.00,0.0133
2848.00,0.0131
2847.00,0.0130
2846.00,0.0128
2845.00,0.0126
2844.00,0.0125
2843.00,0.0124
2842.00,0.0123
2841.00,0.0121
2840.00,0.0120
2839.00,0.0119
2838.00,0.0119
2837.00,0.0119
2836.00,0.0119
2835.00,0.0119
2834.00,0.0119
2833.00,0.0118
2832.00,0.0117
2831.00,0.0116
2830.00,0.0116
2829.00,0.0116
2828.00,0.0116
2827.00,0.0116
2826.00,0.0116
2825.00,0.0115
2824.00,0.0115
2823.00,0.0115
2822.00,0.0114
2821.00,0.0114
2820.00,0.0113
2819.00,0.0112
2818.00,0.0112
2817.00,0.0112
2816.00,0.0112
2815.00,0.0111
2814.00,0.0111
2813.00,0.0111
2812.00,0.0111
2811.00,0.0111
2810.00,0.0111
2809.00,0.0111
2808.00,0.0111
2807.00,0.0110
2806.00,0.0110
2805.00,0.0110
2804.00,0.0110
2803.00,0.0110
2802.00,0.0110
2801.00,0.0109
2800.00,0.0109
2799.00,0.0109
2798.00,0.0109
2797.00,0.0109
2796.00,0.0109
2795.00,0.0109
2794.00,0.0108
2793.00,0.0108
2792.00,0.0108
2791.00,0.0109
2790.00,0.0109
2789.00,0.0109
2788.00,0.0109
2787.00,0.0109
2786.00,0.0108
2785.00,0.0107
2784.00,0.0107
2783.00,0.0107
2782.00,0.0106
2781.00,0.0105
2780.00,0.0105
2779.00,0.0105
2778.00,0.0105
2777.00,0.0106
2776.00,0.0106
2775.00,0.0106
2774.00,0.0106
2773.00,0.0106
2772.00,0.0105
2771.00,0.0105
2770.00,0.0104
2769.00,0.0103
2768.00,0.0103
2767.00,0.0103
2766.00,0.0103
2765.00,0.0104
2764.00,0.0104
2763.00,0.0104
2762.00,0.0104
2761.00,0.0104
2760.00,0.0104
2759.00,0.0103
2758.00,0.0103
2757.00,0.0103
2756.00,0.0103
2755.00,0.0103
2754.00,0.0103
2753.00,0.0103
2752.00,0.0103
2751.00,0.0103
2750.00,0.0103
2749.00,0.0103
2748.00,0.0103
2747.00,0.0103
2746.00,0.0103
2745.00,0.0103
2744.00,0.0103
2743.00,0.0103
2742.00,0.0103
2741.00,0.0103
2740.00,0.0102
2739.00,0.0102
2738.00,0.0101
2737.00,0.0101
2736.00,0.0101
2735.00,0.0101
2734.00,0.0101
2733.00,0.0101
2732.00,0.0101
2731.00,0.0101
2730.00,0.0101
2729.00,0.0100
2728.00,0.0100
2727.00,0.0100
2726.00,0.0100
2725.00,0.0100
2724.00,0.0100
2723.00,0.0100
2722.00,0.0100
2721.00,0.0099
2720.00,0.0099
2719.00,0.0099
2718.00,0.0099
2717.00,0.0100
2716.00,0.0100
2715.00,0.0100
2714.00,0.0100
2713.00,0.0100
2712.00,0.0100
2711.00,0.0099
2710.00,0.0099
2709.00,0.0099
2708.00,0.0099
2707.00,0.0098
2706.00,0.0098
2705.00,0.0098
2704.00,0.0098
2703.00,0.0098
2702.00,0.0098
2701.00,0.0098
2700.00,0.0098
2699.00,0.0098
2698.00,0.0098
2697.00,0.0098
2696.00,0.0098
2695.00,0.0098
2694.00,0.0098
2693.00,0.0098
2692.00,0.0098
2691.00,0.0098
2690.00,0.0097
2689.00,0.0097
2688.00,0.0097
2687.00,0.0097
2686.00,0.0097
2685.00,0.0098
2684.00,0.0098
2683.00,0.0097
2682.00,0.0097
2681.00,0.0097
2680.00,0.0097
2679.00,0.0096
2678.00,0.0096
2677.00,0.0095
2676.00,0.0095
2675.00,0.0095
2674.00,0.0095
2673.00,0.0095
2672.00,0.0095
2671.00,0.0095
2670.00,0.0095
2669.00,0.0095
2668.00,0.0095
2667.00,0.0095
2666.00,0.0095
2665.00,0.0096
2664.00,0.0096
2663.00,0.0096
2662.00,0.0096
2661.00,0.0096
2660.00,0.0096
2659.00,0.0097
2658.00,0.0097
2657.00,0.0097
2656.00,0.0097
2655.00,0.0097
2654.00,0.0097
2653.00,0.0097
2652.00,0.0097
2651.00,0.0097
2650.00,0.0097
2649.00,0.0097
2648.00,0.0097
2647.00,0.0096
2646.00,0.0096
2645.00,0.0096
2644.00,0.0096
2643.00,0.0096
2642.00,0.0096
2641.00,0.0096
2640.00,0.0096
2639.00,0.0096
2638.00,0.0096
2637.00,0.0096
2636.00,0.0095
2635.00,0.0095
2634.00,0.0095
2633.00,0.0095
2632.00,0.0095
2631.00,0.0095
2630.00,0.0095
2629.00,0.0094
2628.00,0.0094
2627.00,0.0094
2626.00,0.0094
2625.00,0.0095
2624.00,0.0095
2623.00,0.0095
2622.00,0.0095
2621.00,0.0095
2620.00,0.0095
2619.00,0.0095
2618.00,0.0095
2617.00,0.0095
2616.00,0.0095
2615.00,0.0094
2614.00,0.0094
2613.00,0.0094
2612.00,0.0094
2611.00,0.0095
2610.00,0.0094
2609.00,0.0093
2608.00,0.0093
2607.00,0.0093
2606.00,0.0093
2605.00,0.0094
2604.00,0.0095
2603.00,0.0095
2602.00,0.0095
2601.00,0.0094
2600.00,0.0094
2599.00,0.0094
2598.00,0.0093
2597.00,0.0092
2596.00,0.0092
2595.00,0.0092
2594.00,0.0092
2593.00,0.0092
2592.00,0.0093
2591.00,0.0093
2590.00,0.0093
2589.00,0.0093
2588.00,0.0093
2587.00,0.0093
2586.00,0.0092
2585.00,0.0091
2584.00,0.0090
2583.00,0.0090
2582.00,0.0090
2581.00,0.0091
2580.00,0.0092
2579.00,0.0092
2578.00,0.0093
2577.00,0.0092
2576.00,0.0091
2575.00,0.0091
2574.00,0.0090
2573.00,0.0091
2572.00,0.0091
2571.00,0.0091
2570.00,0.0091
2569.00,0.0090
2568.00,0.0090
2567.00,0.0091
2566.00,0.0092
2565.00,0.0092
2564.00,0.0092
2563.00,0.0092
2562.00,0.0092
2561.00,0.0092
2560.00,0.0092
2559.00,0.0092
2558.00,0.0092
2557.00,0.0092
2556.00,0.0093
2555.00,0.0093
2554.00,0.0092
2553.00,0.0092
2552.00,0.0090
2551.00,0.0089
2550.00,0.0088
2549.00,0.0087
2548.00,0.0086
2547.00,0.0086
2546.00,0.0087
2545.00,0.0087
2544.00,0.0088
2543.00,0.0088
2542.00,0.0087
2541.00,0.0086
2540.00,0.0085
2539.00,0.0084
2538.00,0.0084
2537.00,0.0084
2536.00,0.0084
2535.00,0.0085
2534.00,0.0086
2533.00,0.0086
2532.00,0.0087
2531.00,0.0087
2530.00,0.0086
2529.00,0.0086
2528.00,0.0085
2527.00,0.0085
2526.00,0.0084
2525.00,0.0084
2524.00,0.0083
2523.00,0.0084
2522.00,0.0084
2521.00,0.0085
2520.00,0.0085
2519.00,0.0086
2518.00,0.0086
2517.00,0.0087
2516.00,0.0087
2515.00,0.0087
2514.00,0.0086
2513.00,0.0085
2512.00,0.0085
2511.00,0.0085
2510.00,0.0087
2509.00,0.0088
2508.00,0.0088
2507.00,0.0088
2506.00,0.0087
2505.00,0.0086
2504.00,0.0086
2503.00,0.0086
2502.00,0.0086
2501.00,0.0086
2500.00,0.0087
2499.00,0.0087
2498.00,0.0086
2497.00,0.0086
2496.00,0.0086
2495.00,0.0087
2494.00,0.0087
2493.00,0.0087
2492.00,0.0087
2491.00,0.0087
2490.00,0.0087
2489.00,0.0087
2488.00,0.0087
2487.00,0.0087
2486.00,0.0086
2485.00,0.0085
2484.00,0.0085
2483.00,0.0085
2482.00,0.0085
2481.00,0.0086
2480.00,0.0087
2479.00,0.0087
2478.00,0.0086
2477.00,0.0085
2476.00,0.0084
2475.00,0.0084
2474.00,0.0084
2473.00,0.0084
2472.00,0.0085
2471.00,0.0085
2470.00,0.0085
2469.00,0.0085
2468.00,0.0085
2467.00,0.0084
2466.00,0.0084
2465.00,0.0084
2464.00,0.0083
2463.00,0.0083
2462.00,0.0083
2461.00,0.0083
2460.00,0.0084
2459.00,0.0084
2458.00,0.0085
2457.00,0.0085
2456.00,0.0085
2455.00,0.0085
2454.00,0.0086
2453.00,0.0086
2452.00,0.0087
2451.00,0.0087
2450.00,0.0087
2449.00,0.0086
2448.00,0.0085
2447.00,0.0085
2446.00,0.0084
2445.00,0.0083
2444.00,0.0082
2443.00,0.0082
2442.00,0.0082
2441.00,0.0083
2440.00,0.0083
2439.00,0.0083
2438.00,0.0083
2437.00,0.0083
2436.00,0.0083
2435.00,0.0082
2434.00,0.0082
2433.00,0.0082
2432.00,0.0081
2431.00,0.0081
2430.00,0.0082
2429.00,0.0082
2428.00,0.0082
2427.00,0.0082
2426.00,0.0082
2425.00,0.0082
2424.00,0.0082
2423.00,0.0082
2422.00,0.0082
2421.00,0.0081
2420.00,0.0081
2419.00,0.0081
2418.00,0.0081
2417.00,0.0080
2416.00,0.0080
2415.00,0.0079
2414.00,0.0080
2413.00,0.0080
2412.00,0.0081
2411.00,0.0081
2410.00,0.0081
2409.00,0.0081
2408.00,0.0081
2407.00,0.0081
2406.00,0.0081
2405.00,0.0081
2404.00,0.0081
2403.00,0.0080
2402.00,0.0080
2401.00,0.0079
2400.00,0.0079
2399.00,0.0079
2398.00,0.0079
2397.00,0.0079
2396.00,0.0079
2395.00,0.0078
2394.00,0.0078
2393.00,0.0078
2392.00,0.0078
2391.00,0.0078
2390.00,0.0078
2389.00,0.0078
2388.00,0.0078
2387.00,0.0078
2386.00,0.0078
2385.00,0.0078
2384.00,0.0077
2383.00,0.0077
2382.00,0.0077
2381.00,0.0078
2380.00,0.0079
2379.00,0.0079
2378.00,0.0079
2377.00,0.0078
2376.00,0.0077
2375.00,0.0076
2374.00,0.0075
2373.00,0.0076
2372.00,0.0076
2371.00,0.0076
2370.00,0.0075
2369.00,0.0073
2368.00,0.0072
2367.00,0.0073
2366.00,0.0076
2365.00,0.0078
2364.00,0.0078
2363.00,0.0076
2362.00,0.0074
2361.00,0.0075
2360.00,0.0077
2359.00,0.0079
2358.00,0.0079
2357.00,0.0079
2356.00,0.0078
2355.00,0.0076
2354.00,0.0075
2353.00,0.0076
2352.00,0.0076
2351.00,0.0076
2350.00,0.0076
2349.00,0.0076
2348.00,0.0076
2347.00,0.0076
2346.00,0.0076
2345.00,0.0077
2344.00,0.0078
2343.00,0.0079
2342.00,0.0080
2341.00,0.0080
2340.00,0.0079
2339.00,0.0077
2338.00,0.0075
2337.00,0.0073
2336.00,0.0074
2335.00,0.0075
2334.00,0.0077
2333.00,0.0078
2332.00,0.0079
2331.00,0.0078
2330.00,0.0077
2329.00,0.0077
2328.00,0.0077
2327.00,0.0078
2326.00,0.0079
2325.00,0.0080
2324.00,0.0080
2323.00,0.0079
2322.00,0.0078
2321.00,0.0077
2320.00,0.0077
2319.00,0.0076
2318.00,0.0076
2317.00,0.0076
2316.00,0.0076
2315.00,0.0076
2314.00,0.0076
2313.00,0.0077
2312.00,0.0077
2311.00,0.0077
2310.00,0.0078
2309.00,0.0080
2308.00,0.0080
2307.00,0.0080
2306.00,0.0079
2305.00,0.0078
2304.00,0.0078
2303.00,0.0076
2302.00,0.0076
2301.00,0.0075
2300.00,0.0076
2299.00,0.0076
2298.00,0.0077
2297.00,0.0077
2296.00,0.0077
2295.00,0.0077
2294.00,0.0078
2293.00,0.0079
2292.00,0.0081
2291.00,0.0082
2290.00,0.0082
2289.00,0.0081
2288.00,0.0080
2287.00,0.0081
2286.00,0.0082
2285.00,0.0084
2284.00,0.0085
2283.00,0.0085
2282.00,0.0085
2281.00,0.0084
2280.00,0.0084
2279.00,0.0084
2278.00,0.0084
2277.00,0.0083
2276.00,0.0082
2275.00,0.0081
2274.00,0.0079
2273.00,0.0078
2272.00,0.0077
2271.00,0.0077
2270.00,0.0077
2269.00,0.0077
2268.00,0.0077
2267.00,0.0077
2266.00,0.0077
2265.00,0.0078
2264.00,0.0079
2263.00,0.0080
2262.00,0.0081
2261.00,0.0081
2260.00,0.0081
2259.00,0.0081
2258.00,0.0079
2257.00,0.0076
2256.00,0.0074
2255.00,0.0074
2254.00,0.0075
2253.00,0.0075
2252.00,0.0076
2251.00,0.0076
2250.00,0.0076
2249.00,0.0076
2248.00,0.0075
2247.00,0.0076
2246.00,0.0077
2245.00,0.0079
2244.00,0.0080
2243.00,0.0079
2242.00,0.0078
2241.00,0.0077
2240.00,0.0076
2239.00,0.0076
2238.00,0.0077
2237.00,0.0077
2236.00,0.0078
2235.00,0.0078
2234.00,0.0079
2233.00,0.0080
2232.00,0.0079
2231.00,0.0077
2230.00,0.0075
2229.00,0.0075
2228.00,0.0075
2227.00,0.0076
2226.00,0.0077
2225.00,0.0076
2224.00,0.0075
2223.00,0.0074
2222.00,0.0074
2221.00,0.0074
2220.00,0.0075
2219.00,0.0076
2218.00,0.0076
2217.00,0.0076
2216.00,0.0076
2215.00,0.0077
2214.00,0.0078
2213.00,0.0078
2212.00,0.0077
2211.00,0.0075
2210.00,0.0074
2209.00,0.0074
2208.00,0.0076
2207.00,0.0077
2206.00,0.0078
2205.00,0.0077
2204.00,0.0075
2203.00,0.0075
2202.00,0.0075
2201.00,0.0075
2200.00,0.0075
2199.00,0.0075
2198.00,0.0075
2197.00,0.0075
2196.00,0.0076
2195.00,0.0075
2194.00,0.0074
2193.00,0.0074
2192.00,0.0073
2191.00,0.0072
2190.00,0.0071
2189.00,0.0070
2188.00,0.0070
2187.00,0.0073
2186.00,0.0077
2185.00,0.0078
2184.00,0.0077
2183.00,0.0073
2182.00,0.0071
2181.00,0.0071
2180.00,0.0073
2179.00,0.0075
2178.00,0.0077
2177.00,0.0078
2176.00,0.0077
2175.00,0.0075
2174.00,0.0073
2173.00,0.0071
2172.00,0.0072
2171.00,0.0074
2170.00,0.0078
2169.00,0.0081
2168.00,0.0083
2167.00,0.0083
2166.00,0.0084
2165.00,0.0085
2164.00,0.0087
2163.00,0.0088
2162.00,0.0087
2161.00,0.0083
2160.00,0.0077
2159.00,0.0069
2158.00,0.0062
2157.00,0.0059
2156.00,0.0058
2155.00,0.0060
2154.00,0.0063
2153.00,0.0067
2152.00,0.0068
2151.00,0.0067
2150.00,0.0064
2149.00,0.0062
2148.00,0.0062
2147.00,0.0064
2146.00,0.0066
2145.00,0.0068
2144.00,0.0069
2143.00,0.0070
2142.00,0.0072
2141.00,0.0073
2140.00,0.0073
2139.00,0.0071
2138.00,0.0069
2137.00,0.0067
2136.00,0.0066
2135.00,0.0065
2134.00,0.0064
2133.00,0.0064
2132.00,0.0064
2131.00,0.0064
2130.00,0.0065
2129.00,0.0067
2128.00,0.0069
2127.00,0.0070
2126.00,0.0070
2125.00,0.0069
2124.00,0.0069
2123.00,0.0069
2122.00,0.0069
2121.00,0.0069
2120.00,0.0068
2119.00,0.0068
2118.00,0.0068
2117.00,0.0068
2116.00,0.0067
2115.00,0.0066
2114.00,0.0065
2113.00,0.0065
2112.00,0.0066
2111.00,0.0068
2110.00,0.0070
2109.00,0.0071
2108.00,0.0073
2107.00,0.0073
2106.00,0.0073
2105.00,0.0072
2104.00,0.0071
2103.00,0.0071
2102.00,0.0071
2101.00,0.0070
2100.00,0.0069
2099.00,0.0066
2098.00,0.0065
2097.00,0.0065
2096.00,0.0066
2095.00,0.0067
2094.00,0.0068
2093.00,0.0068
2092.00,0.0068
2091.00,0.0067
2090.00,0.0066
2089.00,0.0066
2088.00,0.0067
2087.00,0.0067
2086.00,0.0068
2085.00,0.0070
2084.00,0.0072
2083.00,0.0072
2082.00,0.0072
2081.00,0.0071
2080.00,0.0071
2079.00,0.0070
2078.00,0.0070
2077.00,0.0070
2076.00,0.0070
2075.00,0.0071
2074.00,0.0071
2073.00,0.0070
2072.00,0.0071
2071.00,0.0072
2070.00,0.0072
2069.00,0.0071
2068.00,0.0068
2067.00,0.0066
2066.00,0.0065
2065.00,0.0066
2064.00,0.0067
2063.00,0.0069
2062.00,0.0070
2061.00,0.0071
2060.00,0.0070
2059.00,0.0068
2058.00,0.0067
2057.00,0.0068
2056.00,0.0068
2055.00,0.0069
2054.00,0.0070
2053.00,0.0072
2052.00,0.0074
2051.00,0.0074
2050.00,0.0071
2049.00,0.0069
2048.00,0.0068
2047.00,0.0069
2046.00,0.0071
2045.00,0.0074
2044.00,0.0076
2043.00,0.0077
2042.00,0.0076
2041.00,0.0074
2040.00,0.0071
2039.00,0.0069
2038.00,0.0069
2037.00,0.0072
2036.00,0.0075
2035.00,0.0075
2034.00,0.0074
2033.00,0.0074
2032.00,0.0076
2031.00,0.0078
2030.00,0.0078
2029.00,0.0077
2028.00,0.0074
2027.00,0.0072
2026.00,0.0070
2025.00,0.0067
2024.00,0.0064
2023.00,0.0063
2022.00,0.0062
2021.00,0.0062
2020.00,0.0061
2019.00,0.0060
2018.00,0.0058
2017.00,0.0057
2016.00,0.0058
2015.00,0.0060
2014.00,0.0063
2013.00,0.0064
2012.00,0.0065
2011.00,0.0065
2010.00,0.0065
2009.00,0.0064
2008.00,0.0063
2007.00,0.0061
2006.00,0.0059
2005.00,0.0058
2004.00,0.0059
2003.00,0.0062
2002.00,0.0067
2001.00,0.0071
2000.00,0.0072
1999.00,0.0070
1998.00,0.0068
1997.00,0.0069
1996.00,0.0071
1995.00,0.0073
1994.00,0.0074
1993.00,0.0074
1992.00,0.0072
1991.00,0.0070
1990.00,0.0067
1989.00,0.0066
1988.00,0.0066
1987.00,0.0067
1986.00,0.0068
1985.00,0.0068
1984.00,0.0069
1983.00,0.0069
1982.00,0.0070
1981.00,0.0069
1980.00,0.0067
1979.00,0.0062
1978.00,0.0057
1977.00,0.0054
1976.00,0.0054
1975.00,0.0057
1974.00,0.0061
1973.00,0.0063
1972.00,0.0061
1971.00,0.0059
1970.00,0.0058
1969.00,0.0059
1968.00,0.0060
1967.00,0.0059
1966.00,0.0057
1965.00,0.0055
1964.00,0.0057
1963.00,0.0059
1962.00,0.0060
1961.00,0.0061
1960.00,0.0061
1959.00,0.0062
1958.00,0.0061
1957.00,0.0060
1956.00,0.0059
1955.00,0.0059
1954.00,0.0060
1953.00,0.0061
1952.00,0.0061
1951.00,0.0061
1950.00,0.0059
1949.00,0.0059
1948.00,0.0059
1947.00,0.0060
1946.00,0.0061
1945.00,0.0059
1944.00,0.0055
1943.00,0.0053
1942.00,0.0053
1941.00,0.0053
1940.00,0.0053
1939.00,0.0052
1938.00,0.0051
1937.00,0.0051
1936.00,0.0052
1935.00,0.0051
1934.00,0.0051
1933.00,0.0050
1932.00,0.0050
1931.00,0.0052
1930.00,0.0055
1929.00,0.0057
1928.00,0.0059
1927.00,0.0059
1926.00,0.0060
1925.00,0.0060
1924.00,0.0059
1923.00,0.0059
1922.00,0.0058
1921.00,0.0056
1920.00,0.0055
1919.00,0.0054
1918.00,0.0053
1917.00,0.0054
1916.00,0.0054
1915.00,0.0055
1914.00,0.0056
1913.00,0.0056
1912.00,0.0056
1911.00,0.0055
1910.00,0.0054
1909.00,0.0053
1908.00,0.0052
1907.00,0.0052
1906.00,0.0053
1905.00,0.0054
1904.00,0.0055
1903.00,0.0055
1902.00,0.0054
1901.00,0.0054
1900.00,0.0053
1899.00,0.0054
1898.00,0.0055
1897.00,0.0055
1896.00,0.0054
1895.00,0.0053
1894.00,0.0053
1893.00,0.0052
1892.00,0.0053
1891.00,0.0053
1890.00,0.0053
1889.00,0.0053
1888.00,0.0053
1887.00,0.0053
1886.00,0.0053
1885.00,0.0053
1884.00,0.0053
1883.00,0.0053
1882.00,0.0052
1881.00,0.0052
1880.00,0.0053
1879.00,0.0053
1878.00,0.0052
1877.00,0.0051
1876.00,0.0051
1875.00,0.0052
1874.00,0.0053
1873.00,0.0054
1872.00,0.0054
1871.00,0.0054
1870.00,0.0053
1869.00,0.0052
1868.00,0.0052
1867.00,0.0052
1866.00,0.0052
1865.00,0.0052
1864.00,0.0051
1863.00,0.0050
1862.00,0.0049
1861.00,0.0049
1860.00,0.0048
1859.00,0.0049
1858.00,0.0050
1857.00,0.0051
1856.00,0.0051
1855.00,0.0051
1854.00,0.0050
1853.00,0.0049
1852.00,0.0049
1851.00,0.0049
1850.00,0.0050
1849.00,0.0050
1848.00,0.0050
1847.00,0.0050
1846.00,0.0050
1845.00,0.0050
1844.00,0.0050
1843.00,0.0049
1842.00,0.0049
1841.00,0.0050
1840.00,0.0050
1839.00,0.0050
1838.00,0.0050
1837.00,0.0050
1836.00,0.0050
1835.00,0.0050
1834.00,0.0049
1833.00,0.0049
1832.00,0.0050
1831.00,0.0050
1830.00,0.0050
1829.00,0.0050
1828.00,0.0049
1827.00,0.0048
1826.00,0.0048
1825.00,0.0048
1824.00,0.0048
1823.00,0.0048
1822.00,0.0048
1821.00,0.0048
1820.00,0.0048
1819.00,0.0048
1818.00,0.0047
1817.00,0.0047
1816.00,0.0047
1815.00,0.0047
1814.00,0.0047
1813.00,0.0047
1812.00,0.0048
1811.00,0.0048
1810.00,0.0048
1809.00,0.0048
1808.00,0.0048
1807.00,0.0048
1806.00,0.0048
1805.00,0.0049
1804.00,0.0049
1803.00,0.0049
1802.00,0.0049
1801.00,0.0049
1800.00,0.0049
1799.00,0.0049
1798.00,0.0049
1797.00,0.0050
1796.00,0.0050
1795.00,0.0049
1794.00,0.0049
1793.00,0.0050
1792.00,0.0050
1791.00,0.0050
1790.00,0.0050
1789.00,0.0050
1788.00,0.0051
1787.00,0.0051
1786.00,0.0052
1785.00,0.0053
1784.00,0.0053
1783.00,0.0053
1782.00,0.0053
1781.00,0.0053
1780.00,0.0053
1779.00,0.0053
1778.00,0.0053
1777.00,0.0054
1776.00,0.0055
1775.00,0.0055
1774.00,0.0055
1773.00,0.0055
1772.00,0.0055
1771.00,0.0055
1770.00,0.0055
1769.00,0.0057
1768.00,0.0058
1767.00,0.0059
1766.00,0.0059
1765.00,0.0060
1764.00,0.0061
1763.00,0.0061
1762.00,0.0062
1761.00,0.0062
1760.00,0.0064
1759.00,0.0065
1758.00,0.0066
1757.00,0.0067
1756.00,0.0069
1755.00,0.0071
1754.00,0.0073
1753.00,0.0075
1752.00,0.0076
1751.00,0.0077
1750.00,0.0079
1749.00,0.0081
1748.00,0.0083
1747.00,0.0085
1746.00,0.0086
1745.00,0.0088
1744.00,0.0090
1743.00,0.0091
1742.00,0.0091
1741.00,0.0092
1740.00,0.0093
1739.00,0.0093
1738.00,0.0093
1737.00,0.0094
1736.00,0.0094
1735.00,0.0095
1734.00,0.0095
1733.00,0.0094
1732.00,0.0094
1731.00,0.0094
1730.00,0.0094
1729.00,0.0094
1728.00,0.0094
1727.00,0.0095
1726.00,0.0095
1725.00,0.0095
1724.00,0.0096
1723.00,0.0096
1722.00,0.0096
1721.00,0.0096
1720.00,0.0095
1719.00,0.0094
1718.00,0.0095
1717.00,0.0096
1716.00,0.0098
1715.00,0.0099
1714.00,0.0100
1713.00,0.0100
1712.00,0.0100
1711.00,0.0100
1710.00,0.0100
1709.00,0.0100
1708.00,0.0100
1707.00,0.0100
1706.00,0.0099
1705.00,0.0099
1704.00,0.0099
1703.00,0.0100
1702.00,0.0100
1701.00,0.0100
1700.00,0.0099
1699.00,0.0099
1698.00,0.0101
1697.00,0.0103
1696.00,0.0104
1695.00,0.0104
1694.00,0.0103
1693.00,0.0104
1692.00,0.0104
1691.00,0.0105
1690.00,0.0106
1689.00,0.0106
1688.00,0.0107
1687.00,0.0107
1686.00,0.0106
1685.00,0.0107
1684.00,0.0108
1683.00,0.0108
1682.00,0.0109
1681.00,0.0110
1680.00,0.0111
1679.00,0.0112
1678.00,0.0113
1677.00,0.0115
1676.00,0.0117
1675.00,0.0119
1674.00,0.0119
1673.00,0.0119
1672.00,0.0119
1671.00,0.0120
1670.00,0.0122
1669.00,0.0123
1668.00,0.0125
1667.00,0.0126
1666.00,0.0126
1665.00,0.0127
1664.00,0.0127
1663.00,0.0128
1662.00,0.0130
1661.00,0.0132
1660.00,0.0134
1659.00,0.0137
1658.00,0.0138
1657.00,0.0139
1656.00,0.0138
1655.00,0.0136
1654.00,0.0136
1653.00,0.0139
1652.00,0.0140
1651.00,0.0142
1650.00,0.0143
1649.00,0.0143
1648.00,0.0143
1647.00,0.0145
1646.00,0.0148
1645.00,0.0150
1644.00,0.0152
1643.00,0.0153
1642.00,0.0153
1641.00,0.0153
1640.00,0.0153
1639.00,0.0153
1638.00,0.0153
1637.00,0.0155
1636.00,0.0158
1635.00,0.0161
1634.00,0.0161
1633.00,0.0160
1632.00,0.0160
1631.00,0.0160
1630.00,0.0161
1629.00,0.0162
1628.00,0.0162
1627.00,0.0163
1626.00,0.0164
1625.00,0.0166
1624.00,0.0167
1623.00,0.0168
1622.00,0.0168
1621.00,0.0169
1620.00,0.0170
1619.00,0.0170
1618.00,0.0171
1617.00,0.0172
1616.00,0.0173
1615.00,0.0174
1614.00,0.0175
1613.00,0.0176
1612.00,0.0176
1611.00,0.0177
1610.00,0.0177
1609.00,0.0178
1608.00,0.0179
1607.00,0.0180
1606.00,0.0181
1605.00,0.0183
1604.00,0.0183
1603.00,0.0184
1602.00,0.0183
1601.00,0.0183
1600.00,0.0183
1599.00,0.0184
1598.00,0.0185
1597.00,0.0186
1596.00,0.0187
1595.00,0.0188
1594.00,0.0189
1593.00,0.0189
1592.00,0.0190
1591.00,0.0190
1590.00,0.0190
1589.00,0.0191
1588.00,0.0192
1587.00,0.0194
1586.00,0.0194
1585.00,0.0194
1584.00,0.0194
1583.00,0.0194
1582.00,0.0195
1581.00,0.0195
1580.00,0.0195
1579.00,0.0196
1578.00,0.0197
1577.00,0.0198
1576.00,0.0199
1575.00,0.0197
1574.00,0.0196
1573.00,0.0196
1572.00,0.0195
1571.00,0.0195
1570.00,0.0195
1569.00,0.0195
1568.00,0.0196
1567.00,0.0196
1566.00,0.0196
1565.00,0.0194
1564.00,0.0193
1563.00,0.0192
1562.00,0.0192
1561.00,0.0190
1560.00,0.0190
1559.00,0.0192
1558.00,0.0191
1557.00,0.0189
1556.00,0.0189
1555.00,0.0189
1554.00,0.0189
1553.00,0.0189
1552.00,0.0189
1551.00,0.0188
1550.00,0.0187
1549.00,0.0185
1548.00,0.0183
1547.00,0.0182
1546.00,0.0180
1545.00,0.0179
1544.00,0.0177
1543.00,0.0175
1542.00,0.0173
1541.00,0.0172
1540.00,0.0171
1539.00,0.0170
1538.00,0.0168
1537.00,0.0168
1536.00,0.0167
1535.00,0.0166
1534.00,0.0165
1533.00,0.0163
1532.00,0.0162
1531.00,0.0161
1530.00,0.0161
1529.00,0.0160
1528.00,0.0159
1527.00,0.0157
1526.00,0.0155
1525.00,0.0152
1524.00,0.0150
1523.00,0.0148
1522.00,0.0147
1521.00,0.0147
1520.00,0.0148
1519.00,0.0148
1518.00,0.0148
1517.00,0.0147
1516.00,0.0145
1515.00,0.0144
1514.00,0.0143
1513.00,0.0142
1512.00,0.0141
1511.00,0.0140
1510.00,0.0138
1509.00,0.0137
1508.00,0.0136
1507.00,0.0136
1506.00,0.0135
1505.00,0.0134
1504.00,0.0134
1503.00,0.0134
1502.00,0.0133
1501.00,0.0133
1500.00,0.0132
1499.00,0.0132
1498.00,0.0132
1497.00,0.0133
1496.00,0.0132
1495.00,0.0131
1494.00,0.0130
1493.00,0.0128
1492.00,0.0126
1491.00,0.0125
1490.00,0.0126
1489.00,0.0127
1488.00,0.0127
1487.00,0.0127
1486.00,0.0127
1485.00,0.0126
1484.00,0.0126
1483.00,0.0126
1482.00,0.0126
1481.00,0.0126
1480.00,0.0126
1479.00,0.0126
1478.00,0.0126
1477.00,0.0127
1476.00,0.0127
1475.00,0.0127
1474.00,0.0127
1473.00,0.0129
1472.00,0.0131
1471.00,0.0134
1470.00,0.0137
1469.00,0.0139
1468.00,0.0140
1467.00,0.0141
1466.00,0.0141
1465.00,0.0140
1464.00,0.0140
1463.00,0.0140
1462.00,0.0140
1461.00,0.0139
1460.00,0.0139
1459.00,0.0140
1458.00,0.0142
1457.00,0.0144
1456.00,0.0145
1455.00,0.0145
1454.00,0.0145
1453.00,0.0146
1452.00,0.0147
1451.00,0.0148
1450.00,0.0149
1449.00,0.0150
1448.00,0.0152
1447.00,0.0153
1446.00,0.0154
1445.00,0.0155
1444.00,0.0155
1443.00,0.0155
1442.00,0.0156
1441.00,0.0156
1440.00,0.0157
1439.00,0.0158
1438.00,0.0159
1437.00,0.0161
1436.00,0.0162
1435.00,0.0163
1434.00,0.0163
1433.00,0.0164
1432.00,0.0164
1431.00,0.0164
1430.00,0.0164
1429.00,0.0164
1428.00,0.0164
1427.00,0.0165
1426.00,0.0166
1425.00,0.0166
1424.00,0.0167
1423.00,0.0167
1422.00,0.0168
1421.00,0.0168
1420.00,0.0169
1419.00,0.0171
1418.00,0.0172
1417.00,0.0174
1416.00,0.0174
1415.00,0.0174
1414.00,0.0174
1413.00,0.0173
1412.00,0.0172
1411.00,0.0171
1410.00,0.0171
1409.00,0.0171
1408.00,0.0171
1407.00,0.0171
1406.00,0.0170
1405.00,0.0170
1404.00,0.0169
1403.00,0.0168
1402.00,0.0168
1401.00,0.0167
1400.00,0.0166
1399.00,0.0166
1398.00,0.0166
1397.00,0.0166
1396.00,0.0166
1395.00,0.0166
1394.00,0.0166
1393.00,0.0165
1392.00,0.0166
1391.00,0.0166
1390.00,0.0166
1389.00,0.0166
1388.00,0.0167
1387.00,0.0168
1386.00,0.0168
1385.00,0.0168
1384.00,0.0168
1383.00,0.0169
1382.00,0.0169
1381.00,0.0170
1380.00,0.0171
1379.00,0.0172
1378.00,0.0173
1377.00,0.0173
1376.00,0.0174
1375.00,0.0175
1374.00,0.0176
1373.00,0.0177
1372.00,0.0177
1371.00,0.0178
1370.00,0.0178
1369.00,0.0178
1368.00,0.0179
1367.00,0.0179
1366.00,0.0178
1365.00,0.0178
1364.00,0.0177
1363.00,0.0178
1362.00,0.0179
1361.00,0.0179
1360.00,0.0179
1359.00,0.0179
1358.00,0.0179
1357.00,0.0180
1356.00,0.0180
1355.00,0.0181
1354.00,0.0181
1353.00,0.0181
1352.00,0.0180
1351.00,0.0179
1350.00,0.0178
1349.00,0.0178
1348.00,0.0177
1347.00,0.0177
1346.00,0.0177
1345.00,0.0176
1344.00,0.0175
1343.00,0.0175
1342.00,0.0175
1341.00,0.0176
1340.00,0.0177
1339.00,0.0177
1338.00,0.0177
1337.00,0.0176
1336.00,0.0176
1335.00,0.0175
1334.00,0.0175
1333.00,0.0174
1332.00,0.0174
1331.00,0.0173
1330.00,0.0173
1329.00,0.0172
1328.00,0.0172
1327.00,0.0172
1326.00,0.0171
1325.00,0.0171
1324.00,0.0171
1323.00,0.0171
1322.00,0.0172
1321.00,0.0172
1320.00,0.0173
1319.00,0.0172
1318.00,0.0171
1317.00,0.0169
1316.00,0.0168
1315.00,0.0167
1314.00,0.0166
1313.00,0.0166
1312.00,0.0167
1311.00,0.0167
1310.00,0.0167
1309.00,0.0167
1308.00,0.0166
1307.00,0.0165
1306.00,0.0164
1305.00,0.0164
1304.00,0.0164
1303.00,0.0164
1302.00,0.0164
1301.00,0.0164
1300.00,0.0163
1299.00,0.0162
1298.00,0.0160
1297.00,0.0159
1296.00,0.0158
1295.00,0.0158
1294.00,0.0158
1293.00,0.0159
1292.00,0.0159
1291.00,0.0159
1290.00,0.0159
1289.00,0.0159
1288.00,0.0159
1287.00,0.0158
1286.00,0.0158
1285.00,0.0158
1284.00,0.0158
1283.00,0.0159
1282.00,0.0159
1281.00,0.0158
1280.00,0.0157
1279.00,0.0156
1278.00,0.0155
1277.00,0.0155
1276.00,0.0155
1275.00,0.0154
1274.00,0.0154
1273.00,0.0154
1272.00,0.0153
1271.00,0.0153
1270.00,0.0153
1269.00,0.0153
1268.00,0.0153
1267.00,0.0154
1266.00,0.0154
1265.00,0.0155
1264.00,0.0154
1263.00,0.0154
1262.00,0.0153
1261.00,0.0153
1260.00,0.0153
1259.00,0.0154
1258.00,0.0154
1257.00,0.0155
1256.00,0.0154
1255.00,0.0153
1254.00,0.0154
1253.00,0.0154
1252.00,0.0154
1251.00,0.0154
1250.00,0.0153
1249.00,0.0153
1248.00,0.0154
1247.00,0.0155
1246.00,0.0156
1245.00,0.0156
1244.00,0.0157
1243.00,0.0157
1242.00,0.0156
1241.00,0.0155
1240.00,0.0155
1239.00,0.0154
1238.00,0.0155
1237.00,0.0156
1236.00,0.0156
1235.00,0.0156
1234.00,0.0156
1233.00,0.0156
1232.00,0.0156
1231.00,0.0156
1230.00,0.0156
1229.00,0.0155
1228.00,0.0156
1227.00,0.0156
1226.00,0.0156
1225.00,0.0155
1224.00,0.0154
1223.00,0.0153
1222.00,0.0154
1221.00,0.0155
1220.00,0.0155
1219.00,0.0155
1218.00,0.0155
1217.00,0.0155
1216.00,0.0155
1215.00,0.0155
1214.00,0.0155
1213.00,0.0155
1212.00,0.0155
1211.00,0.0155
1210.00,0.0156
1209.00,0.0157
1208.00,0.0157
1207.00,0.0157
1206.00,0.0156
1205.00,0.0156
1204.00,0.0156
1203.00,0.0155
1202.00,0.0155
1201.00,0.0155
1200.00,0.0155
1199.00,0.0155
1198.00,0.0155
1197.00,0.0154
1196.00,0.0153
1195.00,0.0153
1194.00,0.0153
1193.00,0.0153
1192.00,0.0153
1191.00,0.0154
1190.00,0.0153
1189.00,0.0153
1188.00,0.0152
1187.00,0.0153
1186.00,0.0154
1185.00,0.0154
1184.00,0.0154
1183.00,0.0154
1182.00,0.0153
1181.00,0.0153
1180.00,0.0153
1179.00,0.0153
1178.00,0.0154
1177.00,0.0154
1176.00,0.0156
1175.00,0.0158
1174.00,0.0159
1173.00,0.0160
1172.00,0.0160
1171.00,0.0160
1170.00,0.0160
1169.00,0.0160
1168.00,0.0161
1167.00,0.0162
1166.00,0.0163
1165.00,0.0164
1164.00,0.0164
1163.00,0.0165
1162.00,0.0166
1161.00,0.0166
1160.00,0.0167
1159.00,0.0167
1158.00,0.0167
1157.00,0.0167
1156.00,0.0168
1155.00,0.0170
1154.00,0.0171
1153.00,0.0172
1152.00,0.0171
1151.00,0.0171
1150.00,0.0171
1149.00,0.0171
1148.00,0.0171
1147.00,0.0172
1146.00,0.0173
1145.00,0.0173
1144.00,0.0174
1143.00,0.0174
1142.00,0.0175
1141.00,0.0175
1140.00,0.0175
1139.00,0.0175
1138.00,0.0175
1137.00,0.0176
1136.00,0.0178
1135.00,0.0180
1134.00,0.0181
1133.00,0.0182
1132.00,0.0182
1131.00,0.0182
1130.00,0.0183
1129.00,0.0185
1128.00,0.0187
1127.00,0.0187
1126.00,0.0186
1125.00,0.0186
1124.00,0.0187
1123.00,0.0191
1122.00,0.0195
1121.00,0.0200
1120.00,0.0203
1119.00,0.0204
1118.00,0.0205
1117.00,0.0205
1116.00,0.0207
1115.00,0.0210
1114.00,0.0212
1113.00,0.0212
1112.00,0.0212
1111.00,0.0212
1110.00,0.0213
1109.00,0.0214
1108.00,0.0215
1107.00,0.0215
1106.00,0.0214
1105.00,0.0214
1104.00,0.0215
1103.00,0.0218
1102.00,0.0221
1101.00,0.0222
1100.00,0.0223
1099.00,0.0223
1098.00,0.0223
1097.00,0.0224
1096.00,0.0225
1095.00,0.0226
1094.00,0.0227
1093.00,0.0229
1092.00,0.0231
1091.00,0.0233
1090.00,0.0233
1089.00,0.0232
1088.00,0.0232
1087.00,0.0232
1086.00,0.0235
1085.00,0.0237
1084.00,0.0239
1083.00,0.0240
1082.00,0.0242
1081.00,0.0244
1080.00,0.0247
1079.00,0.0250
1078.00,0.0253
1077.00,0.0255
1076.00,0.0256
1075.00,0.0254
1074.00,0.0252
1073.00,0.0251
1072.00,0.0251
1071.00,0.0251
1070.00,0.0251
1069.00,0.0250
1068.00,0.0250
1067.00,0.0251
1066.00,0.0253
1065.00,0.0256
1064.00,0.0259
1063.00,0.0262
1062.00,0.0262
1061.00,0.0260
1060.00,0.0258
1059.00,0.0256
1058.00,0.0257
1057.00,0.0260
1056.00,0.0263
1055.00,0.0266
1054.00,0.0269
1053.00,0.0272
1052.00,0.0274
1051.00,0.0275
1050.00,0.0276
1049.00,0.0278
1048.00,0.0280
1047.00,0.0282
1046.00,0.0283
1045.00,0.0285
1044.00,0.0288
1043.00,0.0290
1042.00,0.0290
1041.00,0.0290
1040.00,0.0290
1039.00,0.0292
1038.00,0.0295
1037.00,0.0297
1036.00,0.0298
1035.00,0.0299
1034.00,0.0299
1033.00,0.0299
1032.00,0.0300
1031.00,0.0299
1030.00,0.0298
1029.00,0.0296
1028.00,0.0293
1027.00,0.0291
1026.00,0.0290
1025.00,0.0289
1024.00,0.0288
1023.00,0.0286
1022.00,0.0283
1021.00,0.0280
1020.00,0.0278
1019.00,0.0276
1018.00,0.0275
1017.00,0.0274
1016.00,0.0275
1015.00,0.0276
1014.00,0.0277
1013.00,0.0277
1012.00,0.0276
1011.00,0.0275
1010.00,0.0275
1009.00,0.0274
1008.00,0.0274
1007.00,0.0272
1006.00,0.0270
1005.00,0.0269
1004.00,0.0269
1003.00,0.0269
1002.00,0.0267
1001.00,0.0264
1000.00,0.0260
999.00,0.0255
998.00,0.0250
997.00,0.0247
996.00,0.0245
995.00,0.0243
994.00,0.0240
993.00,0.0236
992.00,0.0232
991.00,0.0228
990.00,0.0225
989.00,0.0222
988.00,0.0221
987.00,0.0220
986.00,0.0219
985.00,0.0217
984.00,0.0214
983.00,0.0209
982.00,0.0206
981.00,0.0204
980.00,0.0203
979.00,0.0201
978.00,0.0198
977.00,0.0194
976.00,0.0190
975.00,0.0188
974.00,0.0186
973.00,0.0185
972.00,0.0185
971.00,0.0183
970.00,0.0180
969.00,0.0177
968.00,0.0175
967.00,0.0173
966.00,0.0171
965.00,0.0169
964.00,0.0167
963.00,0.0165
962.00,0.0165
961.00,0.0164
960.00,0.0163
959.00,0.0160
958.00,0.0158
957.00,0.0157
956.00,0.0157
955.00,0.0156
954.00,0.0154
953.00,0.0153
952.00,0.0153
951.00,0.0153
950.00,0.0154
949.00,0.0154
948.00,0.0153
947.00,0.0152
946.00,0.0150
945.00,0.0149
944.00,0.0149
943.00,0.0149
942.00,0.0149
941.00,0.0149
940.00,0.0150
939.00,0.0151
938.00,0.0152
937.00,0.0152
936.00,0.0151
935.00,0.0150
934.00,0.0150
933.00,0.0151
932.00,0.0154
931.00,0.0156
930.00,0.0157
929.00,0.0158
928.00,0.0158
927.00,0.0159
926.00,0.0159
925.00,0.0160
924.00,0.0161
923.00,0.0162
922.00,0.0162
921.00,0.0162
920.00,0.0162
919.00,0.0162
918.00,0.0163
917.00,0.0165
916.00,0.0167
915.00,0.0170
914.00,0.0171
913.00,0.0171
912.00,0.0169
911.00,0.0167
910.00,0.0164
909.00,0.0161
908.00,0.0158
907.00,0.0157
906.00,0.0157
905.00,0.0159
904.00,0.0161
903.00,0.0164
902.00,0.0165
901.00,0.0164
900.00,0.0162
899.00,0.0159
898.00,0.0158
897.00,0.0158
896.00,0.0158
895.00,0.0157
894.00,0.0156
893.00,0.0154
892.00,0.0152
891.00,0.0151
890.00,0.0150
889.00,0.0150
888.00,0.0151
887.00,0.0149
886.00,0.0147
885.00,0.0145
884.00,0.0145
883.00,0.0147
882.00,0.0149
881.00,0.0150
880.00,0.0149
879.00,0.0147
878.00,0.0144
877.00,0.0141
876.00,0.0138
875.00,0.0136
874.00,0.0136
873.00,0.0136
872.00,0.0137
871.00,0.0139
870.00,0.0140
869.00,0.0139
868.00,0.0138
867.00,0.0136
866.00,0.0136
865.00,0.0137
864.00,0.0139
863.00,0.0139
862.00,0.0139
861.00,0.0140
860.00,0.0140
859.00,0.0138
858.00,0.0135
857.00,0.0133
856.00,0.0133
855.00,0.0136
854.00,0.0139
853.00,0.0141
852.00,0.0142
851.00,0.0141
850.00,0.0141
849.00,0.0142
848.00,0.0143
847.00,0.0145
846.00,0.0147
845.00,0.0149
844.00,0.0149
843.00,0.0148
842.00,0.0146
841.00,0.0144
840.00,0.0142
839.00,0.0142
838.00,0.0142
837.00,0.0143
836.00,0.0144
835.00,0.0145
834.00,0.0144
833.00,0.0144
832.00,0.0144
831.00,0.0145
830.00,0.0145
829.00,0.0146
828.00,0.0147
827.00,0.0149
826.00,0.0151
825.00,0.0154
824.00,0.0156
823.00,0.0156
822.00,0.0156
821.00,0.0156
820.00,0.0156
819.00,0.0156
818.00,0.0154
817.00,0.0152
816.00,0.0150
815.00,0.0149
814.00,0.0151
813.00,0.0155
812.00,0.0158
811.00,0.0160
810.00,0.0160
809.00,0.0160
808.00,0.0160
807.00,0.0160
806.00,0.0161
805.00,0.0161
804.00,0.0162
803.00,0.0163
802.00,0.0166
801.00,0.0169
800.00,0.0172
799.00,0.0175
798.00,0.0176
797.00,0.0175
796.00,0.0173
795.00,0.0171
794.00,0.0170
793.00,0.0168
792.00,0.0168
791.00,0.0170
790.00,0.0171
789.00,0.0172
788.00,0.0171
787.00,0.0171
786.00,0.0173
785.00,0.0177
784.00,0.0180
783.00,0.0181
782.00,0.0180
781.00,0.0178
780.00,0.0175
779.00,0.0174
778.00,0.0175
777.00,0.0177
776.00,0.0180
775.00,0.0181
774.00,0.0179
773.00,0.0175
772.00,0.0172
771.00,0.0171
770.00,0.0172
769.00,0.0174
768.00,0.0176
767.00,0.0176
766.00,0.0174
765.00,0.0173
764.00,0.0171
763.00,0.0171
762.00,0.0169
761.00,0.0167
760.00,0.0166
759.00,0.0167
758.00,0.0171
757.00,0.0174
756.00,0.0176
755.00,0.0176
754.00,0.0176
753.00,0.0176
752.00,0.0178
751.00,0.0180
750.00,0.0181
749.00,0.0180
748.00,0.0180
747.00,0.0180
746.00,0.0181
745.00,0.0181
744.00,0.0181
743.00,0.0181
742.00,0.0182
741.00,0.0181
740.00,0.0179
739.00,0.0176
738.00,0.0175
737.00,0.0175
736.00,0.0176
735.00,0.0176
734.00,0.0176
733.00,0.0174
732.00,0.0173
731.00,0.0174
730.00,0.0177
729.00,0.0182
728.00,0.0188
727.00,0.0192
726.00,0.0195
725.00,0.0195
724.00,0.0193
723.00,0.0191
722.00,0.0190
721.00,0.0189
720.00,0.0189
719.00,0.0189
718.00,0.0189
717.00,0.0190
716.00,0.0190
715.00,0.0188
714.00,0.0187
713.00,0.0187
712.00,0.0188
711.00,0.0189
710.00,0.0189
709.00,0.0189
708.00,0.0191
707.00,0.0192
706.00,0.0194
705.00,0.0197
704.00,0.0200
703.00,0.0203
702.00,0.0204
701.00,0.0204
700.00,0.0203
699.00,0.0204
698.00,0.0206
697.00,0.0208
696.00,0.0210
695.00,0.0212
694.00,0.0213
693.00,0.0214
692.00,0.0214
691.00,0.0213
690.00,0.0214
689.00,0.0216
688.00,0.0216
687.00,0.0214
686.00,0.0210
685.00,0.0207
684.00,0.0207
683.00,0.0206
682.00,0.0206
681.00,0.0207
680.00,0.0209
679.00,0.0210
678.00,0.0209
677.00,0.0208
676.00,0.0210
675.00,0.0212
674.00,0.0213
673.00,0.0212
672.00,0.0212
671.00,0.0213
670.00,0.0215
669.00,0.0216
668.00,0.0217
667.00,0.0218
666.00,0.0220
665.00,0.0223
664.00,0.0224
663.00,0.0222
662.00,0.0217
661.00,0.0210
660.00,0.0204
659.00,0.0201
658.00,0.0202
657.00,0.0208
656.00,0.0216
655.00,0.0220
654.00,0.0220
653.00,0.0214
652.00,0.0209
651.00,0.0197
650.00,0.0193
