Created as New Dataset,Monday, April 03 2023
cm-1,A
4000.00,0.0378
3999.00,0.0378
3998.00,0.0378
3997.00,0.0378
3996.00,0.0378
3995.00,0.0378
3994.00,0.0377
3993.00,0.0377
3992.00,0.0377
3991.00,0.0378
3990.00,0.0378
3989.00,0.0377
3988.00,0.0377
3987.00,0.0376
3986.00,0.0376
3985.00,0.0376
3984.00,0.0376
3983.00,0.0377
3982.00,0.0376
3981.00,0.0376
3980.00,0.0376
3979.00,0.0376
3978.00,0.0375
3977.00,0.0375
3976.00,0.0375
3975.00,0.0375
3974.00,0.0375
3973.00,0.0376
3972.00,0.0376
3971.00,0.0377
3970.00,0.0377
3969.00,0.0377
3968.00,0.0376
3967.00,0.0375
3966.00,0.0375
3965.00,0.0374
3964.00,0.0375
3963.00,0.0376
3962.00,0.0376
3961.00,0.0376
3960.00,0.0375
3959.00,0.0375
3958.00,0.0375
3957.00,0.0375
3956.00,0.0374
3955.00,0.0374
3954.00,0.0372
3953.00,0.0371
3952.00,0.0371
3951.00,0.0371
3950.00,0.0372
3949.00,0.0373
3948.00,0.0373
3947.00,0.0372
3946.00,0.0371
3945.00,0.0372
3944.00,0.0372
3943.00,0.0372
3942.00,0.0371
3941.00,0.0371
3940.00,0.0371
3939.00,0.0372
3938.00,0.0373
3937.00,0.0372
3936.00,0.0370
3935.00,0.0369
3934.00,0.0369
3933.00,0.0369
3932.00,0.0370
3931.00,0.0369
3930.00,0.0369
3929.00,0.0368
3928.00,0.0368
3927.00,0.0369
3926.00,0.0370
3925.00,0.0371
3924.00,0.0370
3923.00,0.0368
3922.00,0.0367
3921.00,0.0366
3920.00,0.0366
3919.00,0.0367
3918.00,0.0368
3917.00,0.0369
3916.00,0.0370
3915.00,0.0370
3914.00,0.0371
3913.00,0.0373
3912.00,0.0374
3911.00,0.0373
3910.00,0.0371
3909.00,0.0367
3908.00,0.0363
3907.00,0.0359
3906.00,0.0356
3905.00,0.0354
3904.00,0.0352
3903.00,0.0351
3902.00,0.0352
3901.00,0.0356
3900.00,0.0361
3899.00,0.0363
3898.00,0.0363
3897.00,0.0363
3896.00,0.0364
3895.00,0.0364
3894.00,0.0364
3893.00,0.0366
3892.00,0.0367
3891.00,0.0364
3890.00,0.0359
3889.00,0.0355
3888.00,0.0357
3887.00,0.0360
3886.00,0.0362
3885.00,0.0359
3884.00,0.0355
3883.00,0.0355
3882.00,0.0359
3881.00,0.0363
3880.00,0.0363
3879.00,0.0359
3878.00,0.0358
3877.00,0.0361
3876.00,0.0364
3875.00,0.0363
3874.00,0.0358
3873.00,0.0353
3872.00,0.0352
3871.00,0.0357
3870.00,0.0359
3869.00,0.0356
3868.00,0.0352
3867.00,0.0353
3866.00,0.0358
3865.00,0.0362
3864.00,0.0363
3863.00,0.0363
3862.00,0.0363
3861.00,0.0364
3860.00,0.0363
3859.00,0.0359
3858.00,0.0352
3857.00,0.0342
3856.00,0.0335
3855.00,0.0336
3854.00,0.0345
3853.00,0.0349
3852.00,0.0346
3851.00,0.0350
3850.00,0.0360
3849.00,0.0368
3848.00,0.0369
3847.00,0.0368
3846.00,0.0365
3845.00,0.0362
3844.00,0.0359
3843.00,0.0354
3842.00,0.0350
3841.00,0.0348
3840.00,0.0350
3839.00,0.0353
3838.00,0.0355
3837.00,0.0354
3836.00,0.0354
3835.00,0.0355
3834.00,0.0359
3833.00,0.0363
3832.00,0.0365
3831.00,0.0364
3830.00,0.0364
3829.00,0.0364
3828.00,0.0366
3827.00,0.0365
3826.00,0.0361
3825.00,0.0355
3824.00,0.0352
3823.00,0.0354
3822.00,0.0358
3821.00,0.0357
3820.00,0.0349
3819.00,0.0346
3818.00,0.0351
3817.00,0.0360
3816.00,0.0366
3815.00,0.0366
3814.00,0.0365
3813.00,0.0367
3812.00,0.0369
3811.00,0.0367
3810.00,0.0363
3809.00,0.0361
3808.00,0.0362
3807.00,0.0361
3806.00,0.0357
3805.00,0.0352
3804.00,0.0353
3803.00,0.0359
3802.00,0.0364
3801.00,0.0362
3800.00,0.0357
3799.00,0.0357
3798.00,0.0362
3797.00,0.0368
3796.00,0.0369
3795.00,0.0367
3794.00,0.0368
3793.00,0.0370
3792.00,0.0372
3791.00,0.0373
3790.00,0.0373
3789.00,0.0372
3788.00,0.0371
3787.00,0.0372
3786.00,0.0373
3785.00,0.0373
3784.00,0.0371
3783.00,0.0368
3782.00,0.0366
3781.00,0.0367
3780.00,0.0368
3779.00,0.0368
3778.00,0.0367
3777.00,0.0367
3776.00,0.0369
3775.00,0.0369
3774.00,0.0367
3773.00,0.0364
3772.00,0.0363
3771.00,0.0363
3770.00,0.0362
3769.00,0.0359
3768.00,0.0359
3767.00,0.0361
3766.00,0.0365
3765.00,0.0366
3764.00,0.0364
3763.00,0.0362
3762.00,0.0362
3761.00,0.0363
3760.00,0.0363
3759.00,0.0362
3758.00,0.0359
3757.00,0.0355
3756.00,0.0351
3755.00,0.0347
3754.00,0.0343
3753.00,0.0341
3752.00,0.0343
3751.00,0.0347
3750.00,0.0346
3749.00,0.0342
3748.00,0.0339
3747.00,0.0341
3746.00,0.0348
3745.00,0.0354
3744.00,0.0353
3743.00,0.0346
3742.00,0.0347
3741.00,0.0353
3740.00,0.0355
3739.00,0.0351
3738.00,0.0347
3737.00,0.0345
3736.00,0.0345
3735.00,0.0345
3734.00,0.0345
3733.00,0.0348
3732.00,0.0351
3731.00,0.0353
3730.00,0.0355
3729.00,0.0358
3728.00,0.0361
3727.00,0.0362
3726.00,0.0360
3725.00,0.0358
3724.00,0.0357
3723.00,0.0358
3722.00,0.0360
3721.00,0.0361
3720.00,0.0363
3719.00,0.0365
3718.00,0.0365
3717.00,0.0363
3716.00,0.0358
3715.00,0.0354
3714.00,0.0351
3713.00,0.0351
3712.00,0.0353
3711.00,0.0355
3710.00,0.0355
3709.00,0.0357
3708.00,0.0361
3707.00,0.0364
3706.00,0.0366
3705.00,0.0367
3704.00,0.0367
3703.00,0.0367
3702.00,0.0367
3701.00,0.0366
3700.00,0.0366
3699.00,0.0368
3698.00,0.0370
3697.00,0.0371
3696.00,0.0369
3695.00,0.0365
3694.00,0.0360
3693.00,0.0356
3692.00,0.0352
3691.00,0.0353
3690.00,0.0358
3689.00,0.0361
3688.00,0.0362
3687.00,0.0362
3686.00,0.0366
3685.00,0.0371
3684.00,0.0373
3683.00,0.0371
3682.00,0.0368
3681.00,0.0363
3680.00,0.0356
3679.00,0.0347
3678.00,0.0340
3677.00,0.0341
3676.00,0.0345
3675.00,0.0343
3674.00,0.0336
3673.00,0.0335
3672.00,0.0342
3671.00,0.0352
3670.00,0.0358
3669.00,0.0358
3668.00,0.0357
3667.00,0.0360
3666.00,0.0365
3665.00,0.0368
3664.00,0.0369
3663.00,0.0368
3662.00,0.0368
3661.00,0.0366
3660.00,0.0363
3659.00,0.0362
3658.00,0.0362
3657.00,0.0364
3656.00,0.0362
3655.00,0.0357
3654.00,0.0351
3653.00,0.0347
3652.00,0.0342
3651.00,0.0339
3650.00,0.0341
3649.00,0.0345
3648.00,0.0347
3647.00,0.0350
3646.00,0.0354
3645.00,0.0360
3644.00,0.0366
3643.00,0.0370
3642.00,0.0371
3641.00,0.0371
3640.00,0.0370
3639.00,0.0370
3638.00,0.0369
3637.00,0.0368
3636.00,0.0367
3635.00,0.0366
3634.00,0.0362
3633.00,0.0355
3632.00,0.0349
3631.00,0.0347
3630.00,0.0351
3629.00,0.0357
3628.00,0.0357
3627.00,0.0356
3626.00,0.0361
3625.00,0.0367
3624.00,0.0368
3623.00,0.0366
3622.00,0.0364
3621.00,0.0363
3620.00,0.0364
3619.00,0.0363
3618.00,0.0361
3617.00,0.0359
3616.00,0.0360
3615.00,0.0363
3614.00,0.0365
3613.00,0.0363
3612.00,0.0361
3611.00,0.0360
3610.00,0.0362
3609.00,0.0367
3608.00,0.0370
3607.00,0.0371
3606.00,0.0371
3605.00,0.0371
3604.00,0.0372
3603.00,0.0373
3602.00,0.0374
3601.00,0.0375
3600.00,0.0375
3599.00,0.0373
3598.00,0.0372
3597.00,0.0371
3596.00,0.0372
3595.00,0.0373
3594.00,0.0373
3593.00,0.0371
3592.00,0.0369
3591.00,0.0366
3590.00,0.0366
3589.00,0.0367
3588.00,0.0370
3587.00,0.0371
3586.00,0.0371
3585.00,0.0372
3584.00,0.0375
3583.00,0.0378
3582.00,0.0380
3581.00,0.0380
3580.00,0.0380
3579.00,0.0381
3578.00,0.0381
3577.00,0.0382
3576.00,0.0383
3575.00,0.0383
3574.00,0.0383
3573.00,0.0382
3572.00,0.0379
3571.00,0.0375
3570.00,0.0371
3569.00,0.0369
3568.00,0.0371
3567.00,0.0374
3566.00,0.0374
3565.00,0.0375
3564.00,0.0377
3563.00,0.0380
3562.00,0.0383
3561.00,0.0386
3560.00,0.0387
3559.00,0.0387
3558.00,0.0388
3557.00,0.0388
3556.00,0.0388
3555.00,0.0388
3554.00,0.0389
3553.00,0.0389
3552.00,0.0389
3551.00,0.0388
3550.00,0.0387
3549.00,0.0387
3548.00,0.0387
3547.00,0.0388
3546.00,0.0389
3545.00,0.0390
3544.00,0.0390
3543.00,0.0391
3542.00,0.0392
3541.00,0.0393
3540.00,0.0393
3539.00,0.0392
3538.00,0.0392
3537.00,0.0393
3536.00,0.0393
3535.00,0.0393
3534.00,0.0393
3533.00,0.0394
3532.00,0.0394
3531.00,0.0393
3530.00,0.0392
3529.00,0.0391
3528.00,0.0390
3527.00,0.0390
3526.00,0.0391
3525.00,0.0393
3524.00,0.0395
3523.00,0.0397
3522.00,0.0397
3521.00,0.0396
3520.00,0.0396
3519.00,0.0395
3518.00,0.0395
3517.00,0.0395
3516.00,0.0395
3515.00,0.0396
3514.00,0.0396
3513.00,0.0397
3512.00,0.0398
3511.00,0.0398
3510.00,0.0398
3509.00,0.0397
3508.00,0.0397
3507.00,0.0396
3506.00,0.0397
3505.00,0.0398
3504.00,0.0399
3503.00,0.0400
3502.00,0.0400
3501.00,0.0400
3500.00,0.0401
3499.00,0.0402
3498.00,0.0403
3497.00,0.0404
3496.00,0.0404
3495.00,0.0404
3494.00,0.0403
3493.00,0.0403
3492.00,0.0402
3491.00,0.0402
3490.00,0.0402
3489.00,0.0402
3488.00,0.0402
3487.00,0.0402
3486.00,0.0402
3485.00,0.0401
3484.00,0.0401
3483.00,0.0402
3482.00,0.0403
3481.00,0.0403
3480.00,0.0403
3479.00,0.0403
3478.00,0.0404
3477.00,0.0405
3476.00,0.0406
3475.00,0.0408
3474.00,0.0408
3473.00,0.0408
3472.00,0.0408
3471.00,0.0407
3470.00,0.0407
3469.00,0.0407
3468.00,0.0408
3467.00,0.0408
3466.00,0.0409
3465.00,0.0410
3464.00,0.0410
3463.00,0.0409
3462.00,0.0408
3461.00,0.0407
3460.00,0.0408
3459.00,0.0409
3458.00,0.0411
3457.00,0.0412
3456.00,0.0411
3455.00,0.0411
3454.00,0.0410
3453.00,0.0411
3452.00,0.0411
3451.00,0.0411
3450.00,0.0411
3449.00,0.0411
3448.00,0.0411
3447.00,0.0411
3446.00,0.0411
3445.00,0.0411
3444.00,0.0412
3443.00,0.0413
3442.00,0.0412
3441.00,0.0411
3440.00,0.0411
3439.00,0.0411
3438.00,0.0411
3437.00,0.0411
3436.00,0.0412
3435.00,0.0412
3434.00,0.0412
3433.00,0.0412
3432.00,0.0413
3431.00,0.0414
3430.00,0.0414
3429.00,0.0414
3428.00,0.0413
3427.00,0.0413
3426.00,0.0413
3425.00,0.0414
3424.00,0.0415
3423.00,0.0415
3422.00,0.0416
3421.00,0.0416
3420.00,0.0416
3419.00,0.0416
3418.00,0.0416
3417.00,0.0416
3416.00,0.0416
3415.00,0.0416
3414.00,0.0416
3413.00,0.0416
3412.00,0.0417
3411.00,0.0417
3410.00,0.0417
3409.00,0.0417
3408.00,0.0418
3407.00,0.0418
3406.00,0.0419
3405.00,0.0419
3404.00,0.0418
3403.00,0.0418
3402.00,0.0417
3401.00,0.0417
3400.00,0.0418
3399.00,0.0419
3398.00,0.0419
3397.00,0.0418
3396.00,0.0418
3395.00,0.0417
3394.00,0.0417
3393.00,0.0418
3392.00,0.0419
3391.00,0.0420
3390.00,0.0420
3389.00,0.0420
3388.00,0.0420
3387.00,0.0420
3386.00,0.0419
3385.00,0.0419
3384.00,0.0420
3383.00,0.0420
3382.00,0.0421
3381.00,0.0421
3380.00,0.0422
3379.00,0.0422
3378.00,0.0423
3377.00,0.0422
3376.00,0.0422
3375.00,0.0422
3374.00,0.0421
3373.00,0.0421
3372.00,0.0421
3371.00,0.0421
3370.00,0.0421
3369.00,0.0421
3368.00,0.0422
3367.00,0.0421
3366.00,0.0421
3365.00,0.0420
3364.00,0.0420
3363.00,0.0420
3362.00,0.0422
3361.00,0.0423
3360.00,0.0424
3359.00,0.0424
3358.00,0.0424
3357.00,0.0423
3356.00,0.0423
3355.00,0.0423
3354.00,0.0424
3353.00,0.0424
3352.00,0.0424
3351.00,0.0424
3350.00,0.0424
3349.00,0.0424
3348.00,0.0424
3347.00,0.0423
3346.00,0.0423
3345.00,0.0423
3344.00,0.0423
3343.00,0.0423
3342.00,0.0423
3341.00,0.0423
3340.00,0.0424
3339.00,0.0424
3338.00,0.0424
3337.00,0.0424
3336.00,0.0424
3335.00,0.0424
3334.00,0.0424
3333.00,0.0424
3332.00,0.0424
3331.00,0.0424
3330.00,0.0423
3329.00,0.0423
3328.00,0.0424
3327.00,0.0424
3326.00,0.0425
3325.00,0.0426
3324.00,0.0426
3323.00,0.0426
3322.00,0.0426
3321.00,0.0426
3320.00,0.0425
3319.00,0.0425
3318.00,0.0425
3317.00,0.0425
3316.00,0.0425
3315.00,0.0425
3314.00,0.0424
3313.00,0.0424
3312.00,0.0424
3311.00,0.0424
3310.00,0.0424
3309.00,0.0425
3308.00,0.0426
3307.00,0.0427
3306.00,0.0427
3305.00,0.0427
3304.00,0.0426
3303.00,0.0426
3302.00,0.0427
3301.00,0.0427
3300.00,0.0426
3299.00,0.0426
3298.00,0.0426
3297.00,0.0427
3296.00,0.0427
3295.00,0.0428
3294.00,0.0428
3293.00,0.0428
3292.00,0.0427
3291.00,0.0427
3290.00,0.0426
3289.00,0.0426
3288.00,0.0427
3287.00,0.0427
3286.00,0.0427
3285.00,0.0428
3284.00,0.0428
3283.00,0.0428
3282.00,0.0428
3281.00,0.0428
3280.00,0.0428
3279.00,0.0427
3278.00,0.0427
3277.00,0.0427
3276.00,0.0427
3275.00,0.0427
3274.00,0.0427
3273.00,0.0427
3272.00,0.0428
3271.00,0.0429
3270.00,0.0430
3269.00,0.0431
3268.00,0.0431
3267.00,0.0431
3266.00,0.0430
3265.00,0.0429
3264.00,0.0428
3263.00,0.0427
3262.00,0.0427
3261.00,0.0428
3260.00,0.0429
3259.00,0.0430
3258.00,0.0430
3257.00,0.0429
3256.00,0.0428
3255.00,0.0428
3254.00,0.0428
3253.00,0.0428
3252.00,0.0428
3251.00,0.0428
3250.00,0.0429
3249.00,0.0429
3248.00,0.0428
3247.00,0.0428
3246.00,0.0428
3245.00,0.0428
3244.00,0.0428
3243.00,0.0428
3242.00,0.0429
3241.00,0.0429
3240.00,0.0429
3239.00,0.0429
3238.00,0.0429
3237.00,0.0430
3236.00,0.0430
3235.00,0.0431
3234.00,0.0432
3233.00,0.0432
3232.00,0.0432
3231.00,0.0432
3230.00,0.0431
3229.00,0.0430
3228.00,0.0429
3227.00,0.0429
3226.00,0.0429
3225.00,0.0429
3224.00,0.0429
3223.00,0.0429
3222.00,0.0429
3221.00,0.0429
3220.00,0.0428
3219.00,0.0428
3218.00,0.0428
3217.00,0.0428
3216.00,0.0429
3215.00,0.0430
3214.00,0.0431
3213.00,0.0430
3212.00,0.0430
3211.00,0.0429
3210.00,0.0429
3209.00,0.0429
3208.00,0.0429
3207.00,0.0430
3206.00,0.0430
3205.00,0.0430
3204.00,0.0431
3203.00,0.0431
3202.00,0.0430
3201.00,0.0430
3200.00,0.0430
3199.00,0.0430
3198.00,0.0430
3197.00,0.0430
3196.00,0.0430
3195.00,0.0430
3194.00,0.0430
3193.00,0.0430
3192.00,0.0429
3191.00,0.0429
3190.00,0.0429
3189.00,0.0428
3188.00,0.0428
3187.00,0.0427
3186.00,0.0427
3185.00,0.0427
3184.00,0.0428
3183.00,0.0429
3182.00,0.0429
3181.00,0.0429
3180.00,0.0429
3179.00,0.0428
3178.00,0.0428
3177.00,0.0427
3176.00,0.0427
3175.00,0.0428
3174.00,0.0428
3173.00,0.0428
3172.00,0.0428
3171.00,0.0428
3170.00,0.0427
3169.00,0.0427
3168.00,0.0427
3167.00,0.0428
3166.00,0.0428
3165.00,0.0429
3164.00,0.0430
3163.00,0.0430
3162.00,0.0430
3161.00,0.0429
3160.00,0.0428
3159.00,0.0426
3158.00,0.0426
3157.00,0.0425
3156.00,0.0426
3155.00,0.0426
3154.00,0.0427
3153.00,0.0428
3152.00,0.0428
3151.00,0.0428
3150.00,0.0427
3149.00,0.0427
3148.00,0.0427
3147.00,0.0427
3146.00,0.0427
3145.00,0.0427
3144.00,0.0427
3143.00,0.0427
3142.00,0.0427
3141.00,0.0427
3140.00,0.0426
3139.00,0.0426
3138.00,0.0426
3137.00,0.0427
3136.00,0.0427
3135.00,0.0427
3134.00,0.0426
3133.00,0.0426
3132.00,0.0426
3131.00,0.0426
3130.00,0.0426
3129.00,0.0426
3128.00,0.0426
3127.00,0.0426
3126.00,0.0426
3125.00,0.0425
3124.00,0.0425
3123.00,0.0425
3122.00,0.0425
3121.00,0.0425
3120.00,0.0425
3119.00,0.0425
3118.00,0.0425
3117.00,0.0425
3116.00,0.0425
3115.00,0.0425
3114.00,0.0425
3113.00,0.0425
3112.00,0.0425
3111.00,0.0425
3110.00,0.0425
3109.00,0.0425
3108.00,0.0425
3107.00,0.0426
3106.00,0.0426
3105.00,0.0427
3104.00,0.0427
3103.00,0.0426
3102.00,0.0425
3101.00,0.0424
3100.00,0.0424
3099.00,0.0423
3098.00,0.0423
3097.00,0.0423
3096.00,0.0424
3095.00,0.0425
3094.00,0.0425
3093.00,0.0426
3092.00,0.0426
3091.00,0.0425
3090.00,0.0424
3089.00,0.0423
3088.00,0.0422
3087.00,0.0422
3086.00,0.0423
3085.00,0.0424
3084.00,0.0424
3083.00,0.0424
3082.00,0.0424
3081.00,0.0425
3080.00,0.0425
3079.00,0.0425
3078.00,0.0425
3077.00,0.0425
3076.00,0.0425
3075.00,0.0425
3074.00,0.0425
3073.00,0.0425
3072.00,0.0425
3071.00,0.0425
3070.00,0.0425
3069.00,0.0425
3068.00,0.0425
3067.00,0.0425
3066.00,0.0425
3065.00,0.0424
3064.00,0.0423
3063.00,0.0423
3062.00,0.0423
3061.00,0.0423
3060.00,0.0424
3059.00,0.0424
3058.00,0.0424
3057.00,0.0424
3056.00,0.0424
3055.00,0.0424
3054.00,0.0424
3053.00,0.0424
3052.00,0.0424
3051.00,0.0424
3050.00,0.0425
3049.00,0.0425
3048.00,0.0425
3047.00,0.0425
3046.00,0.0425
3045.00,0.0424
3044.00,0.0424
3043.00,0.0423
3042.00,0.0422
3041.00,0.0422
3040.00,0.0422
3039.00,0.0422
3038.00,0.0422
3037.00,0.0422
3036.00,0.0423
3035.00,0.0423
3034.00,0.0423
3033.00,0.0423
3032.00,0.0423
3031.00,0.0422
3030.00,0.0422
3029.00,0.0421
3028.00,0.0420
3027.00,0.0420
3026.00,0.0421
3025.00,0.0421
3024.00,0.0421
3023.00,0.0421
3022.00,0.0421
3021.00,0.0421
3020.00,0.0420
3019.00,0.0420
3018.00,0.0419
3017.00,0.0419
3016.00,0.0419
3015.00,0.0419
3014.00,0.0418
3013.00,0.0417
3012.00,0.0416
3011.00,0.0416
3010.00,0.0415
3009.00,0.0413
3008.00,0.0412
3007.00,0.0410
3006.00,0.0409
3005.00,0.0408
3004.00,0.0407
3003.00,0.0406
3002.00,0.0405
3001.00,0.0403
3000.00,0.0402
2999.00,0.0400
2998.00,0.0399
2997.00,0.0398
2996.00,0.0397
2995.00,0.0397
2994.00,0.0396
2993.00,0.0396
2992.00,0.0395
2991.00,0.0394
2990.00,0.0393
2989.00,0.0392
2988.00,0.0391
2987.00,0.0390
2986.00,0.0387
2985.00,0.0383
2984.00,0.0379
2983.00,0.0375
2982.00,0.0373
2981.00,0.0373
2980.00,0.0375
2979.00,0.0377
2978.00,0.0379
2977.00,0.0382
2976.00,0.0383
2975.00,0.0385
2974.00,0.0385
2973.00,0.0384
2972.00,0.0384
2971.00,0.0384
2970.00,0.0386
2969.00,0.0388
2968.00,0.0390
2967.00,0.0392
2966.00,0.0393
2965.00,0.0394
2964.00,0.0396
2963.00,0.0397
2962.00,0.0399
2961.00,0.0400
2960.00,0.0400
2959.00,0.0401
2958.00,0.0401
2957.00,0.0402
2956.00,0.0403
2955.00,0.0404
2954.00,0.0406
2953.00,0.0407
2952.00,0.0407
2951.00,0.0408
2950.00,0.0409
2949.00,0.0409
2948.00,0.0410
2947.00,0.0410
2946.00,0.0410
2945.00,0.0411
2944.00,0.0412
2943.00,0.0413
2942.00,0.0415
2941.00,0.0416
2940.00,0.0416
2939.00,0.0417
2938.00,0.0417
2937.00,0.0418
2936.00,0.0419
2935.00,0.0419
2934.00,0.0420
2933.00,0.0421
2932.00,0.0422
2931.00,0.0422
2930.00,0.0423
2929.00,0.0425
2928.00,0.0426
2927.00,0.0427
2926.00,0.0427
2925.00,0.0427
2924.00,0.0428
2923.00,0.0428
2922.00,0.0428
2921.00,0.0428
2920.00,0.0428
2919.00,0.0427
2918.00,0.0426
2917.00,0.0425
2916.00,0.0424
2915.00,0.0423
2914.00,0.0421
2913.00,0.0420
2912.00,0.0420
2911.00,0.0419
2910.00,0.0418
2909.00,0.0418
2908.00,0.0417
2907.00,0.0416
2906.00,0.0415
2905.00,0.0414
2904.00,0.0414
2903.00,0.0413
2902.00,0.0413
2901.00,0.0413
2900.00,0.0413
2899.00,0.0412
2898.00,0.0411
2897.00,0.0411
2896.00,0.0410
2895.00,0.0410
2894.00,0.0410
2893.00,0.0409
2892.00,0.0409
2891.00,0.0409
2890.00,0.0408
2889.00,0.0408
2888.00,0.0408
2887.00,0.0408
2886.00,0.0408
2885.00,0.0408
2884.00,0.0407
2883.00,0.0407
2882.00,0.0407
2881.00,0.0408
2880.00,0.0408
2879.00,0.0409
2878.00,0.0410
2877.00,0.0410
2876.00,0.0410
2875.00,0.0410
2874.00,0.0410
2873.00,0.0410
2872.00,0.0410
2871.00,0.0410
2870.00,0.0411
2869.00,0.0411
2868.00,0.0412
2867.00,0.0412
2866.00,0.0412
2865.00,0.0413
2864.00,0.0414
2863.00,0.0414
2862.00,0.0415
2861.00,0.0416
2860.00,0.0417
2859.00,0.0419
2858.00,0.0421
2857.00,0.0422
2856.00,0.0422
2855.00,0.0422
2854.00,0.0422
2853.00,0.0422
2852.00,0.0422
2851.00,0.0423
2850.00,0.0423
2849.00,0.0423
2848.00,0.0422
2847.00,0.0421
2846.00,0.0420
2845.00,0.0419
2844.00,0.0418
2843.00,0.0417
2842.00,0.0417
2841.00,0.0416
2840.00,0.0414
2839.00,0.0413
2838.00,0.0413
2837.00,0.0413
2836.00,0.0413
2835.00,0.0414
2834.00,0.0414
2833.00,0.0414
2832.00,0.0413
2831.00,0.0412
2830.00,0.0412
2829.00,0.0412
2828.00,0.0412
2827.00,0.0412
2826.00,0.0412
2825.00,0.0412
2824.00,0.0412
2823.00,0.0411
2822.00,0.0411
2821.00,0.0411
2820.00,0.0410
2819.00,0.0409
2818.00,0.0409
2817.00,0.0409
2816.00,0.0409
2815.00,0.0409
2814.00,0.0409
2813.00,0.0409
2812.00,0.0409
2811.00,0.0409
2810.00,0.0409
2809.00,0.0409
2808.00,0.0409
2807.00,0.0409
2806.00,0.0409
2805.00,0.0409
2804.00,0.0409
2803.00,0.0409
2802.00,0.0409
2801.00,0.0409
2800.00,0.0409
2799.00,0.0409
2798.00,0.0409
2797.00,0.0409
2796.00,0.0408
2795.00,0.0408
2794.00,0.0408
2793.00,0.0408
2792.00,0.0408
2791.00,0.0408
2790.00,0.0409
2789.00,0.0409
2788.00,0.0409
2787.00,0.0408
2786.00,0.0408
2785.00,0.0408
2784.00,0.0407
2783.00,0.0407
2782.00,0.0406
2781.00,0.0406
2780.00,0.0405
2779.00,0.0405
2778.00,0.0406
2777.00,0.0406
2776.00,0.0407
2775.00,0.0407
2774.00,0.0407
2773.00,0.0407
2772.00,0.0407
2771.00,0.0406
2770.00,0.0404
2769.00,0.0403
2768.00,0.0403
2767.00,0.0403
2766.00,0.0404
2765.00,0.0404
2764.00,0.0405
2763.00,0.0405
2762.00,0.0405
2761.00,0.0405
2760.00,0.0405
2759.00,0.0405
2758.00,0.0405
2757.00,0.0404
2756.00,0.0404
2755.00,0.0404
2754.00,0.0404
2753.00,0.0404
2752.00,0.0404
2751.00,0.0404
2750.00,0.0405
2749.00,0.0405
2748.00,0.0405
2747.00,0.0405
2746.00,0.0405
2745.00,0.0405
2744.00,0.0405
2743.00,0.0405
2742.00,0.0404
2741.00,0.0404
2740.00,0.0404
2739.00,0.0403
2738.00,0.0403
2737.00,0.0402
2736.00,0.0402
2735.00,0.0403
2734.00,0.0403
2733.00,0.0403
2732.00,0.0404
2731.00,0.0404
2730.00,0.0403
2729.00,0.0403
2728.00,0.0402
2727.00,0.0402
2726.00,0.0402
2725.00,0.0403
2724.00,0.0403
2723.00,0.0403
2722.00,0.0403
2721.00,0.0402
2720.00,0.0402
2719.00,0.0402
2718.00,0.0402
2717.00,0.0402
2716.00,0.0403
2715.00,0.0403
2714.00,0.0403
2713.00,0.0402
2712.00,0.0402
2711.00,0.0402
2710.00,0.0402
2709.00,0.0402
2708.00,0.0401
2707.00,0.0401
2706.00,0.0401
2705.00,0.0401
2704.00,0.0401
2703.00,0.0401
2702.00,0.0401
2701.00,0.0401
2700.00,0.0401
2699.00,0.0401
2698.00,0.0401
2697.00,0.0401
2696.00,0.0400
2695.00,0.0401
2694.00,0.0401
2693.00,0.0402
2692.00,0.0402
2691.00,0.0401
2690.00,0.0401
2689.00,0.0401
2688.00,0.0401
2687.00,0.0401
2686.00,0.0401
2685.00,0.0401
2684.00,0.0401
2683.00,0.0401
2682.00,0.0401
2681.00,0.0401
2680.00,0.0400
2679.00,0.0400
2678.00,0.0399
2677.00,0.0399
2676.00,0.0399
2675.00,0.0399
2674.00,0.0399
2673.00,0.0399
2672.00,0.0399
2671.00,0.0399
2670.00,0.0399
2669.00,0.0399
2668.00,0.0399
2667.00,0.0399
2666.00,0.0399
2665.00,0.0399
2664.00,0.0399
2663.00,0.0400
2662.00,0.0400
2661.00,0.0400
2660.00,0.0400
2659.00,0.0401
2658.00,0.0401
2657.00,0.0401
2656.00,0.0401
2655.00,0.0400
2654.00,0.0400
2653.00,0.0401
2652.00,0.0401
2651.00,0.0401
2650.00,0.0401
2649.00,0.0401
2648.00,0.0401
2647.00,0.0400
2646.00,0.0400
2645.00,0.0400
2644.00,0.0400
2643.00,0.0401
2642.00,0.0401
2641.00,0.0401
2640.00,0.0401
2639.00,0.0401
2638.00,0.0401
2637.00,0.0400
2636.00,0.0400
2635.00,0.0400
2634.00,0.0400
2633.00,0.0401
2632.00,0.0401
2631.00,0.0400
2630.00,0.0400
2629.00,0.0399
2628.00,0.0398
2627.00,0.0398
2626.00,0.0399
2625.00,0.0400
2624.00,0.0401
2623.00,0.0401
2622.00,0.0402
2621.00,0.0402
2620.00,0.0402
2619.00,0.0401
2618.00,0.0401
2617.00,0.0401
2616.00,0.0400
2615.00,0.0400
2614.00,0.0399
2613.00,0.0399
2612.00,0.0400
2611.00,0.0401
2610.00,0.0400
2609.00,0.0400
2608.00,0.0399
2607.00,0.0399
2606.00,0.0399
2605.00,0.0400
2604.00,0.0400
2603.00,0.0400
2602.00,0.0400
2601.00,0.0399
2600.00,0.0399
2599.00,0.0399
2598.00,0.0398
2597.00,0.0398
2596.00,0.0397
2595.00,0.0397
2594.00,0.0398
2593.00,0.0399
2592.00,0.0400
2591.00,0.0400
2590.00,0.0400
2589.00,0.0400
2588.00,0.0400
2587.00,0.0400
2586.00,0.0399
2585.00,0.0398
2584.00,0.0398
2583.00,0.0398
2582.00,0.0398
2581.00,0.0399
2580.00,0.0399
2579.00,0.0400
2578.00,0.0400
2577.00,0.0399
2576.00,0.0398
2575.00,0.0398
2574.00,0.0398
2573.00,0.0399
2572.00,0.0399
2571.00,0.0399
2570.00,0.0398
2569.00,0.0398
2568.00,0.0398
2567.00,0.0400
2566.00,0.0401
2565.00,0.0401
2564.00,0.0401
2563.00,0.0401
2562.00,0.0401
2561.00,0.0401
2560.00,0.0400
2559.00,0.0400
2558.00,0.0399
2557.00,0.0400
2556.00,0.0400
2555.00,0.0400
2554.00,0.0400
2553.00,0.0400
2552.00,0.0399
2551.00,0.0398
2550.00,0.0397
2549.00,0.0396
2548.00,0.0395
2547.00,0.0395
2546.00,0.0395
2545.00,0.0396
2544.00,0.0397
2543.00,0.0397
2542.00,0.0396
2541.00,0.0395
2540.00,0.0394
2539.00,0.0394
2538.00,0.0393
2537.00,0.0393
2536.00,0.0394
2535.00,0.0394
2534.00,0.0395
2533.00,0.0396
2532.00,0.0397
2531.00,0.0397
2530.00,0.0397
2529.00,0.0396
2528.00,0.0395
2527.00,0.0395
2526.00,0.0394
2525.00,0.0394
2524.00,0.0394
2523.00,0.0394
2522.00,0.0395
2521.00,0.0395
2520.00,0.0396
2519.00,0.0396
2518.00,0.0398
2517.00,0.0399
2516.00,0.0399
2515.00,0.0399
2514.00,0.0398
2513.00,0.0397
2512.00,0.0397
2511.00,0.0397
2510.00,0.0397
2509.00,0.0398
2508.00,0.0398
2507.00,0.0398
2506.00,0.0398
2505.00,0.0397
2504.00,0.0397
2503.00,0.0397
2502.00,0.0397
2501.00,0.0398
2500.00,0.0399
2499.00,0.0399
2498.00,0.0398
2497.00,0.0398
2496.00,0.0398
2495.00,0.0399
2494.00,0.0399
2493.00,0.0399
2492.00,0.0399
2491.00,0.0399
2490.00,0.0399
2489.00,0.0399
2488.00,0.0400
2487.00,0.0400
2486.00,0.0399
2485.00,0.0398
2484.00,0.0397
2483.00,0.0397
2482.00,0.0397
2481.00,0.0398
2480.00,0.0399
2479.00,0.0399
2478.00,0.0399
2477.00,0.0398
2476.00,0.0398
2475.00,0.0398
2474.00,0.0399
2473.00,0.0399
2472.00,0.0399
2471.00,0.0399
2470.00,0.0399
2469.00,0.0398
2468.00,0.0397
2467.00,0.0397
2466.00,0.0396
2465.00,0.0396
2464.00,0.0396
2463.00,0.0396
2462.00,0.0397
2461.00,0.0397
2460.00,0.0398
2459.00,0.0399
2458.00,0.0399
2457.00,0.0400
2456.00,0.0400
2455.00,0.0400
2454.00,0.0401
2453.00,0.0401
2452.00,0.0402
2451.00,0.0401
2450.00,0.0400
2449.00,0.0400
2448.00,0.0399
2447.00,0.0399
2446.00,0.0399
2445.00,0.0399
2444.00,0.0398
2443.00,0.0397
2442.00,0.0397
2441.00,0.0397
2440.00,0.0398
2439.00,0.0398
2438.00,0.0399
2437.00,0.0399
2436.00,0.0398
2435.00,0.0398
2434.00,0.0397
2433.00,0.0396
2432.00,0.0396
2431.00,0.0397
2430.00,0.0398
2429.00,0.0398
2428.00,0.0399
2427.00,0.0399
2426.00,0.0399
2425.00,0.0399
2424.00,0.0399
2423.00,0.0398
2422.00,0.0398
2421.00,0.0397
2420.00,0.0397
2419.00,0.0397
2418.00,0.0397
2417.00,0.0396
2416.00,0.0396
2415.00,0.0396
2414.00,0.0397
2413.00,0.0397
2412.00,0.0397
2411.00,0.0397
2410.00,0.0397
2409.00,0.0396
2408.00,0.0396
2407.00,0.0396
2406.00,0.0396
2405.00,0.0396
2404.00,0.0396
2403.00,0.0396
2402.00,0.0396
2401.00,0.0395
2400.00,0.0395
2399.00,0.0396
2398.00,0.0396
2397.00,0.0395
2396.00,0.0395
2395.00,0.0395
2394.00,0.0395
2393.00,0.0395
2392.00,0.0395
2391.00,0.0394
2390.00,0.0394
2389.00,0.0394
2388.00,0.0394
2387.00,0.0393
2386.00,0.0393
2385.00,0.0392
2384.00,0.0391
2383.00,0.0389
2382.00,0.0388
2381.00,0.0388
2380.00,0.0387
2379.00,0.0387
2378.00,0.0387
2377.00,0.0386
2376.00,0.0386
2375.00,0.0385
2374.00,0.0385
2373.00,0.0386
2372.00,0.0386
2371.00,0.0386
2370.00,0.0383
2369.00,0.0379
2368.00,0.0376
2367.00,0.0376
2366.00,0.0379
2365.00,0.0383
2364.00,0.0384
2363.00,0.0383
2362.00,0.0383
2361.00,0.0383
2360.00,0.0384
2359.00,0.0384
2358.00,0.0383
2357.00,0.0383
2356.00,0.0383
2355.00,0.0383
2354.00,0.0382
2353.00,0.0381
2352.00,0.0382
2351.00,0.0383
2350.00,0.0384
2349.00,0.0383
2348.00,0.0380
2347.00,0.0375
2346.00,0.0372
2345.00,0.0374
2344.00,0.0378
2343.00,0.0382
2342.00,0.0385
2341.00,0.0387
2340.00,0.0387
2339.00,0.0385
2338.00,0.0384
2337.00,0.0384
2336.00,0.0385
2335.00,0.0387
2334.00,0.0388
2333.00,0.0388
2332.00,0.0387
2331.00,0.0387
2330.00,0.0387
2329.00,0.0388
2328.00,0.0389
2327.00,0.0392
2326.00,0.0394
2325.00,0.0394
2324.00,0.0393
2323.00,0.0392
2322.00,0.0393
2321.00,0.0393
2320.00,0.0393
2319.00,0.0393
2318.00,0.0393
2317.00,0.0393
2316.00,0.0393
2315.00,0.0393
2314.00,0.0392
2313.00,0.0392
2312.00,0.0392
2311.00,0.0393
2310.00,0.0394
2309.00,0.0394
2308.00,0.0395
2307.00,0.0394
2306.00,0.0394
2305.00,0.0393
2304.00,0.0392
2303.00,0.0391
2302.00,0.0391
2301.00,0.0391
2300.00,0.0391
2299.00,0.0392
2298.00,0.0392
2297.00,0.0392
2296.00,0.0392
2295.00,0.0393
2294.00,0.0394
2293.00,0.0395
2292.00,0.0397
2291.00,0.0398
2290.00,0.0398
2289.00,0.0398
2288.00,0.0398
2287.00,0.0398
2286.00,0.0399
2285.00,0.0400
2284.00,0.0401
2283.00,0.0401
2282.00,0.0401
2281.00,0.0400
2280.00,0.0399
2279.00,0.0399
2278.00,0.0398
2277.00,0.0397
2276.00,0.0396
2275.00,0.0395
2274.00,0.0394
2273.00,0.0393
2272.00,0.0393
2271.00,0.0393
2270.00,0.0393
2269.00,0.0393
2268.00,0.0393
2267.00,0.0393
2266.00,0.0393
2265.00,0.0394
2264.00,0.0394
2263.00,0.0395
2262.00,0.0395
2261.00,0.0395
2260.00,0.0396
2259.00,0.0395
2258.00,0.0394
2257.00,0.0391
2256.00,0.0389
2255.00,0.0388
2254.00,0.0388
2253.00,0.0389
2252.00,0.0390
2251.00,0.0391
2250.00,0.0392
2249.00,0.0392
2248.00,0.0392
2247.00,0.0392
2246.00,0.0393
2245.00,0.0394
2244.00,0.0394
2243.00,0.0393
2242.00,0.0392
2241.00,0.0391
2240.00,0.0390
2239.00,0.0390
2238.00,0.0390
2237.00,0.0390
2236.00,0.0389
2235.00,0.0389
2234.00,0.0390
2233.00,0.0390
2232.00,0.0389
2231.00,0.0388
2230.00,0.0388
2229.00,0.0388
2228.00,0.0389
2227.00,0.0389
2226.00,0.0389
2225.00,0.0388
2224.00,0.0387
2223.00,0.0385
2222.00,0.0384
2221.00,0.0384
2220.00,0.0385
2219.00,0.0386
2218.00,0.0387
2217.00,0.0388
2216.00,0.0389
2215.00,0.0390
2214.00,0.0390
2213.00,0.0389
2212.00,0.0388
2211.00,0.0386
2210.00,0.0385
2209.00,0.0385
2208.00,0.0386
2207.00,0.0387
2206.00,0.0387
2205.00,0.0386
2204.00,0.0385
2203.00,0.0384
2202.00,0.0384
2201.00,0.0383
2200.00,0.0383
2199.00,0.0382
2198.00,0.0382
2197.00,0.0384
2196.00,0.0385
2195.00,0.0386
2194.00,0.0386
2193.00,0.0386
2192.00,0.0385
2191.00,0.0383
2190.00,0.0380
2189.00,0.0379
2188.00,0.0379
2187.00,0.0383
2186.00,0.0386
2185.00,0.0388
2184.00,0.0386
2183.00,0.0383
2182.00,0.0380
2181.00,0.0380
2180.00,0.0382
2179.00,0.0384
2178.00,0.0385
2177.00,0.0386
2176.00,0.0385
2175.00,0.0384
2174.00,0.0383
2173.00,0.0382
2172.00,0.0382
2171.00,0.0383
2170.00,0.0386
2169.00,0.0388
2168.00,0.0390
2167.00,0.0390
2166.00,0.0391
2165.00,0.0392
2164.00,0.0393
2163.00,0.0393
2162.00,0.0393
2161.00,0.0389
2160.00,0.0382
2159.00,0.0375
2158.00,0.0371
2157.00,0.0369
2156.00,0.0369
2155.00,0.0369
2154.00,0.0370
2153.00,0.0372
2152.00,0.0374
2151.00,0.0373
2150.00,0.0372
2149.00,0.0371
2148.00,0.0372
2147.00,0.0374
2146.00,0.0376
2145.00,0.0378
2144.00,0.0379
2143.00,0.0380
2142.00,0.0382
2141.00,0.0383
2140.00,0.0383
2139.00,0.0382
2138.00,0.0380
2137.00,0.0378
2136.00,0.0376
2135.00,0.0375
2134.00,0.0376
2133.00,0.0377
2132.00,0.0377
2131.00,0.0377
2130.00,0.0378
2129.00,0.0380
2128.00,0.0382
2127.00,0.0383
2126.00,0.0383
2125.00,0.0383
2124.00,0.0382
2123.00,0.0381
2122.00,0.0381
2121.00,0.0381
2120.00,0.0381
2119.00,0.0381
2118.00,0.0381
2117.00,0.0381
2116.00,0.0380
2115.00,0.0379
2114.00,0.0378
2113.00,0.0377
2112.00,0.0378
2111.00,0.0380
2110.00,0.0382
2109.00,0.0384
2108.00,0.0385
2107.00,0.0386
2106.00,0.0385
2105.00,0.0385
2104.00,0.0384
2103.00,0.0383
2102.00,0.0383
2101.00,0.0383
2100.00,0.0381
2099.00,0.0379
2098.00,0.0378
2097.00,0.0377
2096.00,0.0378
2095.00,0.0379
2094.00,0.0379
2093.00,0.0380
2092.00,0.0380
2091.00,0.0379
2090.00,0.0378
2089.00,0.0377
2088.00,0.0377
2087.00,0.0377
2086.00,0.0379
2085.00,0.0381
2084.00,0.0382
2083.00,0.0383
2082.00,0.0383
2081.00,0.0383
2080.00,0.0383
2079.00,0.0383
2078.00,0.0383
2077.00,0.0383
2076.00,0.0382
2075.00,0.0382
2074.00,0.0381
2073.00,0.0381
2072.00,0.0381
2071.00,0.0382
2070.00,0.0382
2069.00,0.0380
2068.00,0.0378
2067.00,0.0376
2066.00,0.0376
2065.00,0.0376
2064.00,0.0377
2063.00,0.0378
2062.00,0.0379
2061.00,0.0380
2060.00,0.0379
2059.00,0.0378
2058.00,0.0378
2057.00,0.0379
2056.00,0.0379
2055.00,0.0379
2054.00,0.0379
2053.00,0.0381
2052.00,0.0382
2051.00,0.0382
2050.00,0.0380
2049.00,0.0376
2048.00,0.0374
2047.00,0.0373
2046.00,0.0375
2045.00,0.0378
2044.00,0.0381
2043.00,0.0383
2042.00,0.0383
2041.00,0.0381
2040.00,0.0377
2039.00,0.0375
2038.00,0.0376
2037.00,0.0379
2036.00,0.0380
2035.00,0.0379
2034.00,0.0375
2033.00,0.0373
2032.00,0.0375
2031.00,0.0377
2030.00,0.0378
2029.00,0.0376
2028.00,0.0372
2027.00,0.0369
2026.00,0.0369
2025.00,0.0368
2024.00,0.0367
2023.00,0.0365
2022.00,0.0363
2021.00,0.0362
2020.00,0.0360
2019.00,0.0358
2018.00,0.0355
2017.00,0.0354
2016.00,0.0356
2015.00,0.0359
2014.00,0.0363
2013.00,0.0365
2012.00,0.0365
2011.00,0.0365
2010.00,0.0365
2009.00,0.0365
2008.00,0.0365
2007.00,0.0364
2006.00,0.0365
2005.00,0.0365
2004.00,0.0366
2003.00,0.0369
2002.00,0.0373
2001.00,0.0377
2000.00,0.0378
1999.00,0.0377
1998.00,0.0374
1997.00,0.0374
1996.00,0.0375
1995.00,0.0378
1994.00,0.0380
1993.00,0.0380
1992.00,0.0378
1991.00,0.0375
1990.00,0.0372
1989.00,0.0370
1988.00,0.0370
1987.00,0.0370
1986.00,0.0371
1985.00,0.0372
1984.00,0.0372
1983.00,0.0372
1982.00,0.0372
1981.00,0.0371
1980.00,0.0369
1979.00,0.0365
1978.00,0.0362
1977.00,0.0360
1976.00,0.0360
1975.00,0.0364
1974.00,0.0367
1973.00,0.0368
1972.00,0.0365
1971.00,0.0362
1970.00,0.0361
1969.00,0.0363
1968.00,0.0365
1967.00,0.0365
1966.00,0.0363
1965.00,0.0362
1964.00,0.0362
1963.00,0.0364
1962.00,0.0364
1961.00,0.0365
1960.00,0.0366
1959.00,0.0367
1958.00,0.0368
1957.00,0.0368
1956.00,0.0366
1955.00,0.0366
1954.00,0.0366
1953.00,0.0368
1952.00,0.0368
1951.00,0.0367
1950.00,0.0365
1949.00,0.0365
1948.00,0.0365
1947.00,0.0366
1946.00,0.0367
1945.00,0.0365
1944.00,0.0363
1943.00,0.0361
1942.00,0.0360
1941.00,0.0360
1940.00,0.0360
1939.00,0.0359
1938.00,0.0359
1937.00,0.0359
1936.00,0.0359
1935.00,0.0359
1934.00,0.0359
1933.00,0.0360
1932.00,0.0361
1931.00,0.0363
1930.00,0.0365
1929.00,0.0367
1928.00,0.0367
1927.00,0.0367
1926.00,0.0367
1925.00,0.0367
1924.00,0.0367
1923.00,0.0366
1922.00,0.0365
1921.00,0.0365
1920.00,0.0364
1919.00,0.0363
1918.00,0.0362
1917.00,0.0363
1916.00,0.0364
1915.00,0.0366
1914.00,0.0366
1913.00,0.0365
1912.00,0.0365
1911.00,0.0364
1910.00,0.0364
1909.00,0.0363
1908.00,0.0362
1907.00,0.0362
1906.00,0.0363
1905.00,0.0363
1904.00,0.0364
1903.00,0.0364
1902.00,0.0364
1901.00,0.0365
1900.00,0.0365
1899.00,0.0365
1898.00,0.0365
1897.00,0.0365
1896.00,0.0363
1895.00,0.0361
1894.00,0.0360
1893.00,0.0360
1892.00,0.0361
1891.00,0.0362
1890.00,0.0362
1889.00,0.0362
1888.00,0.0362
1887.00,0.0361
1886.00,0.0361
1885.00,0.0361
1884.00,0.0361
1883.00,0.0361
1882.00,0.0361
1881.00,0.0362
1880.00,0.0362
1879.00,0.0361
1878.00,0.0360
1877.00,0.0360
1876.00,0.0360
1875.00,0.0361
1874.00,0.0362
1873.00,0.0363
1872.00,0.0363
1871.00,0.0363
1870.00,0.0362
1869.00,0.0361
1868.00,0.0360
1867.00,0.0359
1866.00,0.0359
1865.00,0.0359
1864.00,0.0359
1863.00,0.0359
1862.00,0.0358
1861.00,0.0357
1860.00,0.0356
1859.00,0.0356
1858.00,0.0356
1857.00,0.0357
1856.00,0.0357
1855.00,0.0357
1854.00,0.0357
1853.00,0.0356
1852.00,0.0356
1851.00,0.0356
1850.00,0.0356
1849.00,0.0356
1848.00,0.0356
1847.00,0.0356
1846.00,0.0358
1845.00,0.0359
1844.00,0.0358
1843.00,0.0356
1842.00,0.0355
1841.00,0.0356
1840.00,0.0356
1839.00,0.0355
1838.00,0.0354
1837.00,0.0354
1836.00,0.0354
1835.00,0.0353
1834.00,0.0353
1833.00,0.0353
1832.00,0.0354
1831.00,0.0354
1830.00,0.0354
1829.00,0.0353
1828.00,0.0353
1827.00,0.0353
1826.00,0.0353
1825.00,0.0352
1824.00,0.0351
1823.00,0.0351
1822.00,0.0351
1821.00,0.0351
1820.00,0.0351
1819.00,0.0350
1818.00,0.0349
1817.00,0.0349
1816.00,0.0348
1815.00,0.0347
1814.00,0.0347
1813.00,0.0347
1812.00,0.0347
1811.00,0.0347
1810.00,0.0347
1809.00,0.0347
1808.00,0.0347
1807.00,0.0347
1806.00,0.0347
1805.00,0.0346
1804.00,0.0346
1803.00,0.0346
1802.00,0.0345
1801.00,0.0345
1800.00,0.0344
1799.00,0.0344
1798.00,0.0344
1797.00,0.0344
1796.00,0.0345
1795.00,0.0345
1794.00,0.0345
1793.00,0.0345
1792.00,0.0345
1791.00,0.0344
1790.00,0.0343
1789.00,0.0343
1788.00,0.0344
1787.00,0.0344
1786.00,0.0344
1785.00,0.0344
1784.00,0.0343
1783.00,0.0343
1782.00,0.0342
1781.00,0.0341
1780.00,0.0341
1779.00,0.0341
1778.00,0.0341
1777.00,0.0342
1776.00,0.0342
1775.00,0.0343
1774.00,0.0343
1773.00,0.0342
1772.00,0.0340
1771.00,0.0340
1770.00,0.0341
1769.00,0.0343
1768.00,0.0344
1767.00,0.0343
1766.00,0.0343
1765.00,0.0344
1764.00,0.0344
1763.00,0.0345
1762.00,0.0344
1761.00,0.0343
1760.00,0.0344
1759.00,0.0345
1758.00,0.0346
1757.00,0.0346
1756.00,0.0346
1755.00,0.0348
1754.00,0.0350
1753.00,0.0351
1752.00,0.0351
1751.00,0.0350
1750.00,0.0350
1749.00,0.0350
1748.00,0.0350
1747.00,0.0350
1746.00,0.0351
1745.00,0.0352
1744.00,0.0353
1743.00,0.0354
1742.00,0.0356
1741.00,0.0357
1740.00,0.0357
1739.00,0.0356
1738.00,0.0356
1737.00,0.0358
1736.00,0.0360
1735.00,0.0362
1734.00,0.0361
1733.00,0.0359
1732.00,0.0358
1731.00,0.0359
1730.00,0.0359
1729.00,0.0359
1728.00,0.0360
1727.00,0.0360
1726.00,0.0361
1725.00,0.0362
1724.00,0.0363
1723.00,0.0363
1722.00,0.0363
1721.00,0.0364
1720.00,0.0363
1719.00,0.0363
1718.00,0.0363
1717.00,0.0365
1716.00,0.0366
1715.00,0.0367
1714.00,0.0367
1713.00,0.0368
1712.00,0.0369
1711.00,0.0369
1710.00,0.0369
1709.00,0.0369
1708.00,0.0370
1707.00,0.0369
1706.00,0.0368
1705.00,0.0367
1704.00,0.0368
1703.00,0.0370
1702.00,0.0373
1701.00,0.0373
1700.00,0.0371
1699.00,0.0369
1698.00,0.0371
1697.00,0.0374
1696.00,0.0374
1695.00,0.0372
1694.00,0.0371
1693.00,0.0372
1692.00,0.0372
1691.00,0.0372
1690.00,0.0372
1689.00,0.0372
1688.00,0.0373
1687.00,0.0374
1686.00,0.0373
1685.00,0.0372
1684.00,0.0371
1683.00,0.0369
1682.00,0.0371
1681.00,0.0372
1680.00,0.0372
1679.00,0.0373
1678.00,0.0375
1677.00,0.0378
1676.00,0.0379
1675.00,0.0379
1674.00,0.0378
1673.00,0.0377
1672.00,0.0377
1671.00,0.0377
1670.00,0.0377
1669.00,0.0377
1668.00,0.0377
1667.00,0.0378
1666.00,0.0379
1665.00,0.0379
1664.00,0.0379
1663.00,0.0380
1662.00,0.0380
1661.00,0.0381
1660.00,0.0383
1659.00,0.0385
1658.00,0.0386
1657.00,0.0386
1656.00,0.0386
1655.00,0.0385
1654.00,0.0386
1653.00,0.0387
1652.00,0.0385
1651.00,0.0386
1650.00,0.0388
1649.00,0.0389
1648.00,0.0390
1647.00,0.0392
1646.00,0.0393
1645.00,0.0395
1644.00,0.0396
1643.00,0.0397
1642.00,0.0397
1641.00,0.0397
1640.00,0.0397
1639.00,0.0397
1638.00,0.0398
1637.00,0.0400
1636.00,0.0403
1635.00,0.0404
1634.00,0.0404
1633.00,0.0404
1632.00,0.0404
1631.00,0.0404
1630.00,0.0404
1629.00,0.0405
1628.00,0.0406
1627.00,0.0407
1626.00,0.0409
1625.00,0.0412
1624.00,0.0413
1623.00,0.0415
1622.00,0.0415
1621.00,0.0417
1620.00,0.0418
1619.00,0.0420
1618.00,0.0421
1617.00,0.0422
1616.00,0.0422
1615.00,0.0423
1614.00,0.0425
1613.00,0.0426
1612.00,0.0427
1611.00,0.0429
1610.00,0.0430
1609.00,0.0431
1608.00,0.0432
1607.00,0.0433
1606.00,0.0436
1605.00,0.0438
1604.00,0.0439
1603.00,0.0440
1602.00,0.0440
1601.00,0.0440
1600.00,0.0441
1599.00,0.0442
1598.00,0.0444
1597.00,0.0446
1596.00,0.0448
1595.00,0.0450
1594.00,0.0451
1593.00,0.0453
1592.00,0.0453
1591.00,0.0454
1590.00,0.0455
1589.00,0.0456
1588.00,0.0457
1587.00,0.0459
1586.00,0.0461
1585.00,0.0461
1584.00,0.0462
1583.00,0.0462
1582.00,0.0463
1581.00,0.0463
1580.00,0.0463
1579.00,0.0464
1578.00,0.0466
1577.00,0.0469
1576.00,0.0470
1575.00,0.0469
1574.00,0.0468
1573.00,0.0468
1572.00,0.0468
1571.00,0.0468
1570.00,0.0470
1569.00,0.0470
1568.00,0.0471
1567.00,0.0472
1566.00,0.0472
1565.00,0.0471
1564.00,0.0470
1563.00,0.0470
1562.00,0.0470
1561.00,0.0466
1560.00,0.0464
1559.00,0.0470
1558.00,0.0471
1557.00,0.0471
1556.00,0.0472
1555.00,0.0472
1554.00,0.0472
1553.00,0.0472
1552.00,0.0472
1551.00,0.0472
1550.00,0.0471
1549.00,0.0470
1548.00,0.0469
1547.00,0.0469
1546.00,0.0467
1545.00,0.0466
1544.00,0.0465
1543.00,0.0464
1542.00,0.0463
1541.00,0.0464
1540.00,0.0466
1539.00,0.0465
1538.00,0.0464
1537.00,0.0464
1536.00,0.0463
1535.00,0.0462
1534.00,0.0461
1533.00,0.0459
1532.00,0.0458
1531.00,0.0457
1530.00,0.0456
1529.00,0.0455
1528.00,0.0454
1527.00,0.0453
1526.00,0.0451
1525.00,0.0450
1524.00,0.0448
1523.00,0.0447
1522.00,0.0446
1521.00,0.0447
1520.00,0.0448
1519.00,0.0449
1518.00,0.0448
1517.00,0.0448
1516.00,0.0447
1515.00,0.0447
1514.00,0.0446
1513.00,0.0445
1512.00,0.0443
1511.00,0.0441
1510.00,0.0439
1509.00,0.0437
1508.00,0.0438
1507.00,0.0441
1506.00,0.0440
1505.00,0.0439
1504.00,0.0439
1503.00,0.0437
1502.00,0.0436
1501.00,0.0434
1500.00,0.0433
1499.00,0.0433
1498.00,0.0434
1497.00,0.0435
1496.00,0.0436
1495.00,0.0435
1494.00,0.0433
1493.00,0.0432
1492.00,0.0431
1491.00,0.0430
1490.00,0.0431
1489.00,0.0432
1488.00,0.0431
1487.00,0.0430
1486.00,0.0429
1485.00,0.0429
1484.00,0.0428
1483.00,0.0427
1482.00,0.0426
1481.00,0.0426
1480.00,0.0426
1479.00,0.0425
1478.00,0.0424
1477.00,0.0424
1476.00,0.0424
1475.00,0.0424
1474.00,0.0425
1473.00,0.0427
1472.00,0.0429
1471.00,0.0429
1470.00,0.0430
1469.00,0.0431
1468.00,0.0431
1467.00,0.0431
1466.00,0.0431
1465.00,0.0430
1464.00,0.0430
1463.00,0.0429
1462.00,0.0428
1461.00,0.0427
1460.00,0.0426
1459.00,0.0427
1458.00,0.0430
1457.00,0.0434
1456.00,0.0434
1455.00,0.0433
1454.00,0.0432
1453.00,0.0431
1452.00,0.0431
1451.00,0.0432
1450.00,0.0433
1449.00,0.0435
1448.00,0.0437
1447.00,0.0438
1446.00,0.0438
1445.00,0.0437
1444.00,0.0437
1443.00,0.0436
1442.00,0.0436
1441.00,0.0436
1440.00,0.0437
1439.00,0.0438
1438.00,0.0440
1437.00,0.0442
1436.00,0.0443
1435.00,0.0443
1434.00,0.0442
1433.00,0.0441
1432.00,0.0441
1431.00,0.0441
1430.00,0.0440
1429.00,0.0440
1428.00,0.0440
1427.00,0.0440
1426.00,0.0440
1425.00,0.0440
1424.00,0.0441
1423.00,0.0442
1422.00,0.0443
1421.00,0.0444
1420.00,0.0445
1419.00,0.0446
1418.00,0.0447
1417.00,0.0447
1416.00,0.0448
1415.00,0.0448
1414.00,0.0446
1413.00,0.0445
1412.00,0.0444
1411.00,0.0443
1410.00,0.0443
1409.00,0.0442
1408.00,0.0442
1407.00,0.0442
1406.00,0.0441
1405.00,0.0441
1404.00,0.0440
1403.00,0.0440
1402.00,0.0439
1401.00,0.0438
1400.00,0.0437
1399.00,0.0437
1398.00,0.0436
1397.00,0.0437
1396.00,0.0437
1395.00,0.0438
1394.00,0.0438
1393.00,0.0438
1392.00,0.0438
1391.00,0.0438
1390.00,0.0438
1389.00,0.0438
1388.00,0.0439
1387.00,0.0440
1386.00,0.0440
1385.00,0.0439
1384.00,0.0439
1383.00,0.0439
1382.00,0.0439
1381.00,0.0440
1380.00,0.0441
1379.00,0.0442
1378.00,0.0443
1377.00,0.0443
1376.00,0.0444
1375.00,0.0444
1374.00,0.0445
1373.00,0.0446
1372.00,0.0447
1371.00,0.0448
1370.00,0.0449
1369.00,0.0450
1368.00,0.0450
1367.00,0.0450
1366.00,0.0450
1365.00,0.0450
1364.00,0.0450
1363.00,0.0451
1362.00,0.0452
1361.00,0.0453
1360.00,0.0454
1359.00,0.0454
1358.00,0.0454
1357.00,0.0455
1356.00,0.0455
1355.00,0.0455
1354.00,0.0456
1353.00,0.0456
1352.00,0.0456
1351.00,0.0455
1350.00,0.0454
1349.00,0.0454
1348.00,0.0454
1347.00,0.0454
1346.00,0.0454
1345.00,0.0454
1344.00,0.0453
1343.00,0.0453
1342.00,0.0453
1341.00,0.0453
1340.00,0.0455
1339.00,0.0456
1338.00,0.0457
1337.00,0.0457
1336.00,0.0457
1335.00,0.0457
1334.00,0.0457
1333.00,0.0457
1332.00,0.0457
1331.00,0.0457
1330.00,0.0457
1329.00,0.0457
1328.00,0.0457
1327.00,0.0457
1326.00,0.0457
1325.00,0.0457
1324.00,0.0457
1323.00,0.0458
1322.00,0.0458
1321.00,0.0459
1320.00,0.0459
1319.00,0.0459
1318.00,0.0458
1317.00,0.0457
1316.00,0.0456
1315.00,0.0456
1314.00,0.0456
1313.00,0.0457
1312.00,0.0458
1311.00,0.0458
1310.00,0.0459
1309.00,0.0459
1308.00,0.0459
1307.00,0.0458
1306.00,0.0458
1305.00,0.0458
1304.00,0.0459
1303.00,0.0460
1302.00,0.0461
1301.00,0.0461
1300.00,0.0461
1299.00,0.0460
1298.00,0.0460
1297.00,0.0459
1296.00,0.0458
1295.00,0.0458
1294.00,0.0459
1293.00,0.0460
1292.00,0.0460
1291.00,0.0461
1290.00,0.0461
1289.00,0.0461
1288.00,0.0461
1287.00,0.0461
1286.00,0.0461
1285.00,0.0461
1284.00,0.0461
1283.00,0.0462
1282.00,0.0462
1281.00,0.0461
1280.00,0.0461
1279.00,0.0460
1278.00,0.0460
1277.00,0.0460
1276.00,0.0460
1275.00,0.0460
1274.00,0.0461
1273.00,0.0461
1272.00,0.0461
1271.00,0.0461
1270.00,0.0461
1269.00,0.0461
1268.00,0.0461
1267.00,0.0462
1266.00,0.0462
1265.00,0.0463
1264.00,0.0463
1263.00,0.0463
1262.00,0.0462
1261.00,0.0462
1260.00,0.0463
1259.00,0.0464
1258.00,0.0465
1257.00,0.0465
1256.00,0.0464
1255.00,0.0464
1254.00,0.0464
1253.00,0.0465
1252.00,0.0465
1251.00,0.0466
1250.00,0.0466
1249.00,0.0466
1248.00,0.0466
1247.00,0.0467
1246.00,0.0468
1245.00,0.0469
1244.00,0.0470
1243.00,0.0470
1242.00,0.0471
1241.00,0.0470
1240.00,0.0470
1239.00,0.0470
1238.00,0.0471
1237.00,0.0472
1236.00,0.0472
1235.00,0.0473
1234.00,0.0473
1233.00,0.0473
1232.00,0.0473
1231.00,0.0473
1230.00,0.0473
1229.00,0.0473
1228.00,0.0474
1227.00,0.0475
1226.00,0.0475
1225.00,0.0475
1224.00,0.0475
1223.00,0.0475
1222.00,0.0475
1221.00,0.0476
1220.00,0.0477
1219.00,0.0477
1218.00,0.0477
1217.00,0.0477
1216.00,0.0478
1215.00,0.0478
1214.00,0.0478
1213.00,0.0477
1212.00,0.0478
1211.00,0.0479
1210.00,0.0480
1209.00,0.0480
1208.00,0.0480
1207.00,0.0480
1206.00,0.0479
1205.00,0.0479
1204.00,0.0478
1203.00,0.0478
1202.00,0.0478
1201.00,0.0478
1200.00,0.0478
1199.00,0.0478
1198.00,0.0478
1197.00,0.0477
1196.00,0.0477
1195.00,0.0477
1194.00,0.0478
1193.00,0.0478
1192.00,0.0478
1191.00,0.0478
1190.00,0.0478
1189.00,0.0477
1188.00,0.0477
1187.00,0.0477
1186.00,0.0477
1185.00,0.0476
1184.00,0.0476
1183.00,0.0475
1182.00,0.0474
1181.00,0.0473
1180.00,0.0473
1179.00,0.0472
1178.00,0.0472
1177.00,0.0472
1176.00,0.0473
1175.00,0.0473
1174.00,0.0473
1173.00,0.0473
1172.00,0.0473
1171.00,0.0472
1170.00,0.0472
1169.00,0.0472
1168.00,0.0473
1167.00,0.0474
1166.00,0.0473
1165.00,0.0473
1164.00,0.0473
1163.00,0.0473
1162.00,0.0474
1161.00,0.0474
1160.00,0.0474
1159.00,0.0474
1158.00,0.0474
1157.00,0.0474
1156.00,0.0475
1155.00,0.0476
1154.00,0.0477
1153.00,0.0477
1152.00,0.0477
1151.00,0.0476
1150.00,0.0475
1149.00,0.0475
1148.00,0.0475
1147.00,0.0475
1146.00,0.0476
1145.00,0.0477
1144.00,0.0479
1143.00,0.0480
1142.00,0.0481
1141.00,0.0481
1140.00,0.0481
1139.00,0.0481
1138.00,0.0481
1137.00,0.0481
1136.00,0.0482
1135.00,0.0484
1134.00,0.0485
1133.00,0.0486
1132.00,0.0486
1131.00,0.0486
1130.00,0.0487
1129.00,0.0489
1128.00,0.0491
1127.00,0.0492
1126.00,0.0490
1125.00,0.0489
1124.00,0.0490
1123.00,0.0493
1122.00,0.0498
1121.00,0.0502
1120.00,0.0504
1119.00,0.0505
1118.00,0.0505
1117.00,0.0505
1116.00,0.0507
1115.00,0.0509
1114.00,0.0510
1113.00,0.0511
1112.00,0.0511
1111.00,0.0510
1110.00,0.0511
1109.00,0.0512
1108.00,0.0513
1107.00,0.0514
1106.00,0.0514
1105.00,0.0515
1104.00,0.0516
1103.00,0.0517
1102.00,0.0518
1101.00,0.0519
1100.00,0.0519
1099.00,0.0519
1098.00,0.0519
1097.00,0.0519
1096.00,0.0520
1095.00,0.0520
1094.00,0.0520
1093.00,0.0521
1092.00,0.0522
1091.00,0.0523
1090.00,0.0522
1089.00,0.0521
1088.00,0.0520
1087.00,0.0520
1086.00,0.0522
1085.00,0.0523
1084.00,0.0525
1083.00,0.0526
1082.00,0.0527
1081.00,0.0527
1080.00,0.0529
1079.00,0.0531
1078.00,0.0533
1077.00,0.0535
1076.00,0.0536
1075.00,0.0534
1074.00,0.0532
1073.00,0.0531
1072.00,0.0531
1071.00,0.0531
1070.00,0.0530
1069.00,0.0529
1068.00,0.0529
1067.00,0.0530
1066.00,0.0532
1065.00,0.0535
1064.00,0.0538
1063.00,0.0540
1062.00,0.0541
1061.00,0.0539
1060.00,0.0536
1059.00,0.0535
1058.00,0.0536
1057.00,0.0537
1056.00,0.0538
1055.00,0.0540
1054.00,0.0541
1053.00,0.0543
1052.00,0.0545
1051.00,0.0547
1050.00,0.0548
1049.00,0.0551
1048.00,0.0554
1047.00,0.0556
1046.00,0.0557
1045.00,0.0558
1044.00,0.0559
1043.00,0.0559
1042.00,0.0558
1041.00,0.0557
1040.00,0.0558
1039.00,0.0560
1038.00,0.0562
1037.00,0.0564
1036.00,0.0564
1035.00,0.0564
1034.00,0.0563
1033.00,0.0564
1032.00,0.0565
1031.00,0.0564
1030.00,0.0563
1029.00,0.0561
1028.00,0.0559
1027.00,0.0558
1026.00,0.0557
1025.00,0.0556
1024.00,0.0556
1023.00,0.0555
1022.00,0.0554
1021.00,0.0552
1020.00,0.0551
1019.00,0.0549
1018.00,0.0549
1017.00,0.0548
1016.00,0.0548
1015.00,0.0549
1014.00,0.0551
1013.00,0.0551
1012.00,0.0552
1011.00,0.0552
1010.00,0.0552
1009.00,0.0552
1008.00,0.0550
1007.00,0.0549
1006.00,0.0547
1005.00,0.0547
1004.00,0.0548
1003.00,0.0548
1002.00,0.0547
1001.00,0.0545
1000.00,0.0542
999.00,0.0539
998.00,0.0536
997.00,0.0534
996.00,0.0533
995.00,0.0533
994.00,0.0531
993.00,0.0529
992.00,0.0526
991.00,0.0524
990.00,0.0522
989.00,0.0520
988.00,0.0519
987.00,0.0519
986.00,0.0519
985.00,0.0519
984.00,0.0517
983.00,0.0514
982.00,0.0512
981.00,0.0511
980.00,0.0511
979.00,0.0510
978.00,0.0509
977.00,0.0506
976.00,0.0503
975.00,0.0501
974.00,0.0500
973.00,0.0500
972.00,0.0500
971.00,0.0499
970.00,0.0496
969.00,0.0494
968.00,0.0492
967.00,0.0491
966.00,0.0489
965.00,0.0488
964.00,0.0487
963.00,0.0487
962.00,0.0487
961.00,0.0487
960.00,0.0486
959.00,0.0484
958.00,0.0483
957.00,0.0483
956.00,0.0483
955.00,0.0482
954.00,0.0482
953.00,0.0481
952.00,0.0482
951.00,0.0484
950.00,0.0486
949.00,0.0486
948.00,0.0485
947.00,0.0483
946.00,0.0482
945.00,0.0482
944.00,0.0481
943.00,0.0481
942.00,0.0481
941.00,0.0481
940.00,0.0481
939.00,0.0482
938.00,0.0483
937.00,0.0484
936.00,0.0483
935.00,0.0482
934.00,0.0483
933.00,0.0485
932.00,0.0487
931.00,0.0489
930.00,0.0489
929.00,0.0489
928.00,0.0491
927.00,0.0492
926.00,0.0493
925.00,0.0493
924.00,0.0494
923.00,0.0494
922.00,0.0494
921.00,0.0493
920.00,0.0493
919.00,0.0494
918.00,0.0495
917.00,0.0497
916.00,0.0499
915.00,0.0500
914.00,0.0500
913.00,0.0499
912.00,0.0498
911.00,0.0496
910.00,0.0495
909.00,0.0492
908.00,0.0490
907.00,0.0488
906.00,0.0489
905.00,0.0491
904.00,0.0494
903.00,0.0497
902.00,0.0498
901.00,0.0497
900.00,0.0495
899.00,0.0494
898.00,0.0494
897.00,0.0495
896.00,0.0495
895.00,0.0494
894.00,0.0491
893.00,0.0489
892.00,0.0488
891.00,0.0487
890.00,0.0487
889.00,0.0488
888.00,0.0489
887.00,0.0487
886.00,0.0485
885.00,0.0483
884.00,0.0485
883.00,0.0488
882.00,0.0489
881.00,0.0489
880.00,0.0488
879.00,0.0486
878.00,0.0484
877.00,0.0481
876.00,0.0479
875.00,0.0477
874.00,0.0476
873.00,0.0475
872.00,0.0474
871.00,0.0475
870.00,0.0476
869.00,0.0476
868.00,0.0475
867.00,0.0474
866.00,0.0473
865.00,0.0474
864.00,0.0475
863.00,0.0477
862.00,0.0478
861.00,0.0480
860.00,0.0479
859.00,0.0478
858.00,0.0475
857.00,0.0474
856.00,0.0474
855.00,0.0475
854.00,0.0477
853.00,0.0477
852.00,0.0477
851.00,0.0477
850.00,0.0479
849.00,0.0481
848.00,0.0482
847.00,0.0483
846.00,0.0484
845.00,0.0486
844.00,0.0487
843.00,0.0486
842.00,0.0485
841.00,0.0483
840.00,0.0481
839.00,0.0480
838.00,0.0478
837.00,0.0478
836.00,0.0478
835.00,0.0479
834.00,0.0479
833.00,0.0478
832.00,0.0478
831.00,0.0477
830.00,0.0475
829.00,0.0472
828.00,0.0470
827.00,0.0471
826.00,0.0474
825.00,0.0478
824.00,0.0482
823.00,0.0486
822.00,0.0487
821.00,0.0487
820.00,0.0487
819.00,0.0487
818.00,0.0487
817.00,0.0485
816.00,0.0483
815.00,0.0481
814.00,0.0483
813.00,0.0486
812.00,0.0488
811.00,0.0488
810.00,0.0487
809.00,0.0487
808.00,0.0487
807.00,0.0487
806.00,0.0488
805.00,0.0488
804.00,0.0488
803.00,0.0488
802.00,0.0490
801.00,0.0493
800.00,0.0497
799.00,0.0500
798.00,0.0501
797.00,0.0499
796.00,0.0498
795.00,0.0496
794.00,0.0495
793.00,0.0494
792.00,0.0494
791.00,0.0496
790.00,0.0499
789.00,0.0499
788.00,0.0498
787.00,0.0497
786.00,0.0497
785.00,0.0498
784.00,0.0499
783.00,0.0501
782.00,0.0501
781.00,0.0502
780.00,0.0501
779.00,0.0501
778.00,0.0502
777.00,0.0502
776.00,0.0502
775.00,0.0501
774.00,0.0498
773.00,0.0496
772.00,0.0495
771.00,0.0494
770.00,0.0495
769.00,0.0497
768.00,0.0498
767.00,0.0497
766.00,0.0495
765.00,0.0494
764.00,0.0493
763.00,0.0492
762.00,0.0490
761.00,0.0490
760.00,0.0491
759.00,0.0495
758.00,0.0499
757.00,0.0502
756.00,0.0503
755.00,0.0502
754.00,0.0501
753.00,0.0501
752.00,0.0502
751.00,0.0504
750.00,0.0505
749.00,0.0505
748.00,0.0505
747.00,0.0506
746.00,0.0506
745.00,0.0506
744.00,0.0504
743.00,0.0504
742.00,0.0504
741.00,0.0503
740.00,0.0500
739.00,0.0497
738.00,0.0497
737.00,0.0499
736.00,0.0502
735.00,0.0502
734.00,0.0501
733.00,0.0499
732.00,0.0499
731.00,0.0500
730.00,0.0503
729.00,0.0507
728.00,0.0511
727.00,0.0514
726.00,0.0516
725.00,0.0516
724.00,0.0515
723.00,0.0513
722.00,0.0513
721.00,0.0516
720.00,0.0520
719.00,0.0520
718.00,0.0516
717.00,0.0511
716.00,0.0509
715.00,0.0508
714.00,0.0508
713.00,0.0511
712.00,0.0514
711.00,0.0516
710.00,0.0515
709.00,0.0513
708.00,0.0513
707.00,0.0515
706.00,0.0520
705.00,0.0526
704.00,0.0531
703.00,0.0534
702.00,0.0533
701.00,0.0530
700.00,0.0528
699.00,0.0529
698.00,0.0530
697.00,0.0531
696.00,0.0530
695.00,0.0529
694.00,0.0529
693.00,0.0530
692.00,0.0531
691.00,0.0532
690.00,0.0532
689.00,0.0531
688.00,0.0528
687.00,0.0525
686.00,0.0522
685.00,0.0521
684.00,0.0521
683.00,0.0523
682.00,0.0525
681.00,0.0527
680.00,0.0526
679.00,0.0524
678.00,0.0524
677.00,0.0527
676.00,0.0530
675.00,0.0533
674.00,0.0534
673.00,0.0533
672.00,0.0530
671.00,0.0527
670.00,0.0524
669.00,0.0526
668.00,0.0537
667.00,0.0549
666.00,0.0551
665.00,0.0546
664.00,0.0538
663.00,0.0529
662.00,0.0520
661.00,0.0514
660.00,0.0512
659.00,0.0514
658.00,0.0519
657.00,0.0525
656.00,0.0530
655.00,0.0532
654.00,0.0532
653.00,0.0531
652.00,0.0533
651.00,0.0529
650.00,0.0530
