Created as New Dataset,Monday, April 03 2023
cm-1,A
4000.00,0.0008
3999.00,0.0008
3998.00,0.0008
3997.00,0.0007
3996.00,0.0007
3995.00,0.0007
3994.00,0.0007
3993.00,0.0007
3992.00,0.0007
3991.00,0.0007
3990.00,0.0007
3989.00,0.0007
3988.00,0.0006
3987.00,0.0006
3986.00,0.0006
3985.00,0.0007
3984.00,0.0007
3983.00,0.0007
3982.00,0.0007
3981.00,0.0007
3980.00,0.0007
3979.00,0.0007
3978.00,0.0007
3977.00,0.0006
3976.00,0.0006
3975.00,0.0005
3974.00,0.0005
3973.00,0.0006
3972.00,0.0007
3971.00,0.0007
3970.00,0.0008
3969.00,0.0008
3968.00,0.0007
3967.00,0.0007
3966.00,0.0006
3965.00,0.0006
3964.00,0.0006
3963.00,0.0007
3962.00,0.0008
3961.00,0.0008
3960.00,0.0007
3959.00,0.0006
3958.00,0.0006
3957.00,0.0006
3956.00,0.0006
3955.00,0.0006
3954.00,0.0005
3953.00,0.0005
3952.00,0.0005
3951.00,0.0006
3950.00,0.0007
3949.00,0.0008
3948.00,0.0008
3947.00,0.0009
3946.00,0.0009
3945.00,0.0009
3944.00,0.0008
3943.00,0.0006
3942.00,0.0006
3941.00,0.0006
3940.00,0.0006
3939.00,0.0006
3938.00,0.0006
3937.00,0.0007
3936.00,0.0007
3935.00,0.0007
3934.00,0.0007
3933.00,0.0006
3932.00,0.0006
3931.00,0.0007
3930.00,0.0007
3929.00,0.0007
3928.00,0.0008
3927.00,0.0008
3926.00,0.0007
3925.00,0.0007
3924.00,0.0007
3923.00,0.0007
3922.00,0.0007
3921.00,0.0007
3920.00,0.0007
3919.00,0.0007
3918.00,0.0007
3917.00,0.0007
3916.00,0.0007
3915.00,0.0007
3914.00,0.0007
3913.00,0.0006
3912.00,0.0006
3911.00,0.0006
3910.00,0.0006
3909.00,0.0006
3908.00,0.0006
3907.00,0.0006
3906.00,0.0006
3905.00,0.0006
3904.00,0.0006
3903.00,0.0007
3902.00,0.0009
3901.00,0.0010
3900.00,0.0010
3899.00,0.0009
3898.00,0.0008
3897.00,0.0007
3896.00,0.0006
3895.00,0.0006
3894.00,0.0006
3893.00,0.0006
3892.00,0.0005
3891.00,0.0005
3890.00,0.0005
3889.00,0.0005
3888.00,0.0006
3887.00,0.0006
3886.00,0.0004
3885.00,0.0004
3884.00,0.0005
3883.00,0.0007
3882.00,0.0007
3881.00,0.0005
3880.00,0.0004
3879.00,0.0004
3878.00,0.0006
3877.00,0.0008
3876.00,0.0008
3875.00,0.0007
3874.00,0.0006
3873.00,0.0006
3872.00,0.0006
3871.00,0.0006
3870.00,0.0005
3869.00,0.0004
3868.00,0.0005
3867.00,0.0006
3866.00,0.0007
3865.00,0.0007
3864.00,0.0008
3863.00,0.0009
3862.00,0.0009
3861.00,0.0008
3860.00,0.0007
3859.00,0.0005
3858.00,0.0002
3857.00,0.0001
3856.00,0.0001
3855.00,0.0000
3854.00,0.0001
3853.00,0.0003
3852.00,0.0006
3851.00,0.0007
3850.00,0.0007
3849.00,0.0006
3848.00,0.0005
3847.00,0.0005
3846.00,0.0005
3845.00,0.0005
3844.00,0.0005
3843.00,0.0004
3842.00,0.0004
3841.00,0.0004
3840.00,0.0005
3839.00,0.0006
3838.00,0.0006
3837.00,0.0006
3836.00,0.0007
3835.00,0.0007
3834.00,0.0008
3833.00,0.0008
3832.00,0.0008
3831.00,0.0007
3830.00,0.0007
3829.00,0.0008
3828.00,0.0007
3827.00,0.0006
3826.00,0.0004
3825.00,0.0005
3824.00,0.0007
3823.00,0.0009
3822.00,0.0008
3821.00,0.0006
3820.00,0.0005
3819.00,0.0005
3818.00,0.0006
3817.00,0.0006
3816.00,0.0006
3815.00,0.0007
3814.00,0.0008
3813.00,0.0008
3812.00,0.0007
3811.00,0.0005
3810.00,0.0004
3809.00,0.0004
3808.00,0.0004
3807.00,0.0004
3806.00,0.0005
3805.00,0.0006
3804.00,0.0008
3803.00,0.0009
3802.00,0.0009
3801.00,0.0008
3800.00,0.0008
3799.00,0.0009
3798.00,0.0009
3797.00,0.0007
3796.00,0.0007
3795.00,0.0007
3794.00,0.0007
3793.00,0.0007
3792.00,0.0007
3791.00,0.0007
3790.00,0.0007
3789.00,0.0007
3788.00,0.0008
3787.00,0.0008
3786.00,0.0009
3785.00,0.0009
3784.00,0.0009
3783.00,0.0009
3782.00,0.0009
3781.00,0.0009
3780.00,0.0008
3779.00,0.0008
3778.00,0.0008
3777.00,0.0008
3776.00,0.0008
3775.00,0.0007
3774.00,0.0006
3773.00,0.0006
3772.00,0.0006
3771.00,0.0006
3770.00,0.0005
3769.00,0.0005
3768.00,0.0006
3767.00,0.0007
3766.00,0.0008
3765.00,0.0008
3764.00,0.0008
3763.00,0.0008
3762.00,0.0009
3761.00,0.0008
3760.00,0.0008
3759.00,0.0007
3758.00,0.0006
3757.00,0.0005
3756.00,0.0004
3755.00,0.0003
3754.00,0.0002
3753.00,0.0001
3752.00,0.0000
3751.00,0.0001
3750.00,0.0003
3749.00,0.0004
3748.00,0.0005
3747.00,0.0008
3746.00,0.0010
3745.00,0.0009
3744.00,0.0007
3743.00,0.0007
3742.00,0.0007
3741.00,0.0007
3740.00,0.0007
3739.00,0.0008
3738.00,0.0009
3737.00,0.0009
3736.00,0.0009
3735.00,0.0009
3734.00,0.0009
3733.00,0.0009
3732.00,0.0009
3731.00,0.0008
3730.00,0.0007
3729.00,0.0007
3728.00,0.0007
3727.00,0.0007
3726.00,0.0007
3725.00,0.0007
3724.00,0.0007
3723.00,0.0007
3722.00,0.0008
3721.00,0.0008
3720.00,0.0009
3719.00,0.0009
3718.00,0.0008
3717.00,0.0007
3716.00,0.0006
3715.00,0.0006
3714.00,0.0006
3713.00,0.0007
3712.00,0.0007
3711.00,0.0008
3710.00,0.0008
3709.00,0.0008
3708.00,0.0008
3707.00,0.0009
3706.00,0.0010
3705.00,0.0011
3704.00,0.0011
3703.00,0.0010
3702.00,0.0008
3701.00,0.0008
3700.00,0.0008
3699.00,0.0008
3698.00,0.0008
3697.00,0.0007
3696.00,0.0006
3695.00,0.0005
3694.00,0.0005
3693.00,0.0005
3692.00,0.0005
3691.00,0.0006
3690.00,0.0009
3689.00,0.0010
3688.00,0.0010
3687.00,0.0010
3686.00,0.0009
3685.00,0.0008
3684.00,0.0007
3683.00,0.0007
3682.00,0.0006
3681.00,0.0004
3680.00,0.0002
3679.00,0.0001
3678.00,0.0001
3677.00,0.0001
3676.00,0.0000
3675.00,0.0000
3674.00,0.0001
3673.00,0.0002
3672.00,0.0003
3671.00,0.0004
3670.00,0.0005
3669.00,0.0006
3668.00,0.0006
3667.00,0.0006
3666.00,0.0005
3665.00,0.0004
3664.00,0.0004
3663.00,0.0003
3662.00,0.0003
3661.00,0.0003
3660.00,0.0004
3659.00,0.0004
3658.00,0.0005
3657.00,0.0005
3656.00,0.0004
3655.00,0.0004
3654.00,0.0005
3653.00,0.0007
3652.00,0.0006
3651.00,0.0004
3650.00,0.0003
3649.00,0.0003
3648.00,0.0005
3647.00,0.0005
3646.00,0.0005
3645.00,0.0005
3644.00,0.0005
3643.00,0.0005
3642.00,0.0005
3641.00,0.0005
3640.00,0.0005
3639.00,0.0005
3638.00,0.0005
3637.00,0.0005
3636.00,0.0005
3635.00,0.0004
3634.00,0.0003
3633.00,0.0003
3632.00,0.0004
3631.00,0.0005
3630.00,0.0006
3629.00,0.0006
3628.00,0.0007
3627.00,0.0007
3626.00,0.0006
3625.00,0.0005
3624.00,0.0003
3623.00,0.0003
3622.00,0.0004
3621.00,0.0004
3620.00,0.0005
3619.00,0.0005
3618.00,0.0006
3617.00,0.0006
3616.00,0.0006
3615.00,0.0006
3614.00,0.0005
3613.00,0.0004
3612.00,0.0003
3611.00,0.0004
3610.00,0.0005
3609.00,0.0006
3608.00,0.0006
3607.00,0.0006
3606.00,0.0006
3605.00,0.0005
3604.00,0.0005
3603.00,0.0006
3602.00,0.0007
3601.00,0.0007
3600.00,0.0007
3599.00,0.0006
3598.00,0.0005
3597.00,0.0004
3596.00,0.0004
3595.00,0.0003
3594.00,0.0003
3593.00,0.0003
3592.00,0.0003
3591.00,0.0004
3590.00,0.0005
3589.00,0.0005
3588.00,0.0005
3587.00,0.0005
3586.00,0.0005
3585.00,0.0005
3584.00,0.0005
3583.00,0.0004
3582.00,0.0004
3581.00,0.0003
3580.00,0.0003
3579.00,0.0003
3578.00,0.0003
3577.00,0.0003
3576.00,0.0004
3575.00,0.0004
3574.00,0.0004
3573.00,0.0004
3572.00,0.0004
3571.00,0.0004
3570.00,0.0004
3569.00,0.0004
3568.00,0.0003
3567.00,0.0004
3566.00,0.0004
3565.00,0.0004
3564.00,0.0003
3563.00,0.0003
3562.00,0.0003
3561.00,0.0004
3560.00,0.0004
3559.00,0.0004
3558.00,0.0004
3557.00,0.0005
3556.00,0.0006
3555.00,0.0006
3554.00,0.0006
3553.00,0.0006
3552.00,0.0006
3551.00,0.0006
3550.00,0.0007
3549.00,0.0006
3548.00,0.0006
3547.00,0.0006
3546.00,0.0006
3545.00,0.0006
3544.00,0.0006
3543.00,0.0006
3542.00,0.0006
3541.00,0.0006
3540.00,0.0005
3539.00,0.0004
3538.00,0.0003
3537.00,0.0002
3536.00,0.0002
3535.00,0.0003
3534.00,0.0004
3533.00,0.0005
3532.00,0.0005
3531.00,0.0004
3530.00,0.0003
3529.00,0.0002
3528.00,0.0001
3527.00,0.0000
3526.00,0.0001
3525.00,0.0003
3524.00,0.0004
3523.00,0.0005
3522.00,0.0004
3521.00,0.0004
3520.00,0.0002
3519.00,0.0000
3518.00,-0.0001
3517.00,-0.0001
3516.00,-0.0001
3515.00,-0.0000
3514.00,0.0001
3513.00,0.0001
3512.00,0.0002
3511.00,0.0002
3510.00,0.0001
3509.00,0.0001
3508.00,0.0001
3507.00,0.0001
3506.00,0.0002
3505.00,0.0002
3504.00,0.0002
3503.00,0.0002
3502.00,0.0002
3501.00,0.0002
3500.00,0.0002
3499.00,0.0002
3498.00,0.0002
3497.00,0.0003
3496.00,0.0002
3495.00,0.0002
3494.00,0.0001
3493.00,0.0001
3492.00,0.0000
3491.00,-0.0000
3490.00,-0.0001
3489.00,-0.0002
3488.00,-0.0002
3487.00,-0.0001
3486.00,-0.0001
3485.00,-0.0001
3484.00,-0.0000
3483.00,-0.0000
3482.00,-0.0000
3481.00,-0.0001
3480.00,-0.0001
3479.00,-0.0001
3478.00,-0.0001
3477.00,-0.0000
3476.00,-0.0000
3475.00,-0.0000
3474.00,-0.0000
3473.00,-0.0000
3472.00,-0.0000
3471.00,-0.0000
3470.00,0.0000
3469.00,0.0000
3468.00,-0.0000
3467.00,-0.0000
3466.00,-0.0000
3465.00,0.0000
3464.00,0.0000
3463.00,-0.0000
3462.00,-0.0002
3461.00,-0.0003
3460.00,-0.0003
3459.00,-0.0002
3458.00,-0.0001
3457.00,-0.0000
3456.00,-0.0001
3455.00,-0.0002
3454.00,-0.0002
3453.00,-0.0002
3452.00,-0.0002
3451.00,-0.0001
3450.00,-0.0001
3449.00,-0.0001
3448.00,-0.0001
3447.00,-0.0001
3446.00,-0.0001
3445.00,-0.0001
3444.00,-0.0001
3443.00,-0.0001
3442.00,-0.0001
3441.00,-0.0003
3440.00,-0.0004
3439.00,-0.0004
3438.00,-0.0005
3437.00,-0.0005
3436.00,-0.0005
3435.00,-0.0005
3434.00,-0.0005
3433.00,-0.0005
3432.00,-0.0004
3431.00,-0.0004
3430.00,-0.0004
3429.00,-0.0004
3428.00,-0.0005
3427.00,-0.0005
3426.00,-0.0004
3425.00,-0.0004
3424.00,-0.0003
3423.00,-0.0002
3422.00,-0.0002
3421.00,-0.0002
3420.00,-0.0003
3419.00,-0.0003
3418.00,-0.0003
3417.00,-0.0003
3416.00,-0.0004
3415.00,-0.0004
3414.00,-0.0004
3413.00,-0.0004
3412.00,-0.0004
3411.00,-0.0004
3410.00,-0.0004
3409.00,-0.0004
3408.00,-0.0003
3407.00,-0.0003
3406.00,-0.0003
3405.00,-0.0004
3404.00,-0.0004
3403.00,-0.0005
3402.00,-0.0005
3401.00,-0.0004
3400.00,-0.0004
3399.00,-0.0004
3398.00,-0.0005
3397.00,-0.0006
3396.00,-0.0006
3395.00,-0.0006
3394.00,-0.0006
3393.00,-0.0005
3392.00,-0.0005
3391.00,-0.0005
3390.00,-0.0005
3389.00,-0.0005
3388.00,-0.0005
3387.00,-0.0006
3386.00,-0.0006
3385.00,-0.0006
3384.00,-0.0006
3383.00,-0.0005
3382.00,-0.0005
3381.00,-0.0005
3380.00,-0.0004
3379.00,-0.0004
3378.00,-0.0005
3377.00,-0.0005
3376.00,-0.0006
3375.00,-0.0006
3374.00,-0.0007
3373.00,-0.0007
3372.00,-0.0008
3371.00,-0.0008
3370.00,-0.0007
3369.00,-0.0007
3368.00,-0.0006
3367.00,-0.0006
3366.00,-0.0007
3365.00,-0.0009
3364.00,-0.0009
3363.00,-0.0009
3362.00,-0.0007
3361.00,-0.0006
3360.00,-0.0005
3359.00,-0.0005
3358.00,-0.0005
3357.00,-0.0006
3356.00,-0.0007
3355.00,-0.0006
3354.00,-0.0006
3353.00,-0.0006
3352.00,-0.0006
3351.00,-0.0006
3350.00,-0.0006
3349.00,-0.0006
3348.00,-0.0006
3347.00,-0.0006
3346.00,-0.0007
3345.00,-0.0008
3344.00,-0.0008
3343.00,-0.0008
3342.00,-0.0008
3341.00,-0.0007
3340.00,-0.0006
3339.00,-0.0006
3338.00,-0.0006
3337.00,-0.0006
3336.00,-0.0007
3335.00,-0.0007
3334.00,-0.0007
3333.00,-0.0007
3332.00,-0.0008
3331.00,-0.0008
3330.00,-0.0009
3329.00,-0.0009
3328.00,-0.0009
3327.00,-0.0008
3326.00,-0.0007
3325.00,-0.0006
3324.00,-0.0006
3323.00,-0.0006
3322.00,-0.0006
3321.00,-0.0007
3320.00,-0.0007
3319.00,-0.0007
3318.00,-0.0007
3317.00,-0.0007
3316.00,-0.0008
3315.00,-0.0008
3314.00,-0.0008
3313.00,-0.0009
3312.00,-0.0009
3311.00,-0.0009
3310.00,-0.0008
3309.00,-0.0007
3308.00,-0.0006
3307.00,-0.0006
3306.00,-0.0006
3305.00,-0.0007
3304.00,-0.0007
3303.00,-0.0008
3302.00,-0.0008
3301.00,-0.0008
3300.00,-0.0008
3299.00,-0.0008
3298.00,-0.0008
3297.00,-0.0007
3296.00,-0.0007
3295.00,-0.0007
3294.00,-0.0007
3293.00,-0.0008
3292.00,-0.0008
3291.00,-0.0009
3290.00,-0.0009
3289.00,-0.0009
3288.00,-0.0009
3287.00,-0.0008
3286.00,-0.0008
3285.00,-0.0007
3284.00,-0.0007
3283.00,-0.0007
3282.00,-0.0007
3281.00,-0.0007
3280.00,-0.0008
3279.00,-0.0008
3278.00,-0.0008
3277.00,-0.0008
3276.00,-0.0008
3275.00,-0.0008
3274.00,-0.0008
3273.00,-0.0008
3272.00,-0.0007
3271.00,-0.0006
3270.00,-0.0006
3269.00,-0.0006
3268.00,-0.0006
3267.00,-0.0006
3266.00,-0.0007
3265.00,-0.0007
3264.00,-0.0008
3263.00,-0.0009
3262.00,-0.0008
3261.00,-0.0008
3260.00,-0.0007
3259.00,-0.0007
3258.00,-0.0007
3257.00,-0.0007
3256.00,-0.0007
3255.00,-0.0008
3254.00,-0.0008
3253.00,-0.0008
3252.00,-0.0008
3251.00,-0.0008
3250.00,-0.0008
3249.00,-0.0008
3248.00,-0.0008
3247.00,-0.0008
3246.00,-0.0008
3245.00,-0.0008
3244.00,-0.0008
3243.00,-0.0008
3242.00,-0.0008
3241.00,-0.0009
3240.00,-0.0009
3239.00,-0.0009
3238.00,-0.0008
3237.00,-0.0007
3236.00,-0.0006
3235.00,-0.0005
3234.00,-0.0005
3233.00,-0.0005
3232.00,-0.0006
3231.00,-0.0007
3230.00,-0.0007
3229.00,-0.0008
3228.00,-0.0008
3227.00,-0.0008
3226.00,-0.0008
3225.00,-0.0008
3224.00,-0.0008
3223.00,-0.0008
3222.00,-0.0008
3221.00,-0.0008
3220.00,-0.0009
3219.00,-0.0009
3218.00,-0.0009
3217.00,-0.0008
3216.00,-0.0007
3215.00,-0.0007
3214.00,-0.0006
3213.00,-0.0007
3212.00,-0.0008
3211.00,-0.0008
3210.00,-0.0009
3209.00,-0.0009
3208.00,-0.0008
3207.00,-0.0008
3206.00,-0.0008
3205.00,-0.0008
3204.00,-0.0008
3203.00,-0.0007
3202.00,-0.0007
3201.00,-0.0007
3200.00,-0.0007
3199.00,-0.0007
3198.00,-0.0007
3197.00,-0.0008
3196.00,-0.0008
3195.00,-0.0007
3194.00,-0.0007
3193.00,-0.0007
3192.00,-0.0008
3191.00,-0.0009
3190.00,-0.0010
3189.00,-0.0010
3188.00,-0.0010
3187.00,-0.0010
3186.00,-0.0010
3185.00,-0.0010
3184.00,-0.0009
3183.00,-0.0008
3182.00,-0.0007
3181.00,-0.0007
3180.00,-0.0007
3179.00,-0.0008
3178.00,-0.0009
3177.00,-0.0010
3176.00,-0.0011
3175.00,-0.0011
3174.00,-0.0010
3173.00,-0.0010
3172.00,-0.0009
3171.00,-0.0009
3170.00,-0.0009
3169.00,-0.0009
3168.00,-0.0009
3167.00,-0.0009
3166.00,-0.0009
3165.00,-0.0008
3164.00,-0.0007
3163.00,-0.0007
3162.00,-0.0007
3161.00,-0.0008
3160.00,-0.0009
3159.00,-0.0010
3158.00,-0.0011
3157.00,-0.0011
3156.00,-0.0010
3155.00,-0.0010
3154.00,-0.0009
3153.00,-0.0008
3152.00,-0.0008
3151.00,-0.0009
3150.00,-0.0009
3149.00,-0.0010
3148.00,-0.0010
3147.00,-0.0010
3146.00,-0.0010
3145.00,-0.0009
3144.00,-0.0009
3143.00,-0.0009
3142.00,-0.0009
3141.00,-0.0009
3140.00,-0.0009
3139.00,-0.0009
3138.00,-0.0009
3137.00,-0.0008
3136.00,-0.0008
3135.00,-0.0008
3134.00,-0.0009
3133.00,-0.0009
3132.00,-0.0009
3131.00,-0.0009
3130.00,-0.0009
3129.00,-0.0009
3128.00,-0.0009
3127.00,-0.0009
3126.00,-0.0009
3125.00,-0.0009
3124.00,-0.0009
3123.00,-0.0009
3122.00,-0.0009
3121.00,-0.0009
3120.00,-0.0009
3119.00,-0.0008
3118.00,-0.0008
3117.00,-0.0008
3116.00,-0.0009
3115.00,-0.0009
3114.00,-0.0009
3113.00,-0.0009
3112.00,-0.0009
3111.00,-0.0009
3110.00,-0.0009
3109.00,-0.0010
3108.00,-0.0010
3107.00,-0.0009
3106.00,-0.0008
3105.00,-0.0008
3104.00,-0.0008
3103.00,-0.0008
3102.00,-0.0008
3101.00,-0.0009
3100.00,-0.0009
3099.00,-0.0009
3098.00,-0.0010
3097.00,-0.0010
3096.00,-0.0009
3095.00,-0.0008
3094.00,-0.0007
3093.00,-0.0006
3092.00,-0.0007
3091.00,-0.0008
3090.00,-0.0009
3089.00,-0.0010
3088.00,-0.0010
3087.00,-0.0011
3086.00,-0.0010
3085.00,-0.0009
3084.00,-0.0008
3083.00,-0.0007
3082.00,-0.0007
3081.00,-0.0007
3080.00,-0.0007
3079.00,-0.0008
3078.00,-0.0008
3077.00,-0.0008
3076.00,-0.0008
3075.00,-0.0008
3074.00,-0.0008
3073.00,-0.0008
3072.00,-0.0007
3071.00,-0.0007
3070.00,-0.0006
3069.00,-0.0006
3068.00,-0.0006
3067.00,-0.0006
3066.00,-0.0007
3065.00,-0.0008
3064.00,-0.0009
3063.00,-0.0009
3062.00,-0.0009
3061.00,-0.0009
3060.00,-0.0008
3059.00,-0.0008
3058.00,-0.0008
3057.00,-0.0008
3056.00,-0.0008
3055.00,-0.0008
3054.00,-0.0008
3053.00,-0.0008
3052.00,-0.0008
3051.00,-0.0007
3050.00,-0.0007
3049.00,-0.0006
3048.00,-0.0006
3047.00,-0.0006
3046.00,-0.0006
3045.00,-0.0007
3044.00,-0.0007
3043.00,-0.0008
3042.00,-0.0008
3041.00,-0.0009
3040.00,-0.0009
3039.00,-0.0009
3038.00,-0.0008
3037.00,-0.0008
3036.00,-0.0008
3035.00,-0.0007
3034.00,-0.0007
3033.00,-0.0007
3032.00,-0.0007
3031.00,-0.0008
3030.00,-0.0008
3029.00,-0.0009
3028.00,-0.0009
3027.00,-0.0009
3026.00,-0.0008
3025.00,-0.0008
3024.00,-0.0008
3023.00,-0.0009
3022.00,-0.0009
3021.00,-0.0009
3020.00,-0.0009
3019.00,-0.0009
3018.00,-0.0010
3017.00,-0.0010
3016.00,-0.0010
3015.00,-0.0010
3014.00,-0.0011
3013.00,-0.0012
3012.00,-0.0012
3011.00,-0.0013
3010.00,-0.0014
3009.00,-0.0015
3008.00,-0.0017
3007.00,-0.0018
3006.00,-0.0019
3005.00,-0.0020
3004.00,-0.0020
3003.00,-0.0022
3002.00,-0.0023
3001.00,-0.0024
3000.00,-0.0025
2999.00,-0.0026
2998.00,-0.0027
2997.00,-0.0028
2996.00,-0.0029
2995.00,-0.0029
2994.00,-0.0030
2993.00,-0.0031
2992.00,-0.0031
2991.00,-0.0032
2990.00,-0.0033
2989.00,-0.0033
2988.00,-0.0034
2987.00,-0.0036
2986.00,-0.0039
2985.00,-0.0042
2984.00,-0.0046
2983.00,-0.0049
2982.00,-0.0051
2981.00,-0.0051
2980.00,-0.0049
2979.00,-0.0047
2978.00,-0.0045
2977.00,-0.0043
2976.00,-0.0041
2975.00,-0.0041
2974.00,-0.0041
2973.00,-0.0042
2972.00,-0.0043
2971.00,-0.0043
2970.00,-0.0041
2969.00,-0.0040
2968.00,-0.0038
2967.00,-0.0037
2966.00,-0.0037
2965.00,-0.0036
2964.00,-0.0035
2963.00,-0.0034
2962.00,-0.0033
2961.00,-0.0032
2960.00,-0.0032
2959.00,-0.0032
2958.00,-0.0032
2957.00,-0.0031
2956.00,-0.0030
2955.00,-0.0029
2954.00,-0.0028
2953.00,-0.0028
2952.00,-0.0027
2951.00,-0.0026
2950.00,-0.0026
2949.00,-0.0025
2948.00,-0.0025
2947.00,-0.0025
2946.00,-0.0024
2945.00,-0.0024
2944.00,-0.0023
2943.00,-0.0022
2942.00,-0.0021
2941.00,-0.0021
2940.00,-0.0021
2939.00,-0.0022
2938.00,-0.0022
2937.00,-0.0022
2936.00,-0.0023
2935.00,-0.0023
2934.00,-0.0024
2933.00,-0.0024
2932.00,-0.0025
2931.00,-0.0025
2930.00,-0.0025
2929.00,-0.0025
2928.00,-0.0025
2927.00,-0.0026
2926.00,-0.0027
2925.00,-0.0027
2924.00,-0.0028
2923.00,-0.0028
2922.00,-0.0028
2921.00,-0.0029
2920.00,-0.0029
2919.00,-0.0030
2918.00,-0.0031
2917.00,-0.0031
2916.00,-0.0030
2915.00,-0.0029
2914.00,-0.0027
2913.00,-0.0026
2912.00,-0.0025
2911.00,-0.0025
2910.00,-0.0024
2909.00,-0.0024
2908.00,-0.0024
2907.00,-0.0024
2906.00,-0.0024
2905.00,-0.0024
2904.00,-0.0024
2903.00,-0.0024
2902.00,-0.0024
2901.00,-0.0023
2900.00,-0.0023
2899.00,-0.0023
2898.00,-0.0023
2897.00,-0.0023
2896.00,-0.0023
2895.00,-0.0023
2894.00,-0.0023
2893.00,-0.0023
2892.00,-0.0023
2891.00,-0.0023
2890.00,-0.0023
2889.00,-0.0023
2888.00,-0.0023
2887.00,-0.0022
2886.00,-0.0022
2885.00,-0.0022
2884.00,-0.0022
2883.00,-0.0022
2882.00,-0.0022
2881.00,-0.0021
2880.00,-0.0021
2879.00,-0.0020
2878.00,-0.0019
2877.00,-0.0019
2876.00,-0.0019
2875.00,-0.0019
2874.00,-0.0019
2873.00,-0.0019
2872.00,-0.0019
2871.00,-0.0019
2870.00,-0.0019
2869.00,-0.0019
2868.00,-0.0019
2867.00,-0.0019
2866.00,-0.0019
2865.00,-0.0018
2864.00,-0.0018
2863.00,-0.0018
2862.00,-0.0018
2861.00,-0.0017
2860.00,-0.0017
2859.00,-0.0016
2858.00,-0.0016
2857.00,-0.0016
2856.00,-0.0016
2855.00,-0.0017
2854.00,-0.0018
2853.00,-0.0018
2852.00,-0.0018
2851.00,-0.0017
2850.00,-0.0016
2849.00,-0.0015
2848.00,-0.0015
2847.00,-0.0015
2846.00,-0.0015
2845.00,-0.0014
2844.00,-0.0013
2843.00,-0.0013
2842.00,-0.0012
2841.00,-0.0012
2840.00,-0.0013
2839.00,-0.0013
2838.00,-0.0013
2837.00,-0.0012
2836.00,-0.0011
2835.00,-0.0010
2834.00,-0.0009
2833.00,-0.0009
2832.00,-0.0010
2831.00,-0.0011
2830.00,-0.0011
2829.00,-0.0011
2828.00,-0.0011
2827.00,-0.0010
2826.00,-0.0010
2825.00,-0.0010
2824.00,-0.0010
2823.00,-0.0010
2822.00,-0.0010
2821.00,-0.0010
2820.00,-0.0011
2819.00,-0.0011
2818.00,-0.0012
2817.00,-0.0012
2816.00,-0.0012
2815.00,-0.0012
2814.00,-0.0012
2813.00,-0.0011
2812.00,-0.0011
2811.00,-0.0011
2810.00,-0.0011
2809.00,-0.0011
2808.00,-0.0010
2807.00,-0.0010
2806.00,-0.0010
2805.00,-0.0010
2804.00,-0.0010
2803.00,-0.0010
2802.00,-0.0010
2801.00,-0.0010
2800.00,-0.0009
2799.00,-0.0009
2798.00,-0.0009
2797.00,-0.0009
2796.00,-0.0009
2795.00,-0.0009
2794.00,-0.0009
2793.00,-0.0009
2792.00,-0.0009
2791.00,-0.0009
2790.00,-0.0009
2789.00,-0.0009
2788.00,-0.0009
2787.00,-0.0009
2786.00,-0.0010
2785.00,-0.0010
2784.00,-0.0010
2783.00,-0.0010
2782.00,-0.0010
2781.00,-0.0011
2780.00,-0.0011
2779.00,-0.0011
2778.00,-0.0011
2777.00,-0.0010
2776.00,-0.0010
2775.00,-0.0010
2774.00,-0.0009
2773.00,-0.0009
2772.00,-0.0010
2771.00,-0.0010
2770.00,-0.0010
2769.00,-0.0011
2768.00,-0.0011
2767.00,-0.0012
2766.00,-0.0011
2765.00,-0.0011
2764.00,-0.0011
2763.00,-0.0010
2762.00,-0.0010
2761.00,-0.0010
2760.00,-0.0010
2759.00,-0.0010
2758.00,-0.0010
2757.00,-0.0011
2756.00,-0.0011
2755.00,-0.0010
2754.00,-0.0010
2753.00,-0.0010
2752.00,-0.0010
2751.00,-0.0009
2750.00,-0.0009
2749.00,-0.0009
2748.00,-0.0009
2747.00,-0.0009
2746.00,-0.0009
2745.00,-0.0009
2744.00,-0.0009
2743.00,-0.0009
2742.00,-0.0009
2741.00,-0.0009
2740.00,-0.0009
2739.00,-0.0010
2738.00,-0.0010
2737.00,-0.0010
2736.00,-0.0010
2735.00,-0.0010
2734.00,-0.0010
2733.00,-0.0009
2732.00,-0.0009
2731.00,-0.0009
2730.00,-0.0009
2729.00,-0.0010
2728.00,-0.0010
2727.00,-0.0010
2726.00,-0.0010
2725.00,-0.0010
2724.00,-0.0010
2723.00,-0.0010
2722.00,-0.0010
2721.00,-0.0010
2720.00,-0.0010
2719.00,-0.0010
2718.00,-0.0010
2717.00,-0.0009
2716.00,-0.0009
2715.00,-0.0009
2714.00,-0.0009
2713.00,-0.0009
2712.00,-0.0009
2711.00,-0.0009
2710.00,-0.0010
2709.00,-0.0010
2708.00,-0.0010
2707.00,-0.0010
2706.00,-0.0010
2705.00,-0.0010
2704.00,-0.0010
2703.00,-0.0010
2702.00,-0.0011
2701.00,-0.0011
2700.00,-0.0011
2699.00,-0.0010
2698.00,-0.0010
2697.00,-0.0010
2696.00,-0.0011
2695.00,-0.0010
2694.00,-0.0010
2693.00,-0.0009
2692.00,-0.0009
2691.00,-0.0009
2690.00,-0.0009
2689.00,-0.0010
2688.00,-0.0010
2687.00,-0.0010
2686.00,-0.0009
2685.00,-0.0009
2684.00,-0.0009
2683.00,-0.0010
2682.00,-0.0010
2681.00,-0.0010
2680.00,-0.0010
2679.00,-0.0010
2678.00,-0.0011
2677.00,-0.0011
2676.00,-0.0011
2675.00,-0.0011
2674.00,-0.0011
2673.00,-0.0010
2672.00,-0.0010
2671.00,-0.0011
2670.00,-0.0011
2669.00,-0.0011
2668.00,-0.0011
2667.00,-0.0010
2666.00,-0.0010
2665.00,-0.0010
2664.00,-0.0009
2663.00,-0.0009
2662.00,-0.0009
2661.00,-0.0009
2660.00,-0.0009
2659.00,-0.0009
2658.00,-0.0009
2657.00,-0.0009
2656.00,-0.0009
2655.00,-0.0009
2654.00,-0.0008
2653.00,-0.0008
2652.00,-0.0008
2651.00,-0.0008
2650.00,-0.0007
2649.00,-0.0008
2648.00,-0.0008
2647.00,-0.0009
2646.00,-0.0009
2645.00,-0.0009
2644.00,-0.0008
2643.00,-0.0008
2642.00,-0.0008
2641.00,-0.0008
2640.00,-0.0008
2639.00,-0.0008
2638.00,-0.0009
2637.00,-0.0009
2636.00,-0.0009
2635.00,-0.0009
2634.00,-0.0008
2633.00,-0.0008
2632.00,-0.0008
2631.00,-0.0008
2630.00,-0.0009
2629.00,-0.0009
2628.00,-0.0010
2627.00,-0.0010
2626.00,-0.0009
2625.00,-0.0009
2624.00,-0.0007
2623.00,-0.0007
2622.00,-0.0006
2621.00,-0.0007
2620.00,-0.0007
2619.00,-0.0007
2618.00,-0.0007
2617.00,-0.0008
2616.00,-0.0008
2615.00,-0.0008
2614.00,-0.0009
2613.00,-0.0009
2612.00,-0.0008
2611.00,-0.0008
2610.00,-0.0008
2609.00,-0.0008
2608.00,-0.0009
2607.00,-0.0009
2606.00,-0.0008
2605.00,-0.0007
2604.00,-0.0007
2603.00,-0.0007
2602.00,-0.0007
2601.00,-0.0007
2600.00,-0.0008
2599.00,-0.0008
2598.00,-0.0009
2597.00,-0.0010
2596.00,-0.0010
2595.00,-0.0010
2594.00,-0.0010
2593.00,-0.0009
2592.00,-0.0009
2591.00,-0.0008
2590.00,-0.0008
2589.00,-0.0008
2588.00,-0.0008
2587.00,-0.0009
2586.00,-0.0009
2585.00,-0.0010
2584.00,-0.0011
2583.00,-0.0011
2582.00,-0.0010
2581.00,-0.0010
2580.00,-0.0009
2579.00,-0.0008
2578.00,-0.0008
2577.00,-0.0009
2576.00,-0.0010
2575.00,-0.0011
2574.00,-0.0011
2573.00,-0.0010
2572.00,-0.0009
2571.00,-0.0010
2570.00,-0.0010
2569.00,-0.0011
2568.00,-0.0010
2567.00,-0.0009
2566.00,-0.0008
2565.00,-0.0008
2564.00,-0.0008
2563.00,-0.0008
2562.00,-0.0008
2561.00,-0.0008
2560.00,-0.0008
2559.00,-0.0008
2558.00,-0.0008
2557.00,-0.0008
2556.00,-0.0007
2555.00,-0.0006
2554.00,-0.0006
2553.00,-0.0007
2552.00,-0.0008
2551.00,-0.0009
2550.00,-0.0010
2549.00,-0.0011
2548.00,-0.0012
2547.00,-0.0012
2546.00,-0.0012
2545.00,-0.0011
2544.00,-0.0010
2543.00,-0.0010
2542.00,-0.0010
2541.00,-0.0011
2540.00,-0.0012
2539.00,-0.0013
2538.00,-0.0013
2537.00,-0.0013
2536.00,-0.0013
2535.00,-0.0012
2534.00,-0.0012
2533.00,-0.0011
2532.00,-0.0011
2531.00,-0.0011
2530.00,-0.0012
2529.00,-0.0012
2528.00,-0.0012
2527.00,-0.0012
2526.00,-0.0013
2525.00,-0.0013
2524.00,-0.0014
2523.00,-0.0014
2522.00,-0.0014
2521.00,-0.0013
2520.00,-0.0012
2519.00,-0.0011
2518.00,-0.0010
2517.00,-0.0009
2516.00,-0.0009
2515.00,-0.0009
2514.00,-0.0010
2513.00,-0.0011
2512.00,-0.0012
2511.00,-0.0011
2510.00,-0.0010
2509.00,-0.0010
2508.00,-0.0009
2507.00,-0.0009
2506.00,-0.0010
2505.00,-0.0010
2504.00,-0.0011
2503.00,-0.0011
2502.00,-0.0011
2501.00,-0.0010
2500.00,-0.0009
2499.00,-0.0009
2498.00,-0.0009
2497.00,-0.0009
2496.00,-0.0009
2495.00,-0.0009
2494.00,-0.0008
2493.00,-0.0008
2492.00,-0.0008
2491.00,-0.0008
2490.00,-0.0008
2489.00,-0.0008
2488.00,-0.0007
2487.00,-0.0007
2486.00,-0.0008
2485.00,-0.0009
2484.00,-0.0010
2483.00,-0.0011
2482.00,-0.0010
2481.00,-0.0010
2480.00,-0.0009
2479.00,-0.0009
2478.00,-0.0009
2477.00,-0.0010
2476.00,-0.0010
2475.00,-0.0010
2474.00,-0.0010
2473.00,-0.0010
2472.00,-0.0010
2471.00,-0.0009
2470.00,-0.0009
2469.00,-0.0010
2468.00,-0.0010
2467.00,-0.0010
2466.00,-0.0010
2465.00,-0.0011
2464.00,-0.0011
2463.00,-0.0011
2462.00,-0.0011
2461.00,-0.0011
2460.00,-0.0010
2459.00,-0.0010
2458.00,-0.0009
2457.00,-0.0009
2456.00,-0.0009
2455.00,-0.0009
2454.00,-0.0009
2453.00,-0.0008
2452.00,-0.0007
2451.00,-0.0007
2450.00,-0.0008
2449.00,-0.0008
2448.00,-0.0009
2447.00,-0.0009
2446.00,-0.0009
2445.00,-0.0010
2444.00,-0.0010
2443.00,-0.0011
2442.00,-0.0011
2441.00,-0.0010
2440.00,-0.0010
2439.00,-0.0009
2438.00,-0.0009
2437.00,-0.0009
2436.00,-0.0010
2435.00,-0.0010
2434.00,-0.0011
2433.00,-0.0011
2432.00,-0.0010
2431.00,-0.0010
2430.00,-0.0009
2429.00,-0.0009
2428.00,-0.0009
2427.00,-0.0009
2426.00,-0.0009
2425.00,-0.0010
2424.00,-0.0010
2423.00,-0.0010
2422.00,-0.0010
2421.00,-0.0010
2420.00,-0.0011
2419.00,-0.0011
2418.00,-0.0011
2417.00,-0.0011
2416.00,-0.0011
2415.00,-0.0011
2414.00,-0.0011
2413.00,-0.0011
2412.00,-0.0010
2411.00,-0.0010
2410.00,-0.0009
2409.00,-0.0009
2408.00,-0.0009
2407.00,-0.0010
2406.00,-0.0010
2405.00,-0.0011
2404.00,-0.0011
2403.00,-0.0011
2402.00,-0.0012
2401.00,-0.0012
2400.00,-0.0012
2399.00,-0.0012
2398.00,-0.0012
2397.00,-0.0012
2396.00,-0.0012
2395.00,-0.0012
2394.00,-0.0012
2393.00,-0.0012
2392.00,-0.0012
2391.00,-0.0012
2390.00,-0.0012
2389.00,-0.0012
2388.00,-0.0012
2387.00,-0.0011
2386.00,-0.0011
2385.00,-0.0011
2384.00,-0.0012
2383.00,-0.0012
2382.00,-0.0012
2381.00,-0.0012
2380.00,-0.0011
2379.00,-0.0010
2378.00,-0.0010
2377.00,-0.0011
2376.00,-0.0012
2375.00,-0.0013
2374.00,-0.0013
2373.00,-0.0012
2372.00,-0.0012
2371.00,-0.0012
2370.00,-0.0014
2369.00,-0.0017
2368.00,-0.0019
2367.00,-0.0018
2366.00,-0.0015
2365.00,-0.0012
2364.00,-0.0010
2363.00,-0.0011
2362.00,-0.0013
2361.00,-0.0013
2360.00,-0.0013
2359.00,-0.0013
2358.00,-0.0012
2357.00,-0.0012
2356.00,-0.0012
2355.00,-0.0013
2354.00,-0.0013
2353.00,-0.0013
2352.00,-0.0013
2351.00,-0.0013
2350.00,-0.0013
2349.00,-0.0013
2348.00,-0.0013
2347.00,-0.0013
2346.00,-0.0013
2345.00,-0.0013
2344.00,-0.0012
2343.00,-0.0010
2342.00,-0.0009
2341.00,-0.0009
2340.00,-0.0010
2339.00,-0.0012
2338.00,-0.0014
2337.00,-0.0015
2336.00,-0.0015
2335.00,-0.0014
2334.00,-0.0013
2333.00,-0.0012
2332.00,-0.0012
2331.00,-0.0012
2330.00,-0.0013
2329.00,-0.0013
2328.00,-0.0013
2327.00,-0.0012
2326.00,-0.0012
2325.00,-0.0012
2324.00,-0.0012
2323.00,-0.0013
2322.00,-0.0012
2321.00,-0.0012
2320.00,-0.0012
2319.00,-0.0013
2318.00,-0.0014
2317.00,-0.0014
2316.00,-0.0014
2315.00,-0.0013
2314.00,-0.0013
2313.00,-0.0013
2312.00,-0.0013
2311.00,-0.0012
2310.00,-0.0011
2309.00,-0.0010
2308.00,-0.0009
2307.00,-0.0010
2306.00,-0.0010
2305.00,-0.0011
2304.00,-0.0012
2303.00,-0.0013
2302.00,-0.0013
2301.00,-0.0013
2300.00,-0.0012
2299.00,-0.0011
2298.00,-0.0010
2297.00,-0.0010
2296.00,-0.0010
2295.00,-0.0011
2294.00,-0.0011
2293.00,-0.0010
2292.00,-0.0008
2291.00,-0.0007
2290.00,-0.0007
2289.00,-0.0007
2288.00,-0.0007
2287.00,-0.0007
2286.00,-0.0006
2285.00,-0.0005
2284.00,-0.0003
2283.00,-0.0003
2282.00,-0.0003
2281.00,-0.0004
2280.00,-0.0005
2279.00,-0.0005
2278.00,-0.0005
2277.00,-0.0005
2276.00,-0.0005
2275.00,-0.0006
2274.00,-0.0007
2273.00,-0.0009
2272.00,-0.0009
2271.00,-0.0009
2270.00,-0.0009
2269.00,-0.0009
2268.00,-0.0009
2267.00,-0.0009
2266.00,-0.0008
2265.00,-0.0007
2264.00,-0.0006
2263.00,-0.0006
2262.00,-0.0005
2261.00,-0.0005
2260.00,-0.0005
2259.00,-0.0006
2258.00,-0.0008
2257.00,-0.0011
2256.00,-0.0013
2255.00,-0.0013
2254.00,-0.0013
2253.00,-0.0012
2252.00,-0.0011
2251.00,-0.0011
2250.00,-0.0011
2249.00,-0.0011
2248.00,-0.0011
2247.00,-0.0010
2246.00,-0.0008
2245.00,-0.0007
2244.00,-0.0007
2243.00,-0.0007
2242.00,-0.0008
2241.00,-0.0009
2240.00,-0.0009
2239.00,-0.0009
2238.00,-0.0009
2237.00,-0.0010
2236.00,-0.0010
2235.00,-0.0009
2234.00,-0.0008
2233.00,-0.0007
2232.00,-0.0008
2231.00,-0.0010
2230.00,-0.0012
2229.00,-0.0013
2228.00,-0.0013
2227.00,-0.0011
2226.00,-0.0010
2225.00,-0.0009
2224.00,-0.0009
2223.00,-0.0011
2222.00,-0.0012
2221.00,-0.0013
2220.00,-0.0014
2219.00,-0.0013
2218.00,-0.0013
2217.00,-0.0012
2216.00,-0.0011
2215.00,-0.0009
2214.00,-0.0008
2213.00,-0.0007
2212.00,-0.0008
2211.00,-0.0010
2210.00,-0.0011
2209.00,-0.0011
2208.00,-0.0010
2207.00,-0.0009
2206.00,-0.0009
2205.00,-0.0009
2204.00,-0.0010
2203.00,-0.0010
2202.00,-0.0011
2201.00,-0.0011
2200.00,-0.0011
2199.00,-0.0011
2198.00,-0.0011
2197.00,-0.0010
2196.00,-0.0010
2195.00,-0.0011
2194.00,-0.0011
2193.00,-0.0012
2192.00,-0.0013
2191.00,-0.0015
2190.00,-0.0018
2189.00,-0.0020
2188.00,-0.0019
2187.00,-0.0015
2186.00,-0.0010
2185.00,-0.0006
2184.00,-0.0006
2183.00,-0.0008
2182.00,-0.0010
2181.00,-0.0011
2180.00,-0.0011
2179.00,-0.0010
2178.00,-0.0009
2177.00,-0.0007
2176.00,-0.0007
2175.00,-0.0007
2174.00,-0.0008
2173.00,-0.0008
2172.00,-0.0009
2171.00,-0.0008
2170.00,-0.0007
2169.00,-0.0005
2168.00,-0.0003
2167.00,-0.0001
2166.00,0.0000
2165.00,0.0002
2164.00,0.0004
2163.00,0.0006
2162.00,0.0005
2161.00,0.0001
2160.00,-0.0007
2159.00,-0.0016
2158.00,-0.0022
2157.00,-0.0024
2156.00,-0.0023
2155.00,-0.0020
2154.00,-0.0017
2153.00,-0.0014
2152.00,-0.0013
2151.00,-0.0015
2150.00,-0.0017
2149.00,-0.0019
2148.00,-0.0020
2147.00,-0.0018
2146.00,-0.0015
2145.00,-0.0013
2144.00,-0.0011
2143.00,-0.0010
2142.00,-0.0009
2141.00,-0.0009
2140.00,-0.0009
2139.00,-0.0011
2138.00,-0.0013
2137.00,-0.0015
2136.00,-0.0016
2135.00,-0.0017
2134.00,-0.0016
2133.00,-0.0014
2132.00,-0.0012
2131.00,-0.0012
2130.00,-0.0012
2129.00,-0.0011
2128.00,-0.0010
2127.00,-0.0010
2126.00,-0.0010
2125.00,-0.0010
2124.00,-0.0010
2123.00,-0.0009
2122.00,-0.0009
2121.00,-0.0009
2120.00,-0.0010
2119.00,-0.0011
2118.00,-0.0012
2117.00,-0.0012
2116.00,-0.0012
2115.00,-0.0013
2114.00,-0.0014
2113.00,-0.0014
2112.00,-0.0013
2111.00,-0.0011
2110.00,-0.0009
2109.00,-0.0007
2108.00,-0.0006
2107.00,-0.0006
2106.00,-0.0006
2105.00,-0.0006
2104.00,-0.0006
2103.00,-0.0006
2102.00,-0.0006
2101.00,-0.0007
2100.00,-0.0009
2099.00,-0.0012
2098.00,-0.0013
2097.00,-0.0014
2096.00,-0.0013
2095.00,-0.0011
2094.00,-0.0010
2093.00,-0.0010
2092.00,-0.0010
2091.00,-0.0010
2090.00,-0.0011
2089.00,-0.0011
2088.00,-0.0010
2087.00,-0.0010
2086.00,-0.0009
2085.00,-0.0007
2084.00,-0.0006
2083.00,-0.0006
2082.00,-0.0006
2081.00,-0.0007
2080.00,-0.0007
2079.00,-0.0006
2078.00,-0.0006
2077.00,-0.0006
2076.00,-0.0006
2075.00,-0.0006
2074.00,-0.0005
2073.00,-0.0005
2072.00,-0.0005
2071.00,-0.0005
2070.00,-0.0005
2069.00,-0.0007
2068.00,-0.0010
2067.00,-0.0011
2066.00,-0.0011
2065.00,-0.0009
2064.00,-0.0007
2063.00,-0.0006
2062.00,-0.0005
2061.00,-0.0006
2060.00,-0.0008
2059.00,-0.0009
2058.00,-0.0010
2057.00,-0.0009
2056.00,-0.0008
2055.00,-0.0008
2054.00,-0.0007
2053.00,-0.0005
2052.00,-0.0003
2051.00,-0.0003
2050.00,-0.0005
2049.00,-0.0007
2048.00,-0.0009
2047.00,-0.0008
2046.00,-0.0006
2045.00,-0.0003
2044.00,-0.0000
2043.00,0.0001
2042.00,0.0001
2041.00,-0.0002
2040.00,-0.0006
2039.00,-0.0009
2038.00,-0.0009
2037.00,-0.0006
2036.00,-0.0004
2035.00,-0.0003
2034.00,-0.0004
2033.00,-0.0003
2032.00,0.0000
2031.00,0.0004
2030.00,0.0004
2029.00,0.0002
2028.00,-0.0003
2027.00,-0.0006
2026.00,-0.0009
2025.00,-0.0010
2024.00,-0.0011
2023.00,-0.0012
2022.00,-0.0012
2021.00,-0.0012
2020.00,-0.0012
2019.00,-0.0013
2018.00,-0.0015
2017.00,-0.0016
2016.00,-0.0015
2015.00,-0.0012
2014.00,-0.0008
2013.00,-0.0006
2012.00,-0.0005
2011.00,-0.0005
2010.00,-0.0006
2009.00,-0.0007
2008.00,-0.0008
2007.00,-0.0009
2006.00,-0.0011
2005.00,-0.0013
2004.00,-0.0014
2003.00,-0.0012
2002.00,-0.0008
2001.00,-0.0005
2000.00,-0.0004
1999.00,-0.0005
1998.00,-0.0006
1997.00,-0.0007
1996.00,-0.0006
1995.00,-0.0004
1994.00,-0.0002
1993.00,-0.0001
1992.00,-0.0000
1991.00,-0.0002
1990.00,-0.0005
1989.00,-0.0007
1988.00,-0.0010
1987.00,-0.0010
1986.00,-0.0009
1985.00,-0.0007
1984.00,-0.0004
1983.00,-0.0003
1982.00,-0.0002
1981.00,-0.0003
1980.00,-0.0005
1979.00,-0.0008
1978.00,-0.0012
1977.00,-0.0015
1976.00,-0.0014
1975.00,-0.0012
1974.00,-0.0008
1973.00,-0.0007
1972.00,-0.0008
1971.00,-0.0010
1970.00,-0.0010
1969.00,-0.0008
1968.00,-0.0006
1967.00,-0.0006
1966.00,-0.0008
1965.00,-0.0010
1964.00,-0.0009
1963.00,-0.0008
1962.00,-0.0007
1961.00,-0.0007
1960.00,-0.0006
1959.00,-0.0006
1958.00,-0.0006
1957.00,-0.0008
1956.00,-0.0011
1955.00,-0.0012
1954.00,-0.0011
1953.00,-0.0009
1952.00,-0.0008
1951.00,-0.0007
1950.00,-0.0007
1949.00,-0.0007
1948.00,-0.0006
1947.00,-0.0005
1946.00,-0.0005
1945.00,-0.0006
1944.00,-0.0008
1943.00,-0.0010
1942.00,-0.0012
1941.00,-0.0012
1940.00,-0.0013
1939.00,-0.0014
1938.00,-0.0015
1937.00,-0.0014
1936.00,-0.0014
1935.00,-0.0014
1934.00,-0.0015
1933.00,-0.0015
1932.00,-0.0014
1931.00,-0.0013
1930.00,-0.0011
1929.00,-0.0009
1928.00,-0.0007
1927.00,-0.0006
1926.00,-0.0006
1925.00,-0.0006
1924.00,-0.0007
1923.00,-0.0007
1922.00,-0.0007
1921.00,-0.0007
1920.00,-0.0008
1919.00,-0.0010
1918.00,-0.0011
1917.00,-0.0011
1916.00,-0.0011
1915.00,-0.0010
1914.00,-0.0009
1913.00,-0.0008
1912.00,-0.0008
1911.00,-0.0008
1910.00,-0.0009
1909.00,-0.0010
1908.00,-0.0010
1907.00,-0.0011
1906.00,-0.0010
1905.00,-0.0009
1904.00,-0.0008
1903.00,-0.0007
1902.00,-0.0007
1901.00,-0.0008
1900.00,-0.0008
1899.00,-0.0008
1898.00,-0.0007
1897.00,-0.0007
1896.00,-0.0008
1895.00,-0.0010
1894.00,-0.0010
1893.00,-0.0009
1892.00,-0.0008
1891.00,-0.0007
1890.00,-0.0007
1889.00,-0.0007
1888.00,-0.0008
1887.00,-0.0009
1886.00,-0.0009
1885.00,-0.0008
1884.00,-0.0007
1883.00,-0.0007
1882.00,-0.0008
1881.00,-0.0008
1880.00,-0.0009
1879.00,-0.0009
1878.00,-0.0010
1877.00,-0.0010
1876.00,-0.0010
1875.00,-0.0009
1874.00,-0.0008
1873.00,-0.0007
1872.00,-0.0007
1871.00,-0.0006
1870.00,-0.0006
1869.00,-0.0006
1868.00,-0.0006
1867.00,-0.0006
1866.00,-0.0006
1865.00,-0.0007
1864.00,-0.0007
1863.00,-0.0008
1862.00,-0.0009
1861.00,-0.0010
1860.00,-0.0010
1859.00,-0.0009
1858.00,-0.0009
1857.00,-0.0008
1856.00,-0.0007
1855.00,-0.0007
1854.00,-0.0007
1853.00,-0.0008
1852.00,-0.0008
1851.00,-0.0008
1850.00,-0.0007
1849.00,-0.0006
1848.00,-0.0006
1847.00,-0.0006
1846.00,-0.0007
1845.00,-0.0007
1844.00,-0.0007
1843.00,-0.0007
1842.00,-0.0007
1841.00,-0.0007
1840.00,-0.0007
1839.00,-0.0007
1838.00,-0.0007
1837.00,-0.0006
1836.00,-0.0006
1835.00,-0.0006
1834.00,-0.0006
1833.00,-0.0005
1832.00,-0.0004
1831.00,-0.0003
1830.00,-0.0003
1829.00,-0.0004
1828.00,-0.0004
1827.00,-0.0005
1826.00,-0.0005
1825.00,-0.0006
1824.00,-0.0006
1823.00,-0.0006
1822.00,-0.0006
1821.00,-0.0005
1820.00,-0.0005
1819.00,-0.0006
1818.00,-0.0007
1817.00,-0.0007
1816.00,-0.0007
1815.00,-0.0007
1814.00,-0.0007
1813.00,-0.0007
1812.00,-0.0006
1811.00,-0.0006
1810.00,-0.0005
1809.00,-0.0005
1808.00,-0.0005
1807.00,-0.0005
1806.00,-0.0005
1805.00,-0.0004
1804.00,-0.0004
1803.00,-0.0004
1802.00,-0.0004
1801.00,-0.0004
1800.00,-0.0004
1799.00,-0.0004
1798.00,-0.0004
1797.00,-0.0004
1796.00,-0.0004
1795.00,-0.0005
1794.00,-0.0005
1793.00,-0.0005
1792.00,-0.0004
1791.00,-0.0004
1790.00,-0.0004
1789.00,-0.0005
1788.00,-0.0005
1787.00,-0.0005
1786.00,-0.0005
1785.00,-0.0004
1784.00,-0.0004
1783.00,-0.0004
1782.00,-0.0004
1781.00,-0.0005
1780.00,-0.0005
1779.00,-0.0006
1778.00,-0.0005
1777.00,-0.0005
1776.00,-0.0005
1775.00,-0.0006
1774.00,-0.0006
1773.00,-0.0007
1772.00,-0.0007
1771.00,-0.0008
1770.00,-0.0008
1769.00,-0.0007
1768.00,-0.0007
1767.00,-0.0007
1766.00,-0.0007
1765.00,-0.0007
1764.00,-0.0007
1763.00,-0.0008
1762.00,-0.0008
1761.00,-0.0008
1760.00,-0.0008
1759.00,-0.0008
1758.00,-0.0009
1757.00,-0.0009
1756.00,-0.0009
1755.00,-0.0009
1754.00,-0.0009
1753.00,-0.0010
1752.00,-0.0011
1751.00,-0.0012
1750.00,-0.0013
1749.00,-0.0013
1748.00,-0.0012
1747.00,-0.0012
1746.00,-0.0012
1745.00,-0.0012
1744.00,-0.0012
1743.00,-0.0013
1742.00,-0.0013
1741.00,-0.0014
1740.00,-0.0014
1739.00,-0.0014
1738.00,-0.0015
1737.00,-0.0015
1736.00,-0.0015
1735.00,-0.0015
1734.00,-0.0015
1733.00,-0.0015
1732.00,-0.0015
1731.00,-0.0016
1730.00,-0.0017
1729.00,-0.0017
1728.00,-0.0017
1727.00,-0.0017
1726.00,-0.0017
1725.00,-0.0017
1724.00,-0.0017
1723.00,-0.0017
1722.00,-0.0017
1721.00,-0.0017
1720.00,-0.0017
1719.00,-0.0017
1718.00,-0.0018
1717.00,-0.0019
1716.00,-0.0019
1715.00,-0.0019
1714.00,-0.0019
1713.00,-0.0018
1712.00,-0.0018
1711.00,-0.0018
1710.00,-0.0018
1709.00,-0.0018
1708.00,-0.0018
1707.00,-0.0018
1706.00,-0.0018
1705.00,-0.0018
1704.00,-0.0018
1703.00,-0.0018
1702.00,-0.0018
1701.00,-0.0019
1700.00,-0.0019
1699.00,-0.0019
1698.00,-0.0019
1697.00,-0.0019
1696.00,-0.0018
1695.00,-0.0018
1694.00,-0.0019
1693.00,-0.0019
1692.00,-0.0019
1691.00,-0.0019
1690.00,-0.0018
1689.00,-0.0018
1688.00,-0.0017
1687.00,-0.0017
1686.00,-0.0017
1685.00,-0.0018
1684.00,-0.0019
1683.00,-0.0019
1682.00,-0.0020
1681.00,-0.0022
1680.00,-0.0022
1679.00,-0.0022
1678.00,-0.0022
1677.00,-0.0022
1676.00,-0.0021
1675.00,-0.0021
1674.00,-0.0021
1673.00,-0.0022
1672.00,-0.0023
1671.00,-0.0024
1670.00,-0.0024
1669.00,-0.0024
1668.00,-0.0024
1667.00,-0.0024
1666.00,-0.0025
1665.00,-0.0025
1664.00,-0.0026
1663.00,-0.0027
1662.00,-0.0028
1661.00,-0.0028
1660.00,-0.0027
1659.00,-0.0026
1658.00,-0.0025
1657.00,-0.0025
1656.00,-0.0025
1655.00,-0.0027
1654.00,-0.0030
1653.00,-0.0031
1652.00,-0.0029
1651.00,-0.0029
1650.00,-0.0029
1649.00,-0.0029
1648.00,-0.0030
1647.00,-0.0031
1646.00,-0.0031
1645.00,-0.0030
1644.00,-0.0030
1643.00,-0.0031
1642.00,-0.0031
1641.00,-0.0032
1640.00,-0.0033
1639.00,-0.0033
1638.00,-0.0033
1637.00,-0.0033
1636.00,-0.0032
1635.00,-0.0032
1634.00,-0.0033
1633.00,-0.0035
1632.00,-0.0037
1631.00,-0.0038
1630.00,-0.0039
1629.00,-0.0039
1628.00,-0.0039
1627.00,-0.0039
1626.00,-0.0039
1625.00,-0.0039
1624.00,-0.0039
1623.00,-0.0040
1622.00,-0.0040
1621.00,-0.0041
1620.00,-0.0041
1619.00,-0.0041
1618.00,-0.0042
1617.00,-0.0044
1616.00,-0.0045
1615.00,-0.0045
1614.00,-0.0045
1613.00,-0.0046
1612.00,-0.0046
1611.00,-0.0046
1610.00,-0.0046
1609.00,-0.0047
1608.00,-0.0048
1607.00,-0.0048
1606.00,-0.0048
1605.00,-0.0048
1604.00,-0.0048
1603.00,-0.0049
1602.00,-0.0050
1601.00,-0.0052
1600.00,-0.0053
1599.00,-0.0053
1598.00,-0.0053
1597.00,-0.0052
1596.00,-0.0052
1595.00,-0.0052
1594.00,-0.0052
1593.00,-0.0052
1592.00,-0.0053
1591.00,-0.0054
1590.00,-0.0055
1589.00,-0.0055
1588.00,-0.0055
1587.00,-0.0054
1586.00,-0.0054
1585.00,-0.0055
1584.00,-0.0055
1583.00,-0.0056
1582.00,-0.0056
1581.00,-0.0056
1580.00,-0.0055
1579.00,-0.0054
1578.00,-0.0053
1577.00,-0.0052
1576.00,-0.0054
1575.00,-0.0055
1574.00,-0.0057
1573.00,-0.0057
1572.00,-0.0057
1571.00,-0.0056
1570.00,-0.0057
1569.00,-0.0057
1568.00,-0.0057
1567.00,-0.0056
1566.00,-0.0056
1565.00,-0.0056
1564.00,-0.0057
1563.00,-0.0057
1562.00,-0.0055
1561.00,-0.0054
1560.00,-0.0053
1559.00,-0.0054
1558.00,-0.0055
1557.00,-0.0057
1556.00,-0.0058
1555.00,-0.0058
1554.00,-0.0057
1553.00,-0.0056
1552.00,-0.0055
1551.00,-0.0054
1550.00,-0.0055
1549.00,-0.0056
1548.00,-0.0056
1547.00,-0.0056
1546.00,-0.0055
1545.00,-0.0055
1544.00,-0.0056
1543.00,-0.0057
1542.00,-0.0058
1541.00,-0.0058
1540.00,-0.0057
1539.00,-0.0056
1538.00,-0.0056
1537.00,-0.0056
1536.00,-0.0056
1535.00,-0.0055
1534.00,-0.0054
1533.00,-0.0053
1532.00,-0.0052
1531.00,-0.0052
1530.00,-0.0051
1529.00,-0.0050
1528.00,-0.0050
1527.00,-0.0050
1526.00,-0.0051
1525.00,-0.0051
1524.00,-0.0051
1523.00,-0.0050
1522.00,-0.0049
1521.00,-0.0048
1520.00,-0.0046
1519.00,-0.0045
1518.00,-0.0045
1517.00,-0.0045
1516.00,-0.0045
1515.00,-0.0046
1514.00,-0.0046
1513.00,-0.0046
1512.00,-0.0046
1511.00,-0.0045
1510.00,-0.0043
1509.00,-0.0042
1508.00,-0.0040
1507.00,-0.0040
1506.00,-0.0040
1505.00,-0.0041
1504.00,-0.0042
1503.00,-0.0043
1502.00,-0.0043
1501.00,-0.0043
1500.00,-0.0043
1499.00,-0.0042
1498.00,-0.0042
1497.00,-0.0041
1496.00,-0.0041
1495.00,-0.0041
1494.00,-0.0042
1493.00,-0.0042
1492.00,-0.0043
1491.00,-0.0043
1490.00,-0.0042
1489.00,-0.0041
1488.00,-0.0041
1487.00,-0.0042
1486.00,-0.0042
1485.00,-0.0043
1484.00,-0.0044
1483.00,-0.0044
1482.00,-0.0044
1481.00,-0.0044
1480.00,-0.0044
1479.00,-0.0045
1478.00,-0.0044
1477.00,-0.0044
1476.00,-0.0044
1475.00,-0.0045
1474.00,-0.0047
1473.00,-0.0048
1472.00,-0.0047
1471.00,-0.0047
1470.00,-0.0046
1469.00,-0.0045
1468.00,-0.0045
1467.00,-0.0046
1466.00,-0.0047
1465.00,-0.0048
1464.00,-0.0049
1463.00,-0.0050
1462.00,-0.0050
1461.00,-0.0050
1460.00,-0.0050
1459.00,-0.0051
1458.00,-0.0051
1457.00,-0.0052
1456.00,-0.0051
1455.00,-0.0051
1454.00,-0.0051
1453.00,-0.0051
1452.00,-0.0050
1451.00,-0.0050
1450.00,-0.0049
1449.00,-0.0049
1448.00,-0.0048
1447.00,-0.0047
1446.00,-0.0046
1445.00,-0.0047
1444.00,-0.0047
1443.00,-0.0048
1442.00,-0.0049
1441.00,-0.0049
1440.00,-0.0049
1439.00,-0.0049
1438.00,-0.0048
1437.00,-0.0049
1436.00,-0.0049
1435.00,-0.0049
1434.00,-0.0049
1433.00,-0.0049
1432.00,-0.0050
1431.00,-0.0050
1430.00,-0.0051
1429.00,-0.0051
1428.00,-0.0052
1427.00,-0.0051
1426.00,-0.0051
1425.00,-0.0051
1424.00,-0.0052
1423.00,-0.0052
1422.00,-0.0053
1421.00,-0.0053
1420.00,-0.0053
1419.00,-0.0053
1418.00,-0.0052
1417.00,-0.0052
1416.00,-0.0052
1415.00,-0.0052
1414.00,-0.0053
1413.00,-0.0054
1412.00,-0.0056
1411.00,-0.0056
1410.00,-0.0057
1409.00,-0.0057
1408.00,-0.0056
1407.00,-0.0057
1406.00,-0.0058
1405.00,-0.0059
1404.00,-0.0061
1403.00,-0.0062
1402.00,-0.0063
1401.00,-0.0065
1400.00,-0.0066
1399.00,-0.0067
1398.00,-0.0067
1397.00,-0.0068
1396.00,-0.0068
1395.00,-0.0069
1394.00,-0.0070
1393.00,-0.0071
1392.00,-0.0071
1391.00,-0.0071
1390.00,-0.0071
1389.00,-0.0071
1388.00,-0.0071
1387.00,-0.0072
1386.00,-0.0072
1385.00,-0.0073
1384.00,-0.0074
1383.00,-0.0074
1382.00,-0.0074
1381.00,-0.0073
1380.00,-0.0073
1379.00,-0.0072
1378.00,-0.0072
1377.00,-0.0071
1376.00,-0.0070
1375.00,-0.0070
1374.00,-0.0070
1373.00,-0.0070
1372.00,-0.0069
1371.00,-0.0069
1370.00,-0.0068
1369.00,-0.0067
1368.00,-0.0067
1367.00,-0.0067
1366.00,-0.0067
1365.00,-0.0067
1364.00,-0.0067
1363.00,-0.0066
1362.00,-0.0065
1361.00,-0.0065
1360.00,-0.0065
1359.00,-0.0065
1358.00,-0.0064
1357.00,-0.0064
1356.00,-0.0063
1355.00,-0.0062
1354.00,-0.0061
1353.00,-0.0061
1352.00,-0.0061
1351.00,-0.0062
1350.00,-0.0063
1349.00,-0.0063
1348.00,-0.0063
1347.00,-0.0063
1346.00,-0.0062
1345.00,-0.0062
1344.00,-0.0063
1343.00,-0.0063
1342.00,-0.0062
1341.00,-0.0062
1340.00,-0.0061
1339.00,-0.0060
1338.00,-0.0060
1337.00,-0.0060
1336.00,-0.0060
1335.00,-0.0061
1334.00,-0.0061
1333.00,-0.0060
1332.00,-0.0060
1331.00,-0.0060
1330.00,-0.0060
1329.00,-0.0061
1328.00,-0.0061
1327.00,-0.0061
1326.00,-0.0060
1325.00,-0.0060
1324.00,-0.0059
1323.00,-0.0058
1322.00,-0.0058
1321.00,-0.0057
1320.00,-0.0057
1319.00,-0.0057
1318.00,-0.0058
1317.00,-0.0059
1316.00,-0.0060
1315.00,-0.0060
1314.00,-0.0060
1313.00,-0.0059
1312.00,-0.0058
1311.00,-0.0057
1310.00,-0.0057
1309.00,-0.0057
1308.00,-0.0057
1307.00,-0.0058
1306.00,-0.0058
1305.00,-0.0058
1304.00,-0.0057
1303.00,-0.0056
1302.00,-0.0056
1301.00,-0.0056
1300.00,-0.0057
1299.00,-0.0057
1298.00,-0.0058
1297.00,-0.0059
1296.00,-0.0060
1295.00,-0.0060
1294.00,-0.0060
1293.00,-0.0060
1292.00,-0.0059
1291.00,-0.0059
1290.00,-0.0058
1289.00,-0.0058
1288.00,-0.0058
1287.00,-0.0059
1286.00,-0.0059
1285.00,-0.0060
1284.00,-0.0059
1283.00,-0.0059
1282.00,-0.0059
1281.00,-0.0060
1280.00,-0.0061
1279.00,-0.0062
1278.00,-0.0063
1277.00,-0.0063
1276.00,-0.0063
1275.00,-0.0063
1274.00,-0.0063
1273.00,-0.0063
1272.00,-0.0064
1271.00,-0.0064
1270.00,-0.0065
1269.00,-0.0065
1268.00,-0.0065
1267.00,-0.0065
1266.00,-0.0065
1265.00,-0.0065
1264.00,-0.0066
1263.00,-0.0067
1262.00,-0.0068
1261.00,-0.0068
1260.00,-0.0068
1259.00,-0.0068
1258.00,-0.0068
1257.00,-0.0068
1256.00,-0.0069
1255.00,-0.0070
1254.00,-0.0069
1253.00,-0.0068
1252.00,-0.0068
1251.00,-0.0068
1250.00,-0.0069
1249.00,-0.0070
1248.00,-0.0070
1247.00,-0.0069
1246.00,-0.0068
1245.00,-0.0067
1244.00,-0.0067
1243.00,-0.0067
1242.00,-0.0067
1241.00,-0.0068
1240.00,-0.0068
1239.00,-0.0068
1238.00,-0.0067
1237.00,-0.0066
1236.00,-0.0066
1235.00,-0.0065
1234.00,-0.0065
1233.00,-0.0065
1232.00,-0.0065
1231.00,-0.0065
1230.00,-0.0065
1229.00,-0.0065
1228.00,-0.0064
1227.00,-0.0064
1226.00,-0.0063
1225.00,-0.0063
1224.00,-0.0064
1223.00,-0.0064
1222.00,-0.0063
1221.00,-0.0062
1220.00,-0.0062
1219.00,-0.0062
1218.00,-0.0062
1217.00,-0.0062
1216.00,-0.0061
1215.00,-0.0061
1214.00,-0.0061
1213.00,-0.0061
1212.00,-0.0060
1211.00,-0.0059
1210.00,-0.0059
1209.00,-0.0058
1208.00,-0.0058
1207.00,-0.0058
1206.00,-0.0059
1205.00,-0.0059
1204.00,-0.0059
1203.00,-0.0059
1202.00,-0.0059
1201.00,-0.0059
1200.00,-0.0059
1199.00,-0.0058
1198.00,-0.0058
1197.00,-0.0059
1196.00,-0.0059
1195.00,-0.0059
1194.00,-0.0059
1193.00,-0.0059
1192.00,-0.0059
1191.00,-0.0059
1190.00,-0.0060
1189.00,-0.0061
1188.00,-0.0061
1187.00,-0.0060
1186.00,-0.0060
1185.00,-0.0060
1184.00,-0.0060
1183.00,-0.0061
1182.00,-0.0062
1181.00,-0.0064
1180.00,-0.0065
1179.00,-0.0065
1178.00,-0.0065
1177.00,-0.0064
1176.00,-0.0064
1175.00,-0.0064
1174.00,-0.0064
1173.00,-0.0064
1172.00,-0.0065
1171.00,-0.0066
1170.00,-0.0067
1169.00,-0.0068
1168.00,-0.0068
1167.00,-0.0068
1166.00,-0.0068
1165.00,-0.0068
1164.00,-0.0069
1163.00,-0.0069
1162.00,-0.0069
1161.00,-0.0069
1160.00,-0.0069
1159.00,-0.0069
1158.00,-0.0069
1157.00,-0.0069
1156.00,-0.0069
1155.00,-0.0068
1154.00,-0.0067
1153.00,-0.0067
1152.00,-0.0068
1151.00,-0.0069
1150.00,-0.0070
1149.00,-0.0071
1148.00,-0.0072
1147.00,-0.0072
1146.00,-0.0071
1145.00,-0.0070
1144.00,-0.0068
1143.00,-0.0067
1142.00,-0.0066
1141.00,-0.0066
1140.00,-0.0066
1139.00,-0.0067
1138.00,-0.0067
1137.00,-0.0067
1136.00,-0.0067
1135.00,-0.0066
1134.00,-0.0065
1133.00,-0.0064
1132.00,-0.0064
1131.00,-0.0064
1130.00,-0.0064
1129.00,-0.0063
1128.00,-0.0062
1127.00,-0.0062
1126.00,-0.0064
1125.00,-0.0066
1124.00,-0.0067
1123.00,-0.0066
1122.00,-0.0063
1121.00,-0.0060
1120.00,-0.0058
1119.00,-0.0058
1118.00,-0.0059
1117.00,-0.0059
1116.00,-0.0058
1115.00,-0.0057
1114.00,-0.0057
1113.00,-0.0058
1112.00,-0.0060
1111.00,-0.0061
1110.00,-0.0061
1109.00,-0.0061
1108.00,-0.0061
1107.00,-0.0061
1106.00,-0.0063
1105.00,-0.0064
1104.00,-0.0065
1103.00,-0.0064
1102.00,-0.0063
1101.00,-0.0062
1100.00,-0.0062
1099.00,-0.0062
1098.00,-0.0062
1097.00,-0.0063
1096.00,-0.0064
1095.00,-0.0065
1094.00,-0.0065
1093.00,-0.0065
1092.00,-0.0064
1091.00,-0.0063
1090.00,-0.0065
1089.00,-0.0067
1088.00,-0.0070
1087.00,-0.0070
1086.00,-0.0069
1085.00,-0.0068
1084.00,-0.0067
1083.00,-0.0066
1082.00,-0.0065
1081.00,-0.0065
1080.00,-0.0063
1079.00,-0.0061
1078.00,-0.0059
1077.00,-0.0058
1076.00,-0.0059
1075.00,-0.0062
1074.00,-0.0065
1073.00,-0.0067
1072.00,-0.0068
1071.00,-0.0068
1070.00,-0.0068
1069.00,-0.0069
1068.00,-0.0070
1067.00,-0.0070
1066.00,-0.0068
1065.00,-0.0065
1064.00,-0.0063
1063.00,-0.0061
1062.00,-0.0062
1061.00,-0.0064
1060.00,-0.0067
1059.00,-0.0068
1058.00,-0.0066
1057.00,-0.0065
1056.00,-0.0063
1055.00,-0.0062
1054.00,-0.0061
1053.00,-0.0060
1052.00,-0.0060
1051.00,-0.0060
1050.00,-0.0060
1049.00,-0.0058
1048.00,-0.0056
1047.00,-0.0055
1046.00,-0.0055
1045.00,-0.0055
1044.00,-0.0055
1043.00,-0.0055
1042.00,-0.0056
1041.00,-0.0057
1040.00,-0.0059
1039.00,-0.0059
1038.00,-0.0058
1037.00,-0.0058
1036.00,-0.0057
1035.00,-0.0058
1034.00,-0.0059
1033.00,-0.0059
1032.00,-0.0059
1031.00,-0.0058
1030.00,-0.0059
1029.00,-0.0059
1028.00,-0.0060
1027.00,-0.0059
1026.00,-0.0058
1025.00,-0.0057
1024.00,-0.0057
1023.00,-0.0057
1022.00,-0.0058
1021.00,-0.0058
1020.00,-0.0059
1019.00,-0.0058
1018.00,-0.0058
1017.00,-0.0058
1016.00,-0.0057
1015.00,-0.0056
1014.00,-0.0054
1013.00,-0.0054
1012.00,-0.0053
1011.00,-0.0053
1010.00,-0.0053
1009.00,-0.0054
1008.00,-0.0055
1007.00,-0.0056
1006.00,-0.0056
1005.00,-0.0055
1004.00,-0.0053
1003.00,-0.0051
1002.00,-0.0050
1001.00,-0.0050
1000.00,-0.0052
999.00,-0.0054
998.00,-0.0056
997.00,-0.0056
996.00,-0.0055
995.00,-0.0054
994.00,-0.0054
993.00,-0.0056
992.00,-0.0057
991.00,-0.0057
990.00,-0.0057
989.00,-0.0056
988.00,-0.0056
987.00,-0.0055
986.00,-0.0054
985.00,-0.0054
984.00,-0.0054
983.00,-0.0056
982.00,-0.0056
981.00,-0.0056
980.00,-0.0055
979.00,-0.0056
978.00,-0.0057
977.00,-0.0059
976.00,-0.0060
975.00,-0.0061
974.00,-0.0060
973.00,-0.0059
972.00,-0.0059
971.00,-0.0060
970.00,-0.0062
969.00,-0.0063
968.00,-0.0065
967.00,-0.0065
966.00,-0.0066
965.00,-0.0067
964.00,-0.0067
963.00,-0.0067
962.00,-0.0066
961.00,-0.0065
960.00,-0.0065
959.00,-0.0066
958.00,-0.0066
957.00,-0.0066
956.00,-0.0066
955.00,-0.0066
954.00,-0.0067
953.00,-0.0068
952.00,-0.0067
951.00,-0.0065
950.00,-0.0063
949.00,-0.0063
948.00,-0.0063
947.00,-0.0064
946.00,-0.0066
945.00,-0.0067
944.00,-0.0067
943.00,-0.0068
942.00,-0.0069
941.00,-0.0069
940.00,-0.0067
939.00,-0.0065
938.00,-0.0064
937.00,-0.0063
936.00,-0.0064
935.00,-0.0065
934.00,-0.0066
933.00,-0.0065
932.00,-0.0063
931.00,-0.0060
930.00,-0.0059
929.00,-0.0058
928.00,-0.0056
927.00,-0.0055
926.00,-0.0055
925.00,-0.0055
924.00,-0.0055
923.00,-0.0054
922.00,-0.0054
921.00,-0.0055
920.00,-0.0055
919.00,-0.0056
918.00,-0.0056
917.00,-0.0056
916.00,-0.0055
915.00,-0.0054
914.00,-0.0055
913.00,-0.0056
912.00,-0.0057
911.00,-0.0057
910.00,-0.0058
909.00,-0.0060
908.00,-0.0062
907.00,-0.0063
906.00,-0.0063
905.00,-0.0060
904.00,-0.0056
903.00,-0.0052
902.00,-0.0050
901.00,-0.0050
900.00,-0.0051
899.00,-0.0052
898.00,-0.0052
897.00,-0.0051
896.00,-0.0051
895.00,-0.0051
894.00,-0.0052
893.00,-0.0054
892.00,-0.0056
891.00,-0.0057
890.00,-0.0057
889.00,-0.0056
888.00,-0.0056
887.00,-0.0057
886.00,-0.0059
885.00,-0.0061
884.00,-0.0060
883.00,-0.0057
882.00,-0.0054
881.00,-0.0053
880.00,-0.0053
879.00,-0.0055
878.00,-0.0057
877.00,-0.0060
876.00,-0.0061
875.00,-0.0062
874.00,-0.0062
873.00,-0.0062
872.00,-0.0062
871.00,-0.0061
870.00,-0.0060
869.00,-0.0060
868.00,-0.0061
867.00,-0.0063
866.00,-0.0063
865.00,-0.0062
864.00,-0.0060
863.00,-0.0058
862.00,-0.0057
861.00,-0.0056
860.00,-0.0057
859.00,-0.0058
858.00,-0.0061
857.00,-0.0063
856.00,-0.0064
855.00,-0.0063
854.00,-0.0061
853.00,-0.0060
852.00,-0.0061
851.00,-0.0061
850.00,-0.0061
849.00,-0.0060
848.00,-0.0059
847.00,-0.0058
846.00,-0.0056
845.00,-0.0055
844.00,-0.0056
843.00,-0.0057
842.00,-0.0059
841.00,-0.0061
840.00,-0.0063
839.00,-0.0065
838.00,-0.0066
837.00,-0.0066
836.00,-0.0065
835.00,-0.0065
834.00,-0.0066
833.00,-0.0067
832.00,-0.0069
831.00,-0.0070
830.00,-0.0070
829.00,-0.0071
828.00,-0.0071
827.00,-0.0070
826.00,-0.0069
825.00,-0.0067
824.00,-0.0066
823.00,-0.0065
822.00,-0.0064
821.00,-0.0065
820.00,-0.0065
819.00,-0.0066
818.00,-0.0067
817.00,-0.0069
816.00,-0.0071
815.00,-0.0072
814.00,-0.0071
813.00,-0.0070
812.00,-0.0070
811.00,-0.0071
810.00,-0.0072
809.00,-0.0072
808.00,-0.0072
807.00,-0.0073
806.00,-0.0074
805.00,-0.0076
804.00,-0.0077
803.00,-0.0078
802.00,-0.0076
801.00,-0.0073
800.00,-0.0070
799.00,-0.0069
798.00,-0.0069
797.00,-0.0071
796.00,-0.0072
795.00,-0.0073
794.00,-0.0073
793.00,-0.0074
792.00,-0.0073
791.00,-0.0072
790.00,-0.0071
789.00,-0.0071
788.00,-0.0073
787.00,-0.0074
786.00,-0.0074
785.00,-0.0071
784.00,-0.0068
783.00,-0.0066
782.00,-0.0067
781.00,-0.0068
780.00,-0.0070
779.00,-0.0072
778.00,-0.0072
777.00,-0.0071
776.00,-0.0069
775.00,-0.0069
774.00,-0.0071
773.00,-0.0073
772.00,-0.0075
771.00,-0.0076
770.00,-0.0075
769.00,-0.0075
768.00,-0.0075
767.00,-0.0076
766.00,-0.0079
765.00,-0.0081
764.00,-0.0082
763.00,-0.0083
762.00,-0.0084
761.00,-0.0086
760.00,-0.0086
759.00,-0.0084
758.00,-0.0081
757.00,-0.0080
756.00,-0.0080
755.00,-0.0081
754.00,-0.0083
753.00,-0.0083
752.00,-0.0083
751.00,-0.0082
750.00,-0.0080
749.00,-0.0078
748.00,-0.0077
747.00,-0.0078
746.00,-0.0079
745.00,-0.0081
744.00,-0.0084
743.00,-0.0085
742.00,-0.0086
741.00,-0.0086
740.00,-0.0088
739.00,-0.0090
738.00,-0.0092
737.00,-0.0093
736.00,-0.0094
735.00,-0.0095
734.00,-0.0096
733.00,-0.0096
732.00,-0.0095
731.00,-0.0093
730.00,-0.0091
729.00,-0.0088
728.00,-0.0086
727.00,-0.0083
726.00,-0.0082
725.00,-0.0083
724.00,-0.0086
723.00,-0.0089
722.00,-0.0092
721.00,-0.0092
720.00,-0.0092
719.00,-0.0092
718.00,-0.0093
717.00,-0.0094
716.00,-0.0096
715.00,-0.0097
714.00,-0.0098
713.00,-0.0096
712.00,-0.0094
711.00,-0.0094
710.00,-0.0095
709.00,-0.0097
708.00,-0.0098
707.00,-0.0097
706.00,-0.0096
705.00,-0.0094
704.00,-0.0092
703.00,-0.0091
702.00,-0.0092
701.00,-0.0095
700.00,-0.0098
699.00,-0.0100
698.00,-0.0099
697.00,-0.0099
696.00,-0.0099
695.00,-0.0099
694.00,-0.0098
693.00,-0.0096
692.00,-0.0094
691.00,-0.0092
690.00,-0.0091
689.00,-0.0091
688.00,-0.0093
687.00,-0.0096
686.00,-0.0100
685.00,-0.0104
684.00,-0.0107
683.00,-0.0110
682.00,-0.0111
681.00,-0.0111
680.00,-0.0109
679.00,-0.0107
678.00,-0.0106
677.00,-0.0104
676.00,-0.0103
675.00,-0.0101
674.00,-0.0100
673.00,-0.0098
672.00,-0.0097
671.00,-0.0094
670.00,-0.0089
669.00,-0.0086
668.00,-0.0087
667.00,-0.0093
666.00,-0.0095
665.00,-0.0095
664.00,-0.0097
663.00,-0.0101
662.00,-0.0107
661.00,-0.0114
660.00,-0.0121
659.00,-0.0125
658.00,-0.0122
657.00,-0.0113
656.00,-0.0105
655.00,-0.0102
654.00,-0.0106
653.00,-0.0114
652.00,-0.0121
651.00,-0.0122
650.00,-0.0119
