Created as New Dataset,Monday, April 03 2023
cm-1,A
4000.00,0.0326
3999.00,0.0325
3998.00,0.0324
3997.00,0.0324
3996.00,0.0323
3995.00,0.0323
3994.00,0.0323
3993.00,0.0323
3992.00,0.0323
3991.00,0.0324
3990.00,0.0324
3989.00,0.0324
3988.00,0.0324
3987.00,0.0323
3986.00,0.0323
3985.00,0.0324
3984.00,0.0324
3983.00,0.0324
3982.00,0.0324
3981.00,0.0323
3980.00,0.0323
3979.00,0.0323
3978.00,0.0322
3977.00,0.0322
3976.00,0.0322
3975.00,0.0321
3974.00,0.0321
3973.00,0.0322
3972.00,0.0322
3971.00,0.0323
3970.00,0.0324
3969.00,0.0324
3968.00,0.0324
3967.00,0.0323
3966.00,0.0322
3965.00,0.0322
3964.00,0.0322
3963.00,0.0323
3962.00,0.0323
3961.00,0.0323
3960.00,0.0322
3959.00,0.0322
3958.00,0.0322
3957.00,0.0322
3956.00,0.0322
3955.00,0.0321
3954.00,0.0320
3953.00,0.0319
3952.00,0.0318
3951.00,0.0318
3950.00,0.0319
3949.00,0.0320
3948.00,0.0320
3947.00,0.0319
3946.00,0.0318
3945.00,0.0318
3944.00,0.0318
3943.00,0.0318
3942.00,0.0317
3941.00,0.0317
3940.00,0.0318
3939.00,0.0319
3938.00,0.0320
3937.00,0.0320
3936.00,0.0319
3935.00,0.0317
3934.00,0.0316
3933.00,0.0316
3932.00,0.0316
3931.00,0.0316
3930.00,0.0316
3929.00,0.0315
3928.00,0.0315
3927.00,0.0316
3926.00,0.0317
3925.00,0.0317
3924.00,0.0317
3923.00,0.0316
3922.00,0.0315
3921.00,0.0314
3920.00,0.0314
3919.00,0.0314
3918.00,0.0315
3917.00,0.0316
3916.00,0.0317
3915.00,0.0318
3914.00,0.0319
3913.00,0.0321
3912.00,0.0322
3911.00,0.0322
3910.00,0.0321
3909.00,0.0318
3908.00,0.0314
3907.00,0.0310
3906.00,0.0306
3905.00,0.0304
3904.00,0.0302
3903.00,0.0300
3902.00,0.0300
3901.00,0.0303
3900.00,0.0306
3899.00,0.0309
3898.00,0.0310
3897.00,0.0311
3896.00,0.0311
3895.00,0.0311
3894.00,0.0312
3893.00,0.0313
3892.00,0.0314
3891.00,0.0312
3890.00,0.0308
3889.00,0.0305
3888.00,0.0305
3887.00,0.0307
3886.00,0.0309
3885.00,0.0307
3884.00,0.0303
3883.00,0.0302
3882.00,0.0305
3881.00,0.0309
3880.00,0.0310
3879.00,0.0309
3878.00,0.0308
3877.00,0.0309
3876.00,0.0311
3875.00,0.0310
3874.00,0.0306
3873.00,0.0301
3872.00,0.0299
3871.00,0.0301
3870.00,0.0304
3869.00,0.0302
3868.00,0.0299
3867.00,0.0299
3866.00,0.0302
3865.00,0.0307
3864.00,0.0309
3863.00,0.0311
3862.00,0.0312
3861.00,0.0312
3860.00,0.0311
3859.00,0.0308
3858.00,0.0302
3857.00,0.0293
3856.00,0.0286
3855.00,0.0285
3854.00,0.0292
3853.00,0.0297
3852.00,0.0295
3851.00,0.0297
3850.00,0.0304
3849.00,0.0312
3848.00,0.0315
3847.00,0.0315
3846.00,0.0314
3845.00,0.0312
3844.00,0.0308
3843.00,0.0304
3842.00,0.0299
3841.00,0.0297
3840.00,0.0297
3839.00,0.0299
3838.00,0.0301
3837.00,0.0301
3836.00,0.0302
3835.00,0.0303
3834.00,0.0307
3833.00,0.0310
3832.00,0.0313
3831.00,0.0313
3830.00,0.0312
3829.00,0.0312
3828.00,0.0313
3827.00,0.0313
3826.00,0.0310
3825.00,0.0306
3824.00,0.0302
3823.00,0.0302
3822.00,0.0305
3821.00,0.0305
3820.00,0.0300
3819.00,0.0296
3818.00,0.0299
3817.00,0.0306
3816.00,0.0313
3815.00,0.0315
3814.00,0.0315
3813.00,0.0317
3812.00,0.0318
3811.00,0.0317
3810.00,0.0314
3809.00,0.0312
3808.00,0.0312
3807.00,0.0312
3806.00,0.0309
3805.00,0.0304
3804.00,0.0302
3803.00,0.0305
3802.00,0.0309
3801.00,0.0310
3800.00,0.0307
3799.00,0.0306
3798.00,0.0310
3797.00,0.0315
3796.00,0.0318
3795.00,0.0319
3794.00,0.0319
3793.00,0.0321
3792.00,0.0324
3791.00,0.0324
3790.00,0.0324
3789.00,0.0323
3788.00,0.0322
3787.00,0.0322
3786.00,0.0322
3785.00,0.0322
3784.00,0.0321
3783.00,0.0319
3782.00,0.0317
3781.00,0.0318
3780.00,0.0319
3779.00,0.0320
3778.00,0.0320
3777.00,0.0320
3776.00,0.0321
3775.00,0.0322
3774.00,0.0320
3773.00,0.0318
3772.00,0.0316
3771.00,0.0315
3770.00,0.0314
3769.00,0.0312
3768.00,0.0311
3767.00,0.0312
3766.00,0.0316
3765.00,0.0317
3764.00,0.0316
3763.00,0.0314
3762.00,0.0313
3761.00,0.0313
3760.00,0.0313
3759.00,0.0312
3758.00,0.0310
3757.00,0.0306
3756.00,0.0302
3755.00,0.0298
3754.00,0.0293
3753.00,0.0289
3752.00,0.0289
3751.00,0.0292
3750.00,0.0292
3749.00,0.0289
3748.00,0.0287
3747.00,0.0288
3746.00,0.0293
3745.00,0.0299
3744.00,0.0299
3743.00,0.0295
3742.00,0.0294
3741.00,0.0298
3740.00,0.0301
3739.00,0.0299
3738.00,0.0296
3737.00,0.0294
3736.00,0.0293
3735.00,0.0292
3734.00,0.0292
3733.00,0.0294
3732.00,0.0298
3731.00,0.0302
3730.00,0.0305
3729.00,0.0307
3728.00,0.0310
3727.00,0.0311
3726.00,0.0310
3725.00,0.0308
3724.00,0.0307
3723.00,0.0308
3722.00,0.0310
3721.00,0.0312
3720.00,0.0314
3719.00,0.0316
3718.00,0.0317
3717.00,0.0315
3716.00,0.0311
3715.00,0.0307
3714.00,0.0304
3713.00,0.0303
3712.00,0.0305
3711.00,0.0307
3710.00,0.0307
3709.00,0.0309
3708.00,0.0312
3707.00,0.0316
3706.00,0.0320
3705.00,0.0322
3704.00,0.0323
3703.00,0.0324
3702.00,0.0324
3701.00,0.0325
3700.00,0.0325
3699.00,0.0327
3698.00,0.0329
3697.00,0.0331
3696.00,0.0330
3695.00,0.0327
3694.00,0.0323
3693.00,0.0318
3692.00,0.0314
3691.00,0.0314
3690.00,0.0318
3689.00,0.0321
3688.00,0.0322
3687.00,0.0323
3686.00,0.0325
3685.00,0.0329
3684.00,0.0331
3683.00,0.0331
3682.00,0.0328
3681.00,0.0323
3680.00,0.0316
3679.00,0.0307
3678.00,0.0299
3677.00,0.0298
3676.00,0.0301
3675.00,0.0300
3674.00,0.0295
3673.00,0.0293
3672.00,0.0298
3671.00,0.0307
3670.00,0.0314
3669.00,0.0317
3668.00,0.0317
3667.00,0.0319
3666.00,0.0323
3665.00,0.0327
3664.00,0.0328
3663.00,0.0329
3662.00,0.0329
3661.00,0.0328
3660.00,0.0326
3659.00,0.0324
3658.00,0.0325
3657.00,0.0325
3656.00,0.0325
3655.00,0.0321
3654.00,0.0315
3653.00,0.0310
3652.00,0.0304
3651.00,0.0299
3650.00,0.0299
3649.00,0.0302
3648.00,0.0305
3647.00,0.0307
3646.00,0.0312
3645.00,0.0318
3644.00,0.0324
3643.00,0.0328
3642.00,0.0331
3641.00,0.0331
3640.00,0.0331
3639.00,0.0330
3638.00,0.0329
3637.00,0.0328
3636.00,0.0327
3635.00,0.0326
3634.00,0.0324
3633.00,0.0318
3632.00,0.0312
3631.00,0.0308
3630.00,0.0310
3629.00,0.0315
3628.00,0.0317
3627.00,0.0316
3626.00,0.0319
3625.00,0.0325
3624.00,0.0328
3623.00,0.0327
3622.00,0.0325
3621.00,0.0324
3620.00,0.0325
3619.00,0.0325
3618.00,0.0323
3617.00,0.0321
3616.00,0.0320
3615.00,0.0321
3614.00,0.0322
3613.00,0.0321
3612.00,0.0319
3611.00,0.0318
3610.00,0.0320
3609.00,0.0324
3608.00,0.0327
3607.00,0.0328
3606.00,0.0327
3605.00,0.0327
3604.00,0.0328
3603.00,0.0330
3602.00,0.0331
3601.00,0.0332
3600.00,0.0332
3599.00,0.0330
3598.00,0.0328
3597.00,0.0328
3596.00,0.0328
3595.00,0.0328
3594.00,0.0328
3593.00,0.0326
3592.00,0.0324
3591.00,0.0322
3590.00,0.0320
3589.00,0.0320
3588.00,0.0322
3587.00,0.0323
3586.00,0.0324
3585.00,0.0326
3584.00,0.0329
3583.00,0.0333
3582.00,0.0335
3581.00,0.0336
3580.00,0.0337
3579.00,0.0337
3578.00,0.0337
3577.00,0.0337
3576.00,0.0338
3575.00,0.0339
3574.00,0.0338
3573.00,0.0337
3572.00,0.0334
3571.00,0.0330
3570.00,0.0325
3569.00,0.0323
3568.00,0.0324
3567.00,0.0326
3566.00,0.0327
3565.00,0.0327
3564.00,0.0328
3563.00,0.0331
3562.00,0.0334
3561.00,0.0337
3560.00,0.0339
3559.00,0.0340
3558.00,0.0341
3557.00,0.0341
3556.00,0.0341
3555.00,0.0341
3554.00,0.0341
3553.00,0.0341
3552.00,0.0342
3551.00,0.0342
3550.00,0.0341
3549.00,0.0340
3548.00,0.0339
3547.00,0.0340
3546.00,0.0340
3545.00,0.0341
3544.00,0.0342
3543.00,0.0343
3542.00,0.0344
3541.00,0.0345
3540.00,0.0345
3539.00,0.0345
3538.00,0.0344
3537.00,0.0344
3536.00,0.0344
3535.00,0.0345
3534.00,0.0346
3533.00,0.0347
3532.00,0.0347
3531.00,0.0347
3530.00,0.0345
3529.00,0.0344
3528.00,0.0342
3527.00,0.0341
3526.00,0.0341
3525.00,0.0343
3524.00,0.0345
3523.00,0.0346
3522.00,0.0347
3521.00,0.0347
3520.00,0.0347
3519.00,0.0348
3518.00,0.0347
3517.00,0.0347
3516.00,0.0347
3515.00,0.0348
3514.00,0.0349
3513.00,0.0349
3512.00,0.0350
3511.00,0.0350
3510.00,0.0350
3509.00,0.0349
3508.00,0.0349
3507.00,0.0348
3506.00,0.0348
3505.00,0.0348
3504.00,0.0350
3503.00,0.0351
3502.00,0.0351
3501.00,0.0352
3500.00,0.0352
3499.00,0.0352
3498.00,0.0353
3497.00,0.0354
3496.00,0.0354
3495.00,0.0354
3494.00,0.0354
3493.00,0.0354
3492.00,0.0354
3491.00,0.0354
3490.00,0.0354
3489.00,0.0354
3488.00,0.0354
3487.00,0.0354
3486.00,0.0353
3485.00,0.0353
3484.00,0.0353
3483.00,0.0354
3482.00,0.0355
3481.00,0.0355
3480.00,0.0356
3479.00,0.0356
3478.00,0.0356
3477.00,0.0357
3476.00,0.0357
3475.00,0.0358
3474.00,0.0358
3473.00,0.0359
3472.00,0.0359
3471.00,0.0359
3470.00,0.0359
3469.00,0.0360
3468.00,0.0360
3467.00,0.0360
3466.00,0.0360
3465.00,0.0360
3464.00,0.0360
3463.00,0.0359
3462.00,0.0358
3461.00,0.0358
3460.00,0.0358
3459.00,0.0360
3458.00,0.0361
3457.00,0.0362
3456.00,0.0361
3455.00,0.0360
3454.00,0.0360
3453.00,0.0361
3452.00,0.0361
3451.00,0.0362
3450.00,0.0362
3449.00,0.0361
3448.00,0.0361
3447.00,0.0361
3446.00,0.0360
3445.00,0.0361
3444.00,0.0361
3443.00,0.0362
3442.00,0.0362
3441.00,0.0361
3440.00,0.0361
3439.00,0.0360
3438.00,0.0361
3437.00,0.0361
3436.00,0.0361
3435.00,0.0361
3434.00,0.0361
3433.00,0.0362
3432.00,0.0362
3431.00,0.0363
3430.00,0.0363
3429.00,0.0363
3428.00,0.0363
3427.00,0.0363
3426.00,0.0363
3425.00,0.0364
3424.00,0.0365
3423.00,0.0365
3422.00,0.0366
3421.00,0.0366
3420.00,0.0366
3419.00,0.0366
3418.00,0.0366
3417.00,0.0366
3416.00,0.0365
3415.00,0.0365
3414.00,0.0365
3413.00,0.0365
3412.00,0.0366
3411.00,0.0366
3410.00,0.0367
3409.00,0.0367
3408.00,0.0368
3407.00,0.0368
3406.00,0.0368
3405.00,0.0367
3404.00,0.0366
3403.00,0.0366
3402.00,0.0366
3401.00,0.0367
3400.00,0.0367
3399.00,0.0368
3398.00,0.0367
3397.00,0.0367
3396.00,0.0366
3395.00,0.0365
3394.00,0.0366
3393.00,0.0366
3392.00,0.0367
3391.00,0.0368
3390.00,0.0368
3389.00,0.0369
3388.00,0.0369
3387.00,0.0369
3386.00,0.0369
3385.00,0.0369
3384.00,0.0370
3383.00,0.0370
3382.00,0.0370
3381.00,0.0370
3380.00,0.0370
3379.00,0.0371
3378.00,0.0371
3377.00,0.0371
3376.00,0.0371
3375.00,0.0370
3374.00,0.0370
3373.00,0.0370
3372.00,0.0369
3371.00,0.0369
3370.00,0.0369
3369.00,0.0370
3368.00,0.0370
3367.00,0.0369
3366.00,0.0369
3365.00,0.0368
3364.00,0.0368
3363.00,0.0369
3362.00,0.0370
3361.00,0.0372
3360.00,0.0373
3359.00,0.0373
3358.00,0.0373
3357.00,0.0373
3356.00,0.0373
3355.00,0.0373
3354.00,0.0373
3353.00,0.0374
3352.00,0.0374
3351.00,0.0374
3350.00,0.0374
3349.00,0.0374
3348.00,0.0374
3347.00,0.0374
3346.00,0.0374
3345.00,0.0373
3344.00,0.0373
3343.00,0.0372
3342.00,0.0373
3341.00,0.0373
3340.00,0.0374
3339.00,0.0375
3338.00,0.0375
3337.00,0.0375
3336.00,0.0375
3335.00,0.0374
3334.00,0.0374
3333.00,0.0374
3332.00,0.0374
3331.00,0.0373
3330.00,0.0372
3329.00,0.0372
3328.00,0.0372
3327.00,0.0373
3326.00,0.0374
3325.00,0.0376
3324.00,0.0376
3323.00,0.0376
3322.00,0.0376
3321.00,0.0376
3320.00,0.0376
3319.00,0.0376
3318.00,0.0376
3317.00,0.0376
3316.00,0.0376
3315.00,0.0375
3314.00,0.0375
3313.00,0.0374
3312.00,0.0374
3311.00,0.0375
3310.00,0.0375
3309.00,0.0376
3308.00,0.0377
3307.00,0.0377
3306.00,0.0377
3305.00,0.0376
3304.00,0.0377
3303.00,0.0377
3302.00,0.0377
3301.00,0.0377
3300.00,0.0377
3299.00,0.0377
3298.00,0.0377
3297.00,0.0378
3296.00,0.0378
3295.00,0.0379
3294.00,0.0379
3293.00,0.0378
3292.00,0.0377
3291.00,0.0377
3290.00,0.0376
3289.00,0.0377
3288.00,0.0377
3287.00,0.0378
3286.00,0.0379
3285.00,0.0379
3284.00,0.0379
3283.00,0.0379
3282.00,0.0379
3281.00,0.0379
3280.00,0.0379
3279.00,0.0379
3278.00,0.0379
3277.00,0.0379
3276.00,0.0379
3275.00,0.0378
3274.00,0.0378
3273.00,0.0378
3272.00,0.0379
3271.00,0.0380
3270.00,0.0381
3269.00,0.0382
3268.00,0.0382
3267.00,0.0381
3266.00,0.0380
3265.00,0.0379
3264.00,0.0379
3263.00,0.0378
3262.00,0.0379
3261.00,0.0379
3260.00,0.0379
3259.00,0.0380
3258.00,0.0380
3257.00,0.0379
3256.00,0.0379
3255.00,0.0379
3254.00,0.0380
3253.00,0.0380
3252.00,0.0381
3251.00,0.0381
3250.00,0.0381
3249.00,0.0380
3248.00,0.0380
3247.00,0.0380
3246.00,0.0380
3245.00,0.0380
3244.00,0.0379
3243.00,0.0379
3242.00,0.0379
3241.00,0.0379
3240.00,0.0379
3239.00,0.0379
3238.00,0.0380
3237.00,0.0381
3236.00,0.0382
3235.00,0.0383
3234.00,0.0383
3233.00,0.0382
3232.00,0.0381
3231.00,0.0381
3230.00,0.0380
3229.00,0.0380
3228.00,0.0380
3227.00,0.0380
3226.00,0.0380
3225.00,0.0380
3224.00,0.0380
3223.00,0.0380
3222.00,0.0380
3221.00,0.0380
3220.00,0.0380
3219.00,0.0379
3218.00,0.0379
3217.00,0.0379
3216.00,0.0380
3215.00,0.0380
3214.00,0.0380
3213.00,0.0380
3212.00,0.0379
3211.00,0.0379
3210.00,0.0379
3209.00,0.0379
3208.00,0.0379
3207.00,0.0379
3206.00,0.0379
3205.00,0.0380
3204.00,0.0380
3203.00,0.0380
3202.00,0.0380
3201.00,0.0380
3200.00,0.0380
3199.00,0.0380
3198.00,0.0380
3197.00,0.0380
3196.00,0.0380
3195.00,0.0380
3194.00,0.0380
3193.00,0.0380
3192.00,0.0380
3191.00,0.0379
3190.00,0.0378
3189.00,0.0378
3188.00,0.0377
3187.00,0.0377
3186.00,0.0377
3185.00,0.0377
3184.00,0.0378
3183.00,0.0378
3182.00,0.0379
3181.00,0.0379
3180.00,0.0378
3179.00,0.0377
3178.00,0.0376
3177.00,0.0375
3176.00,0.0375
3175.00,0.0375
3174.00,0.0376
3173.00,0.0377
3172.00,0.0377
3171.00,0.0377
3170.00,0.0377
3169.00,0.0376
3168.00,0.0376
3167.00,0.0376
3166.00,0.0377
3165.00,0.0378
3164.00,0.0379
3163.00,0.0379
3162.00,0.0378
3161.00,0.0377
3160.00,0.0376
3159.00,0.0375
3158.00,0.0375
3157.00,0.0374
3156.00,0.0374
3155.00,0.0375
3154.00,0.0376
3153.00,0.0376
3152.00,0.0376
3151.00,0.0375
3150.00,0.0375
3149.00,0.0375
3148.00,0.0375
3147.00,0.0375
3146.00,0.0375
3145.00,0.0375
3144.00,0.0375
3143.00,0.0375
3142.00,0.0375
3141.00,0.0375
3140.00,0.0375
3139.00,0.0375
3138.00,0.0375
3137.00,0.0375
3136.00,0.0375
3135.00,0.0375
3134.00,0.0375
3133.00,0.0374
3132.00,0.0374
3131.00,0.0374
3130.00,0.0374
3129.00,0.0374
3128.00,0.0374
3127.00,0.0374
3126.00,0.0374
3125.00,0.0374
3124.00,0.0374
3123.00,0.0373
3122.00,0.0373
3121.00,0.0373
3120.00,0.0373
3119.00,0.0373
3118.00,0.0373
3117.00,0.0373
3116.00,0.0374
3115.00,0.0374
3114.00,0.0374
3113.00,0.0374
3112.00,0.0374
3111.00,0.0374
3110.00,0.0374
3109.00,0.0374
3108.00,0.0374
3107.00,0.0374
3106.00,0.0374
3105.00,0.0375
3104.00,0.0375
3103.00,0.0374
3102.00,0.0374
3101.00,0.0373
3100.00,0.0373
3099.00,0.0372
3098.00,0.0372
3097.00,0.0372
3096.00,0.0373
3095.00,0.0374
3094.00,0.0374
3093.00,0.0375
3092.00,0.0375
3091.00,0.0374
3090.00,0.0374
3089.00,0.0373
3088.00,0.0372
3087.00,0.0372
3086.00,0.0372
3085.00,0.0373
3084.00,0.0373
3083.00,0.0373
3082.00,0.0373
3081.00,0.0373
3080.00,0.0373
3079.00,0.0373
3078.00,0.0373
3077.00,0.0373
3076.00,0.0373
3075.00,0.0373
3074.00,0.0373
3073.00,0.0374
3072.00,0.0374
3071.00,0.0374
3070.00,0.0374
3069.00,0.0374
3068.00,0.0374
3067.00,0.0374
3066.00,0.0374
3065.00,0.0373
3064.00,0.0372
3063.00,0.0372
3062.00,0.0372
3061.00,0.0372
3060.00,0.0372
3059.00,0.0372
3058.00,0.0372
3057.00,0.0372
3056.00,0.0372
3055.00,0.0373
3054.00,0.0373
3053.00,0.0372
3052.00,0.0372
3051.00,0.0373
3050.00,0.0373
3049.00,0.0373
3048.00,0.0374
3047.00,0.0373
3046.00,0.0373
3045.00,0.0373
3044.00,0.0373
3043.00,0.0373
3042.00,0.0372
3041.00,0.0371
3040.00,0.0370
3039.00,0.0370
3038.00,0.0371
3037.00,0.0371
3036.00,0.0372
3035.00,0.0372
3034.00,0.0372
3033.00,0.0372
3032.00,0.0372
3031.00,0.0371
3030.00,0.0371
3029.00,0.0370
3028.00,0.0370
3027.00,0.0370
3026.00,0.0370
3025.00,0.0370
3024.00,0.0370
3023.00,0.0370
3022.00,0.0370
3021.00,0.0370
3020.00,0.0370
3019.00,0.0368
3018.00,0.0368
3017.00,0.0367
3016.00,0.0367
3015.00,0.0367
3014.00,0.0367
3013.00,0.0366
3012.00,0.0366
3011.00,0.0366
3010.00,0.0365
3009.00,0.0363
3008.00,0.0362
3007.00,0.0360
3006.00,0.0359
3005.00,0.0359
3004.00,0.0358
3003.00,0.0357
3002.00,0.0356
3001.00,0.0354
3000.00,0.0353
2999.00,0.0352
2998.00,0.0351
2997.00,0.0350
2996.00,0.0349
2995.00,0.0348
2994.00,0.0348
2993.00,0.0348
2992.00,0.0347
2991.00,0.0346
2990.00,0.0346
2989.00,0.0345
2988.00,0.0344
2987.00,0.0342
2986.00,0.0340
2985.00,0.0336
2984.00,0.0333
2983.00,0.0330
2982.00,0.0328
2981.00,0.0329
2980.00,0.0330
2979.00,0.0332
2978.00,0.0334
2977.00,0.0336
2976.00,0.0338
2975.00,0.0339
2974.00,0.0338
2973.00,0.0338
2972.00,0.0337
2971.00,0.0338
2970.00,0.0339
2969.00,0.0342
2968.00,0.0344
2967.00,0.0345
2966.00,0.0345
2965.00,0.0346
2964.00,0.0347
2963.00,0.0348
2962.00,0.0349
2961.00,0.0350
2960.00,0.0351
2959.00,0.0351
2958.00,0.0351
2957.00,0.0352
2956.00,0.0353
2955.00,0.0355
2954.00,0.0356
2953.00,0.0357
2952.00,0.0358
2951.00,0.0358
2950.00,0.0359
2949.00,0.0359
2948.00,0.0360
2947.00,0.0360
2946.00,0.0360
2945.00,0.0361
2944.00,0.0362
2943.00,0.0363
2942.00,0.0364
2941.00,0.0365
2940.00,0.0365
2939.00,0.0365
2938.00,0.0365
2937.00,0.0365
2936.00,0.0366
2935.00,0.0367
2934.00,0.0368
2933.00,0.0368
2932.00,0.0369
2931.00,0.0369
2930.00,0.0369
2929.00,0.0370
2928.00,0.0370
2927.00,0.0370
2926.00,0.0370
2925.00,0.0370
2924.00,0.0370
2923.00,0.0371
2922.00,0.0371
2921.00,0.0370
2920.00,0.0370
2919.00,0.0369
2918.00,0.0368
2917.00,0.0367
2916.00,0.0367
2915.00,0.0367
2914.00,0.0366
2913.00,0.0366
2912.00,0.0365
2911.00,0.0365
2910.00,0.0365
2909.00,0.0364
2908.00,0.0364
2907.00,0.0364
2906.00,0.0363
2905.00,0.0363
2904.00,0.0363
2903.00,0.0362
2902.00,0.0361
2901.00,0.0361
2900.00,0.0361
2899.00,0.0361
2898.00,0.0361
2897.00,0.0361
2896.00,0.0361
2895.00,0.0361
2894.00,0.0361
2893.00,0.0360
2892.00,0.0360
2891.00,0.0360
2890.00,0.0360
2889.00,0.0360
2888.00,0.0360
2887.00,0.0360
2886.00,0.0360
2885.00,0.0359
2884.00,0.0359
2883.00,0.0359
2882.00,0.0359
2881.00,0.0359
2880.00,0.0360
2879.00,0.0361
2878.00,0.0362
2877.00,0.0362
2876.00,0.0362
2875.00,0.0362
2874.00,0.0362
2873.00,0.0362
2872.00,0.0362
2871.00,0.0362
2870.00,0.0362
2869.00,0.0362
2868.00,0.0362
2867.00,0.0362
2866.00,0.0362
2865.00,0.0363
2864.00,0.0364
2863.00,0.0364
2862.00,0.0365
2861.00,0.0366
2860.00,0.0367
2859.00,0.0368
2858.00,0.0369
2857.00,0.0370
2856.00,0.0370
2855.00,0.0370
2854.00,0.0370
2853.00,0.0369
2852.00,0.0369
2851.00,0.0370
2850.00,0.0370
2849.00,0.0370
2848.00,0.0370
2847.00,0.0370
2846.00,0.0369
2845.00,0.0369
2844.00,0.0368
2843.00,0.0368
2842.00,0.0367
2841.00,0.0367
2840.00,0.0366
2839.00,0.0365
2838.00,0.0365
2837.00,0.0365
2836.00,0.0366
2835.00,0.0366
2834.00,0.0367
2833.00,0.0366
2832.00,0.0366
2831.00,0.0365
2830.00,0.0365
2829.00,0.0365
2828.00,0.0365
2827.00,0.0365
2826.00,0.0365
2825.00,0.0365
2824.00,0.0365
2823.00,0.0365
2822.00,0.0365
2821.00,0.0364
2820.00,0.0364
2819.00,0.0363
2818.00,0.0363
2817.00,0.0363
2816.00,0.0363
2815.00,0.0363
2814.00,0.0363
2813.00,0.0363
2812.00,0.0363
2811.00,0.0363
2810.00,0.0363
2809.00,0.0363
2808.00,0.0363
2807.00,0.0363
2806.00,0.0363
2805.00,0.0364
2804.00,0.0364
2803.00,0.0363
2802.00,0.0363
2801.00,0.0363
2800.00,0.0363
2799.00,0.0363
2798.00,0.0363
2797.00,0.0363
2796.00,0.0363
2795.00,0.0363
2794.00,0.0363
2793.00,0.0363
2792.00,0.0363
2791.00,0.0363
2790.00,0.0363
2789.00,0.0364
2788.00,0.0364
2787.00,0.0364
2786.00,0.0363
2785.00,0.0363
2784.00,0.0363
2783.00,0.0362
2782.00,0.0362
2781.00,0.0361
2780.00,0.0360
2779.00,0.0360
2778.00,0.0361
2777.00,0.0361
2776.00,0.0362
2775.00,0.0362
2774.00,0.0362
2773.00,0.0362
2772.00,0.0362
2771.00,0.0362
2770.00,0.0361
2769.00,0.0360
2768.00,0.0360
2767.00,0.0360
2766.00,0.0360
2765.00,0.0360
2764.00,0.0361
2763.00,0.0361
2762.00,0.0361
2761.00,0.0361
2760.00,0.0361
2759.00,0.0361
2758.00,0.0361
2757.00,0.0361
2756.00,0.0361
2755.00,0.0361
2754.00,0.0361
2753.00,0.0361
2752.00,0.0361
2751.00,0.0361
2750.00,0.0361
2749.00,0.0361
2748.00,0.0361
2747.00,0.0361
2746.00,0.0361
2745.00,0.0361
2744.00,0.0361
2743.00,0.0362
2742.00,0.0362
2741.00,0.0362
2740.00,0.0361
2739.00,0.0361
2738.00,0.0360
2737.00,0.0360
2736.00,0.0360
2735.00,0.0360
2734.00,0.0360
2733.00,0.0361
2732.00,0.0361
2731.00,0.0361
2730.00,0.0361
2729.00,0.0361
2728.00,0.0361
2727.00,0.0361
2726.00,0.0361
2725.00,0.0361
2724.00,0.0361
2723.00,0.0361
2722.00,0.0361
2721.00,0.0361
2720.00,0.0361
2719.00,0.0361
2718.00,0.0361
2717.00,0.0361
2716.00,0.0361
2715.00,0.0361
2714.00,0.0362
2713.00,0.0362
2712.00,0.0362
2711.00,0.0362
2710.00,0.0362
2709.00,0.0361
2708.00,0.0361
2707.00,0.0360
2706.00,0.0360
2705.00,0.0360
2704.00,0.0360
2703.00,0.0360
2702.00,0.0360
2701.00,0.0360
2700.00,0.0360
2699.00,0.0360
2698.00,0.0360
2697.00,0.0360
2696.00,0.0361
2695.00,0.0361
2694.00,0.0361
2693.00,0.0362
2692.00,0.0362
2691.00,0.0361
2690.00,0.0361
2689.00,0.0361
2688.00,0.0361
2687.00,0.0361
2686.00,0.0361
2685.00,0.0361
2684.00,0.0361
2683.00,0.0361
2682.00,0.0361
2681.00,0.0361
2680.00,0.0361
2679.00,0.0361
2678.00,0.0360
2677.00,0.0360
2676.00,0.0360
2675.00,0.0360
2674.00,0.0360
2673.00,0.0360
2672.00,0.0360
2671.00,0.0360
2670.00,0.0360
2669.00,0.0360
2668.00,0.0360
2667.00,0.0361
2666.00,0.0361
2665.00,0.0361
2664.00,0.0362
2663.00,0.0362
2662.00,0.0362
2661.00,0.0363
2660.00,0.0363
2659.00,0.0363
2658.00,0.0363
2657.00,0.0363
2656.00,0.0363
2655.00,0.0363
2654.00,0.0363
2653.00,0.0364
2652.00,0.0364
2651.00,0.0364
2650.00,0.0364
2649.00,0.0364
2648.00,0.0363
2647.00,0.0363
2646.00,0.0362
2645.00,0.0363
2644.00,0.0363
2643.00,0.0363
2642.00,0.0363
2641.00,0.0363
2640.00,0.0363
2639.00,0.0364
2638.00,0.0364
2637.00,0.0364
2636.00,0.0363
2635.00,0.0363
2634.00,0.0363
2633.00,0.0364
2632.00,0.0364
2631.00,0.0363
2630.00,0.0363
2629.00,0.0362
2628.00,0.0361
2627.00,0.0361
2626.00,0.0361
2625.00,0.0362
2624.00,0.0363
2623.00,0.0364
2622.00,0.0364
2621.00,0.0364
2620.00,0.0364
2619.00,0.0364
2618.00,0.0364
2617.00,0.0364
2616.00,0.0364
2615.00,0.0363
2614.00,0.0363
2613.00,0.0363
2612.00,0.0364
2611.00,0.0364
2610.00,0.0364
2609.00,0.0363
2608.00,0.0362
2607.00,0.0362
2606.00,0.0363
2605.00,0.0363
2604.00,0.0363
2603.00,0.0363
2602.00,0.0363
2601.00,0.0363
2600.00,0.0363
2599.00,0.0362
2598.00,0.0362
2597.00,0.0361
2596.00,0.0361
2595.00,0.0361
2594.00,0.0361
2593.00,0.0362
2592.00,0.0363
2591.00,0.0363
2590.00,0.0363
2589.00,0.0363
2588.00,0.0363
2587.00,0.0363
2586.00,0.0362
2585.00,0.0362
2584.00,0.0361
2583.00,0.0361
2582.00,0.0362
2581.00,0.0363
2580.00,0.0363
2579.00,0.0364
2578.00,0.0363
2577.00,0.0363
2576.00,0.0361
2575.00,0.0361
2574.00,0.0360
2573.00,0.0361
2572.00,0.0361
2571.00,0.0362
2570.00,0.0361
2569.00,0.0361
2568.00,0.0361
2567.00,0.0362
2566.00,0.0363
2565.00,0.0363
2564.00,0.0363
2563.00,0.0363
2562.00,0.0363
2561.00,0.0363
2560.00,0.0364
2559.00,0.0363
2558.00,0.0363
2557.00,0.0364
2556.00,0.0364
2555.00,0.0364
2554.00,0.0364
2553.00,0.0363
2552.00,0.0363
2551.00,0.0362
2550.00,0.0361
2549.00,0.0360
2548.00,0.0359
2547.00,0.0359
2546.00,0.0359
2545.00,0.0360
2544.00,0.0360
2543.00,0.0361
2542.00,0.0360
2541.00,0.0360
2540.00,0.0358
2539.00,0.0357
2538.00,0.0357
2537.00,0.0357
2536.00,0.0357
2535.00,0.0358
2534.00,0.0359
2533.00,0.0360
2532.00,0.0361
2531.00,0.0360
2530.00,0.0360
2529.00,0.0359
2528.00,0.0359
2527.00,0.0359
2526.00,0.0358
2525.00,0.0358
2524.00,0.0358
2523.00,0.0358
2522.00,0.0359
2521.00,0.0359
2520.00,0.0360
2519.00,0.0360
2518.00,0.0362
2517.00,0.0363
2516.00,0.0363
2515.00,0.0362
2514.00,0.0361
2513.00,0.0359
2512.00,0.0359
2511.00,0.0359
2510.00,0.0360
2509.00,0.0361
2508.00,0.0362
2507.00,0.0363
2506.00,0.0363
2505.00,0.0362
2504.00,0.0361
2503.00,0.0361
2502.00,0.0362
2501.00,0.0362
2500.00,0.0363
2499.00,0.0363
2498.00,0.0363
2497.00,0.0362
2496.00,0.0362
2495.00,0.0362
2494.00,0.0363
2493.00,0.0363
2492.00,0.0363
2491.00,0.0363
2490.00,0.0364
2489.00,0.0364
2488.00,0.0364
2487.00,0.0364
2486.00,0.0363
2485.00,0.0362
2484.00,0.0362
2483.00,0.0362
2482.00,0.0363
2481.00,0.0363
2480.00,0.0364
2479.00,0.0364
2478.00,0.0363
2477.00,0.0362
2476.00,0.0362
2475.00,0.0362
2474.00,0.0362
2473.00,0.0362
2472.00,0.0363
2471.00,0.0363
2470.00,0.0364
2469.00,0.0364
2468.00,0.0364
2467.00,0.0363
2466.00,0.0362
2465.00,0.0362
2464.00,0.0361
2463.00,0.0361
2462.00,0.0361
2461.00,0.0361
2460.00,0.0362
2459.00,0.0363
2458.00,0.0364
2457.00,0.0364
2456.00,0.0364
2455.00,0.0364
2454.00,0.0365
2453.00,0.0366
2452.00,0.0366
2451.00,0.0366
2450.00,0.0365
2449.00,0.0364
2448.00,0.0364
2447.00,0.0363
2446.00,0.0363
2445.00,0.0362
2444.00,0.0362
2443.00,0.0361
2442.00,0.0361
2441.00,0.0362
2440.00,0.0362
2439.00,0.0363
2438.00,0.0363
2437.00,0.0363
2436.00,0.0363
2435.00,0.0363
2434.00,0.0362
2433.00,0.0362
2432.00,0.0362
2431.00,0.0362
2430.00,0.0363
2429.00,0.0363
2428.00,0.0363
2427.00,0.0363
2426.00,0.0363
2425.00,0.0363
2424.00,0.0362
2423.00,0.0362
2422.00,0.0362
2421.00,0.0362
2420.00,0.0362
2419.00,0.0362
2418.00,0.0362
2417.00,0.0362
2416.00,0.0362
2415.00,0.0362
2414.00,0.0362
2413.00,0.0362
2412.00,0.0363
2411.00,0.0363
2410.00,0.0363
2409.00,0.0363
2408.00,0.0363
2407.00,0.0363
2406.00,0.0363
2405.00,0.0363
2404.00,0.0363
2403.00,0.0362
2402.00,0.0361
2401.00,0.0361
2400.00,0.0361
2399.00,0.0361
2398.00,0.0361
2397.00,0.0361
2396.00,0.0361
2395.00,0.0361
2394.00,0.0361
2393.00,0.0361
2392.00,0.0360
2391.00,0.0360
2390.00,0.0360
2389.00,0.0360
2388.00,0.0360
2387.00,0.0360
2386.00,0.0360
2385.00,0.0359
2384.00,0.0358
2383.00,0.0357
2382.00,0.0356
2381.00,0.0356
2380.00,0.0356
2379.00,0.0357
2378.00,0.0357
2377.00,0.0356
2376.00,0.0356
2375.00,0.0356
2374.00,0.0357
2373.00,0.0358
2372.00,0.0358
2371.00,0.0357
2370.00,0.0354
2369.00,0.0350
2368.00,0.0347
2367.00,0.0347
2366.00,0.0350
2365.00,0.0353
2364.00,0.0355
2363.00,0.0354
2362.00,0.0354
2361.00,0.0356
2360.00,0.0359
2359.00,0.0363
2358.00,0.0365
2357.00,0.0365
2356.00,0.0365
2355.00,0.0364
2354.00,0.0365
2353.00,0.0366
2352.00,0.0368
2351.00,0.0368
2350.00,0.0365
2349.00,0.0358
2348.00,0.0348
2347.00,0.0340
2346.00,0.0337
2345.00,0.0341
2344.00,0.0349
2343.00,0.0356
2342.00,0.0360
2341.00,0.0362
2340.00,0.0363
2339.00,0.0362
2338.00,0.0361
2337.00,0.0361
2336.00,0.0361
2335.00,0.0363
2334.00,0.0364
2333.00,0.0365
2332.00,0.0367
2331.00,0.0368
2330.00,0.0369
2329.00,0.0371
2328.00,0.0373
2327.00,0.0376
2326.00,0.0378
2325.00,0.0379
2324.00,0.0378
2323.00,0.0378
2322.00,0.0378
2321.00,0.0379
2320.00,0.0379
2319.00,0.0379
2318.00,0.0378
2317.00,0.0377
2316.00,0.0375
2315.00,0.0373
2314.00,0.0371
2313.00,0.0371
2312.00,0.0370
2311.00,0.0371
2310.00,0.0372
2309.00,0.0373
2308.00,0.0373
2307.00,0.0372
2306.00,0.0371
2305.00,0.0370
2304.00,0.0369
2303.00,0.0367
2302.00,0.0366
2301.00,0.0365
2300.00,0.0365
2299.00,0.0366
2298.00,0.0366
2297.00,0.0366
2296.00,0.0366
2295.00,0.0365
2294.00,0.0366
2293.00,0.0367
2292.00,0.0369
2291.00,0.0369
2290.00,0.0369
2289.00,0.0368
2288.00,0.0368
2287.00,0.0368
2286.00,0.0369
2285.00,0.0370
2284.00,0.0371
2283.00,0.0371
2282.00,0.0370
2281.00,0.0370
2280.00,0.0369
2279.00,0.0369
2278.00,0.0368
2277.00,0.0368
2276.00,0.0366
2275.00,0.0365
2274.00,0.0364
2273.00,0.0363
2272.00,0.0363
2271.00,0.0363
2270.00,0.0364
2269.00,0.0364
2268.00,0.0363
2267.00,0.0363
2266.00,0.0363
2265.00,0.0363
2264.00,0.0363
2263.00,0.0364
2262.00,0.0364
2261.00,0.0365
2260.00,0.0365
2259.00,0.0365
2258.00,0.0363
2257.00,0.0360
2256.00,0.0358
2255.00,0.0357
2254.00,0.0357
2253.00,0.0358
2252.00,0.0358
2251.00,0.0359
2250.00,0.0361
2249.00,0.0362
2248.00,0.0362
2247.00,0.0362
2246.00,0.0363
2245.00,0.0364
2244.00,0.0364
2243.00,0.0364
2242.00,0.0363
2241.00,0.0362
2240.00,0.0361
2239.00,0.0360
2238.00,0.0360
2237.00,0.0360
2236.00,0.0360
2235.00,0.0360
2234.00,0.0361
2233.00,0.0362
2232.00,0.0362
2231.00,0.0361
2230.00,0.0360
2229.00,0.0359
2228.00,0.0358
2227.00,0.0359
2226.00,0.0359
2225.00,0.0359
2224.00,0.0359
2223.00,0.0358
2222.00,0.0357
2221.00,0.0357
2220.00,0.0358
2219.00,0.0358
2218.00,0.0359
2217.00,0.0359
2216.00,0.0360
2215.00,0.0362
2214.00,0.0363
2213.00,0.0363
2212.00,0.0361
2211.00,0.0358
2210.00,0.0356
2209.00,0.0356
2208.00,0.0357
2207.00,0.0359
2206.00,0.0359
2205.00,0.0359
2204.00,0.0358
2203.00,0.0358
2202.00,0.0358
2201.00,0.0358
2200.00,0.0357
2199.00,0.0357
2198.00,0.0358
2197.00,0.0358
2196.00,0.0358
2195.00,0.0357
2194.00,0.0356
2193.00,0.0355
2192.00,0.0354
2191.00,0.0352
2190.00,0.0350
2189.00,0.0350
2188.00,0.0351
2187.00,0.0356
2186.00,0.0361
2185.00,0.0363
2184.00,0.0360
2183.00,0.0356
2182.00,0.0352
2181.00,0.0352
2180.00,0.0353
2179.00,0.0356
2178.00,0.0358
2177.00,0.0359
2176.00,0.0358
2175.00,0.0356
2174.00,0.0353
2173.00,0.0353
2172.00,0.0354
2171.00,0.0356
2170.00,0.0359
2169.00,0.0362
2168.00,0.0363
2167.00,0.0363
2166.00,0.0363
2165.00,0.0365
2164.00,0.0368
2163.00,0.0371
2162.00,0.0372
2161.00,0.0366
2160.00,0.0356
2159.00,0.0344
2158.00,0.0336
2157.00,0.0334
2156.00,0.0335
2155.00,0.0338
2154.00,0.0342
2153.00,0.0346
2152.00,0.0347
2151.00,0.0346
2150.00,0.0344
2149.00,0.0342
2148.00,0.0343
2147.00,0.0346
2146.00,0.0350
2145.00,0.0353
2144.00,0.0355
2143.00,0.0355
2142.00,0.0355
2141.00,0.0356
2140.00,0.0356
2139.00,0.0355
2138.00,0.0353
2137.00,0.0351
2136.00,0.0348
2135.00,0.0345
2134.00,0.0344
2133.00,0.0345
2132.00,0.0347
2131.00,0.0349
2130.00,0.0352
2129.00,0.0355
2128.00,0.0357
2127.00,0.0359
2126.00,0.0359
2125.00,0.0358
2124.00,0.0357
2123.00,0.0356
2122.00,0.0356
2121.00,0.0356
2120.00,0.0356
2119.00,0.0357
2118.00,0.0358
2117.00,0.0358
2116.00,0.0358
2115.00,0.0357
2114.00,0.0356
2113.00,0.0355
2112.00,0.0355
2111.00,0.0356
2110.00,0.0358
2109.00,0.0360
2108.00,0.0362
2107.00,0.0363
2106.00,0.0363
2105.00,0.0363
2104.00,0.0362
2103.00,0.0363
2102.00,0.0363
2101.00,0.0363
2100.00,0.0361
2099.00,0.0358
2098.00,0.0356
2097.00,0.0355
2096.00,0.0355
2095.00,0.0356
2094.00,0.0357
2093.00,0.0358
2092.00,0.0358
2091.00,0.0358
2090.00,0.0357
2089.00,0.0357
2088.00,0.0358
2087.00,0.0359
2086.00,0.0360
2085.00,0.0362
2084.00,0.0364
2083.00,0.0365
2082.00,0.0364
2081.00,0.0364
2080.00,0.0363
2079.00,0.0362
2078.00,0.0362
2077.00,0.0361
2076.00,0.0362
2075.00,0.0362
2074.00,0.0362
2073.00,0.0362
2072.00,0.0363
2071.00,0.0364
2070.00,0.0364
2069.00,0.0363
2068.00,0.0360
2067.00,0.0357
2066.00,0.0357
2065.00,0.0358
2064.00,0.0360
2063.00,0.0361
2062.00,0.0362
2061.00,0.0361
2060.00,0.0359
2059.00,0.0357
2058.00,0.0357
2057.00,0.0357
2056.00,0.0358
2055.00,0.0358
2054.00,0.0359
2053.00,0.0362
2052.00,0.0364
2051.00,0.0364
2050.00,0.0361
2049.00,0.0359
2048.00,0.0357
2047.00,0.0357
2046.00,0.0359
2045.00,0.0361
2044.00,0.0362
2043.00,0.0364
2042.00,0.0364
2041.00,0.0363
2040.00,0.0361
2039.00,0.0360
2038.00,0.0361
2037.00,0.0365
2036.00,0.0368
2035.00,0.0367
2034.00,0.0364
2033.00,0.0361
2032.00,0.0361
2031.00,0.0363
2030.00,0.0364
2029.00,0.0363
2028.00,0.0361
2027.00,0.0358
2026.00,0.0356
2025.00,0.0353
2024.00,0.0350
2023.00,0.0347
2022.00,0.0347
2021.00,0.0348
2020.00,0.0348
2019.00,0.0348
2018.00,0.0347
2017.00,0.0346
2016.00,0.0347
2015.00,0.0350
2014.00,0.0352
2013.00,0.0352
2012.00,0.0351
2011.00,0.0350
2010.00,0.0351
2009.00,0.0353
2008.00,0.0354
2007.00,0.0354
2006.00,0.0352
2005.00,0.0351
2004.00,0.0350
2003.00,0.0352
2002.00,0.0355
2001.00,0.0360
2000.00,0.0362
1999.00,0.0361
1998.00,0.0360
1997.00,0.0360
1996.00,0.0361
1995.00,0.0363
1994.00,0.0365
1993.00,0.0367
1992.00,0.0366
1991.00,0.0364
1990.00,0.0360
1989.00,0.0358
1988.00,0.0358
1987.00,0.0358
1986.00,0.0359
1985.00,0.0359
1984.00,0.0360
1983.00,0.0361
1982.00,0.0361
1981.00,0.0360
1980.00,0.0357
1979.00,0.0353
1978.00,0.0349
1977.00,0.0345
1976.00,0.0346
1975.00,0.0349
1974.00,0.0353
1973.00,0.0355
1972.00,0.0353
1971.00,0.0349
1970.00,0.0348
1969.00,0.0349
1968.00,0.0350
1967.00,0.0350
1966.00,0.0349
1965.00,0.0349
1964.00,0.0350
1963.00,0.0351
1962.00,0.0351
1961.00,0.0352
1960.00,0.0354
1959.00,0.0356
1958.00,0.0356
1957.00,0.0354
1956.00,0.0352
1955.00,0.0351
1954.00,0.0352
1953.00,0.0353
1952.00,0.0353
1951.00,0.0352
1950.00,0.0351
1949.00,0.0351
1948.00,0.0351
1947.00,0.0353
1946.00,0.0353
1945.00,0.0353
1944.00,0.0351
1943.00,0.0349
1942.00,0.0349
1941.00,0.0350
1940.00,0.0350
1939.00,0.0350
1938.00,0.0349
1937.00,0.0350
1936.00,0.0349
1935.00,0.0348
1934.00,0.0347
1933.00,0.0346
1932.00,0.0347
1931.00,0.0349
1930.00,0.0351
1929.00,0.0354
1928.00,0.0355
1927.00,0.0356
1926.00,0.0357
1925.00,0.0356
1924.00,0.0355
1923.00,0.0354
1922.00,0.0354
1921.00,0.0354
1920.00,0.0353
1919.00,0.0353
1918.00,0.0353
1917.00,0.0353
1916.00,0.0354
1915.00,0.0354
1914.00,0.0354
1913.00,0.0354
1912.00,0.0353
1911.00,0.0353
1910.00,0.0353
1909.00,0.0353
1908.00,0.0353
1907.00,0.0353
1906.00,0.0353
1905.00,0.0354
1904.00,0.0354
1903.00,0.0355
1902.00,0.0355
1901.00,0.0354
1900.00,0.0353
1899.00,0.0353
1898.00,0.0354
1897.00,0.0353
1896.00,0.0352
1895.00,0.0351
1894.00,0.0351
1893.00,0.0351
1892.00,0.0352
1891.00,0.0352
1890.00,0.0353
1889.00,0.0353
1888.00,0.0353
1887.00,0.0352
1886.00,0.0351
1885.00,0.0351
1884.00,0.0351
1883.00,0.0351
1882.00,0.0351
1881.00,0.0351
1880.00,0.0351
1879.00,0.0351
1878.00,0.0350
1877.00,0.0350
1876.00,0.0350
1875.00,0.0351
1874.00,0.0353
1873.00,0.0353
1872.00,0.0353
1871.00,0.0353
1870.00,0.0352
1869.00,0.0351
1868.00,0.0350
1867.00,0.0350
1866.00,0.0351
1865.00,0.0351
1864.00,0.0351
1863.00,0.0350
1862.00,0.0349
1861.00,0.0349
1860.00,0.0348
1859.00,0.0348
1858.00,0.0348
1857.00,0.0349
1856.00,0.0349
1855.00,0.0350
1854.00,0.0350
1853.00,0.0349
1852.00,0.0349
1851.00,0.0349
1850.00,0.0349
1849.00,0.0348
1848.00,0.0347
1847.00,0.0347
1846.00,0.0349
1845.00,0.0350
1844.00,0.0350
1843.00,0.0348
1842.00,0.0348
1841.00,0.0348
1840.00,0.0348
1839.00,0.0347
1838.00,0.0347
1837.00,0.0347
1836.00,0.0347
1835.00,0.0346
1834.00,0.0346
1833.00,0.0346
1832.00,0.0346
1831.00,0.0347
1830.00,0.0347
1829.00,0.0346
1828.00,0.0346
1827.00,0.0346
1826.00,0.0345
1825.00,0.0345
1824.00,0.0345
1823.00,0.0345
1822.00,0.0345
1821.00,0.0345
1820.00,0.0344
1819.00,0.0343
1818.00,0.0342
1817.00,0.0341
1816.00,0.0341
1815.00,0.0341
1814.00,0.0340
1813.00,0.0340
1812.00,0.0340
1811.00,0.0340
1810.00,0.0340
1809.00,0.0341
1808.00,0.0341
1807.00,0.0341
1806.00,0.0341
1805.00,0.0341
1804.00,0.0340
1803.00,0.0339
1802.00,0.0339
1801.00,0.0339
1800.00,0.0340
1799.00,0.0339
1798.00,0.0339
1797.00,0.0338
1796.00,0.0338
1795.00,0.0337
1794.00,0.0337
1793.00,0.0337
1792.00,0.0338
1791.00,0.0338
1790.00,0.0338
1789.00,0.0337
1788.00,0.0337
1787.00,0.0337
1786.00,0.0337
1785.00,0.0336
1784.00,0.0336
1783.00,0.0336
1782.00,0.0335
1781.00,0.0334
1780.00,0.0333
1779.00,0.0333
1778.00,0.0333
1777.00,0.0333
1776.00,0.0334
1775.00,0.0334
1774.00,0.0334
1773.00,0.0334
1772.00,0.0333
1771.00,0.0332
1770.00,0.0332
1769.00,0.0334
1768.00,0.0334
1767.00,0.0334
1766.00,0.0334
1765.00,0.0334
1764.00,0.0335
1763.00,0.0334
1762.00,0.0333
1761.00,0.0332
1760.00,0.0332
1759.00,0.0333
1758.00,0.0333
1757.00,0.0332
1756.00,0.0333
1755.00,0.0333
1754.00,0.0334
1753.00,0.0334
1752.00,0.0333
1751.00,0.0331
1750.00,0.0331
1749.00,0.0332
1748.00,0.0333
1747.00,0.0334
1746.00,0.0335
1745.00,0.0335
1744.00,0.0335
1743.00,0.0336
1742.00,0.0337
1741.00,0.0338
1740.00,0.0338
1739.00,0.0337
1738.00,0.0337
1737.00,0.0339
1736.00,0.0340
1735.00,0.0340
1734.00,0.0339
1733.00,0.0337
1732.00,0.0337
1731.00,0.0338
1730.00,0.0339
1729.00,0.0340
1728.00,0.0340
1727.00,0.0341
1726.00,0.0341
1725.00,0.0341
1724.00,0.0342
1723.00,0.0342
1722.00,0.0343
1721.00,0.0343
1720.00,0.0343
1719.00,0.0341
1718.00,0.0341
1717.00,0.0342
1716.00,0.0344
1715.00,0.0345
1714.00,0.0346
1713.00,0.0347
1712.00,0.0347
1711.00,0.0347
1710.00,0.0346
1709.00,0.0346
1708.00,0.0345
1707.00,0.0345
1706.00,0.0344
1705.00,0.0345
1704.00,0.0347
1703.00,0.0349
1702.00,0.0351
1701.00,0.0351
1700.00,0.0349
1699.00,0.0347
1698.00,0.0348
1697.00,0.0351
1696.00,0.0352
1695.00,0.0350
1694.00,0.0349
1693.00,0.0349
1692.00,0.0350
1691.00,0.0349
1690.00,0.0349
1689.00,0.0349
1688.00,0.0350
1687.00,0.0351
1686.00,0.0349
1685.00,0.0347
1684.00,0.0347
1683.00,0.0347
1682.00,0.0348
1681.00,0.0349
1680.00,0.0349
1679.00,0.0351
1678.00,0.0353
1677.00,0.0355
1676.00,0.0356
1675.00,0.0356
1674.00,0.0354
1673.00,0.0353
1672.00,0.0353
1671.00,0.0353
1670.00,0.0355
1669.00,0.0356
1668.00,0.0356
1667.00,0.0356
1666.00,0.0356
1665.00,0.0357
1664.00,0.0357
1663.00,0.0357
1662.00,0.0357
1661.00,0.0358
1660.00,0.0359
1659.00,0.0360
1658.00,0.0361
1657.00,0.0362
1656.00,0.0361
1655.00,0.0360
1654.00,0.0360
1653.00,0.0362
1652.00,0.0359
1651.00,0.0358
1650.00,0.0360
1649.00,0.0360
1648.00,0.0360
1647.00,0.0362
1646.00,0.0364
1645.00,0.0364
1644.00,0.0365
1643.00,0.0365
1642.00,0.0365
1641.00,0.0364
1640.00,0.0364
1639.00,0.0363
1638.00,0.0364
1637.00,0.0365
1636.00,0.0368
1635.00,0.0370
1634.00,0.0369
1633.00,0.0367
1632.00,0.0366
1631.00,0.0366
1630.00,0.0366
1629.00,0.0367
1628.00,0.0367
1627.00,0.0368
1626.00,0.0370
1625.00,0.0371
1624.00,0.0372
1623.00,0.0373
1622.00,0.0373
1621.00,0.0373
1620.00,0.0373
1619.00,0.0373
1618.00,0.0373
1617.00,0.0373
1616.00,0.0373
1615.00,0.0374
1614.00,0.0374
1613.00,0.0375
1612.00,0.0375
1611.00,0.0375
1610.00,0.0376
1609.00,0.0376
1608.00,0.0377
1607.00,0.0378
1606.00,0.0379
1605.00,0.0380
1604.00,0.0380
1603.00,0.0380
1602.00,0.0380
1601.00,0.0380
1600.00,0.0380
1599.00,0.0381
1598.00,0.0382
1597.00,0.0383
1596.00,0.0384
1595.00,0.0385
1594.00,0.0386
1593.00,0.0387
1592.00,0.0387
1591.00,0.0387
1590.00,0.0388
1589.00,0.0389
1588.00,0.0390
1587.00,0.0392
1586.00,0.0393
1585.00,0.0393
1584.00,0.0394
1583.00,0.0394
1582.00,0.0395
1581.00,0.0395
1580.00,0.0395
1579.00,0.0396
1578.00,0.0398
1577.00,0.0400
1576.00,0.0401
1575.00,0.0400
1574.00,0.0400
1573.00,0.0400
1572.00,0.0401
1571.00,0.0401
1570.00,0.0403
1569.00,0.0404
1568.00,0.0405
1567.00,0.0405
1566.00,0.0405
1565.00,0.0404
1564.00,0.0404
1563.00,0.0405
1562.00,0.0406
1561.00,0.0404
1560.00,0.0404
1559.00,0.0411
1558.00,0.0412
1557.00,0.0410
1556.00,0.0409
1555.00,0.0410
1554.00,0.0411
1553.00,0.0411
1552.00,0.0411
1551.00,0.0411
1550.00,0.0411
1549.00,0.0411
1548.00,0.0410
1547.00,0.0410
1546.00,0.0409
1545.00,0.0408
1544.00,0.0408
1543.00,0.0408
1542.00,0.0408
1541.00,0.0410
1540.00,0.0413
1539.00,0.0413
1538.00,0.0411
1537.00,0.0410
1536.00,0.0410
1535.00,0.0409
1534.00,0.0409
1533.00,0.0409
1532.00,0.0408
1531.00,0.0408
1530.00,0.0407
1529.00,0.0407
1528.00,0.0406
1527.00,0.0405
1526.00,0.0404
1525.00,0.0402
1524.00,0.0401
1523.00,0.0400
1522.00,0.0400
1521.00,0.0401
1520.00,0.0402
1519.00,0.0402
1518.00,0.0402
1517.00,0.0401
1516.00,0.0401
1515.00,0.0401
1514.00,0.0401
1513.00,0.0399
1512.00,0.0398
1511.00,0.0396
1510.00,0.0394
1509.00,0.0393
1508.00,0.0394
1507.00,0.0400
1506.00,0.0402
1505.00,0.0399
1504.00,0.0397
1503.00,0.0396
1502.00,0.0395
1501.00,0.0393
1500.00,0.0393
1499.00,0.0393
1498.00,0.0394
1497.00,0.0395
1496.00,0.0396
1495.00,0.0395
1494.00,0.0392
1493.00,0.0390
1492.00,0.0388
1491.00,0.0387
1490.00,0.0388
1489.00,0.0390
1488.00,0.0391
1487.00,0.0390
1486.00,0.0390
1485.00,0.0389
1484.00,0.0388
1483.00,0.0387
1482.00,0.0387
1481.00,0.0387
1480.00,0.0387
1479.00,0.0386
1478.00,0.0385
1477.00,0.0385
1476.00,0.0385
1475.00,0.0385
1474.00,0.0385
1473.00,0.0387
1472.00,0.0389
1471.00,0.0390
1470.00,0.0391
1469.00,0.0391
1468.00,0.0392
1467.00,0.0391
1466.00,0.0391
1465.00,0.0390
1464.00,0.0390
1463.00,0.0389
1462.00,0.0388
1461.00,0.0387
1460.00,0.0386
1459.00,0.0385
1458.00,0.0387
1457.00,0.0390
1456.00,0.0391
1455.00,0.0390
1454.00,0.0389
1453.00,0.0389
1452.00,0.0390
1451.00,0.0391
1450.00,0.0392
1449.00,0.0393
1448.00,0.0394
1447.00,0.0395
1446.00,0.0395
1445.00,0.0395
1444.00,0.0395
1443.00,0.0394
1442.00,0.0394
1441.00,0.0394
1440.00,0.0394
1439.00,0.0396
1438.00,0.0397
1437.00,0.0398
1436.00,0.0399
1435.00,0.0398
1434.00,0.0397
1433.00,0.0396
1432.00,0.0396
1431.00,0.0396
1430.00,0.0396
1429.00,0.0396
1428.00,0.0396
1427.00,0.0396
1426.00,0.0396
1425.00,0.0396
1424.00,0.0396
1423.00,0.0398
1422.00,0.0398
1421.00,0.0399
1420.00,0.0399
1419.00,0.0399
1418.00,0.0400
1417.00,0.0401
1416.00,0.0402
1415.00,0.0402
1414.00,0.0400
1413.00,0.0399
1412.00,0.0398
1411.00,0.0397
1410.00,0.0397
1409.00,0.0397
1408.00,0.0396
1407.00,0.0396
1406.00,0.0395
1405.00,0.0395
1404.00,0.0394
1403.00,0.0394
1402.00,0.0392
1401.00,0.0391
1400.00,0.0390
1399.00,0.0389
1398.00,0.0389
1397.00,0.0389
1396.00,0.0389
1395.00,0.0390
1394.00,0.0390
1393.00,0.0390
1392.00,0.0389
1391.00,0.0389
1390.00,0.0389
1389.00,0.0389
1388.00,0.0389
1387.00,0.0389
1386.00,0.0389
1385.00,0.0389
1384.00,0.0388
1383.00,0.0389
1382.00,0.0389
1381.00,0.0390
1380.00,0.0391
1379.00,0.0392
1378.00,0.0393
1377.00,0.0394
1376.00,0.0394
1375.00,0.0395
1374.00,0.0396
1373.00,0.0397
1372.00,0.0398
1371.00,0.0398
1370.00,0.0398
1369.00,0.0399
1368.00,0.0399
1367.00,0.0399
1366.00,0.0398
1365.00,0.0398
1364.00,0.0398
1363.00,0.0399
1362.00,0.0400
1361.00,0.0402
1360.00,0.0402
1359.00,0.0402
1358.00,0.0402
1357.00,0.0402
1356.00,0.0403
1355.00,0.0403
1354.00,0.0403
1353.00,0.0404
1352.00,0.0404
1351.00,0.0403
1350.00,0.0403
1349.00,0.0402
1348.00,0.0403
1347.00,0.0403
1346.00,0.0403
1345.00,0.0403
1344.00,0.0403
1343.00,0.0403
1342.00,0.0402
1341.00,0.0403
1340.00,0.0404
1339.00,0.0405
1338.00,0.0406
1337.00,0.0407
1336.00,0.0407
1335.00,0.0407
1334.00,0.0407
1333.00,0.0407
1332.00,0.0407
1331.00,0.0407
1330.00,0.0407
1329.00,0.0407
1328.00,0.0408
1327.00,0.0408
1326.00,0.0408
1325.00,0.0408
1324.00,0.0409
1323.00,0.0410
1322.00,0.0410
1321.00,0.0411
1320.00,0.0411
1319.00,0.0411
1318.00,0.0410
1317.00,0.0409
1316.00,0.0408
1315.00,0.0408
1314.00,0.0409
1313.00,0.0410
1312.00,0.0411
1311.00,0.0412
1310.00,0.0413
1309.00,0.0413
1308.00,0.0412
1307.00,0.0412
1306.00,0.0411
1305.00,0.0411
1304.00,0.0412
1303.00,0.0413
1302.00,0.0413
1301.00,0.0414
1300.00,0.0413
1299.00,0.0413
1298.00,0.0412
1297.00,0.0411
1296.00,0.0410
1295.00,0.0410
1294.00,0.0410
1293.00,0.0411
1292.00,0.0411
1291.00,0.0412
1290.00,0.0412
1289.00,0.0412
1288.00,0.0412
1287.00,0.0411
1286.00,0.0411
1285.00,0.0411
1284.00,0.0412
1283.00,0.0413
1282.00,0.0413
1281.00,0.0413
1280.00,0.0412
1279.00,0.0412
1278.00,0.0411
1277.00,0.0411
1276.00,0.0411
1275.00,0.0412
1274.00,0.0412
1273.00,0.0412
1272.00,0.0411
1271.00,0.0411
1270.00,0.0412
1269.00,0.0412
1268.00,0.0412
1267.00,0.0413
1266.00,0.0413
1265.00,0.0413
1264.00,0.0413
1263.00,0.0413
1262.00,0.0413
1261.00,0.0413
1260.00,0.0414
1259.00,0.0415
1258.00,0.0415
1257.00,0.0415
1256.00,0.0415
1255.00,0.0415
1254.00,0.0415
1253.00,0.0417
1252.00,0.0418
1251.00,0.0418
1250.00,0.0418
1249.00,0.0418
1248.00,0.0419
1247.00,0.0420
1246.00,0.0421
1245.00,0.0422
1244.00,0.0423
1243.00,0.0424
1242.00,0.0423
1241.00,0.0423
1240.00,0.0423
1239.00,0.0424
1238.00,0.0426
1237.00,0.0427
1236.00,0.0427
1235.00,0.0428
1234.00,0.0428
1233.00,0.0428
1232.00,0.0429
1231.00,0.0429
1230.00,0.0430
1229.00,0.0430
1228.00,0.0431
1227.00,0.0431
1226.00,0.0431
1225.00,0.0431
1224.00,0.0431
1223.00,0.0431
1222.00,0.0431
1221.00,0.0432
1220.00,0.0433
1219.00,0.0433
1218.00,0.0434
1217.00,0.0434
1216.00,0.0435
1215.00,0.0436
1214.00,0.0436
1213.00,0.0436
1212.00,0.0437
1211.00,0.0438
1210.00,0.0439
1209.00,0.0440
1208.00,0.0441
1207.00,0.0441
1206.00,0.0440
1205.00,0.0440
1204.00,0.0439
1203.00,0.0440
1202.00,0.0440
1201.00,0.0440
1200.00,0.0440
1199.00,0.0441
1198.00,0.0441
1197.00,0.0441
1196.00,0.0440
1195.00,0.0440
1194.00,0.0440
1193.00,0.0440
1192.00,0.0440
1191.00,0.0441
1190.00,0.0440
1189.00,0.0439
1188.00,0.0439
1187.00,0.0439
1186.00,0.0440
1185.00,0.0441
1184.00,0.0441
1183.00,0.0440
1182.00,0.0439
1181.00,0.0438
1180.00,0.0437
1179.00,0.0437
1178.00,0.0437
1177.00,0.0438
1176.00,0.0439
1175.00,0.0440
1174.00,0.0440
1173.00,0.0440
1172.00,0.0440
1171.00,0.0439
1170.00,0.0439
1169.00,0.0439
1168.00,0.0439
1167.00,0.0440
1166.00,0.0441
1165.00,0.0441
1164.00,0.0442
1163.00,0.0442
1162.00,0.0443
1161.00,0.0443
1160.00,0.0444
1159.00,0.0443
1158.00,0.0443
1157.00,0.0443
1156.00,0.0444
1155.00,0.0446
1154.00,0.0447
1153.00,0.0447
1152.00,0.0446
1151.00,0.0445
1150.00,0.0444
1149.00,0.0443
1148.00,0.0443
1147.00,0.0444
1146.00,0.0444
1145.00,0.0445
1144.00,0.0447
1143.00,0.0448
1142.00,0.0450
1141.00,0.0452
1140.00,0.0452
1139.00,0.0452
1138.00,0.0452
1137.00,0.0452
1136.00,0.0453
1135.00,0.0455
1134.00,0.0458
1133.00,0.0460
1132.00,0.0460
1131.00,0.0461
1130.00,0.0462
1129.00,0.0465
1128.00,0.0468
1127.00,0.0470
1126.00,0.0470
1125.00,0.0469
1124.00,0.0471
1123.00,0.0475
1122.00,0.0480
1121.00,0.0486
1120.00,0.0490
1119.00,0.0492
1118.00,0.0494
1117.00,0.0495
1116.00,0.0496
1115.00,0.0498
1114.00,0.0500
1113.00,0.0501
1112.00,0.0501
1111.00,0.0502
1110.00,0.0504
1109.00,0.0506
1108.00,0.0508
1107.00,0.0508
1106.00,0.0508
1105.00,0.0508
1104.00,0.0509
1103.00,0.0512
1102.00,0.0516
1101.00,0.0518
1100.00,0.0520
1099.00,0.0521
1098.00,0.0522
1097.00,0.0522
1096.00,0.0522
1095.00,0.0522
1094.00,0.0523
1093.00,0.0524
1092.00,0.0526
1091.00,0.0528
1090.00,0.0528
1089.00,0.0526
1088.00,0.0526
1087.00,0.0527
1086.00,0.0530
1085.00,0.0532
1084.00,0.0533
1083.00,0.0534
1082.00,0.0535
1081.00,0.0537
1080.00,0.0539
1079.00,0.0542
1078.00,0.0545
1077.00,0.0548
1076.00,0.0548
1075.00,0.0546
1074.00,0.0545
1073.00,0.0544
1072.00,0.0545
1071.00,0.0546
1070.00,0.0546
1069.00,0.0546
1068.00,0.0546
1067.00,0.0548
1066.00,0.0550
1065.00,0.0553
1064.00,0.0556
1063.00,0.0558
1062.00,0.0559
1061.00,0.0558
1060.00,0.0556
1059.00,0.0556
1058.00,0.0557
1057.00,0.0560
1056.00,0.0562
1055.00,0.0565
1054.00,0.0567
1053.00,0.0568
1052.00,0.0570
1051.00,0.0572
1050.00,0.0574
1049.00,0.0576
1048.00,0.0579
1047.00,0.0581
1046.00,0.0583
1045.00,0.0586
1044.00,0.0589
1043.00,0.0592
1042.00,0.0593
1041.00,0.0593
1040.00,0.0594
1039.00,0.0596
1038.00,0.0600
1037.00,0.0604
1036.00,0.0606
1035.00,0.0608
1034.00,0.0608
1033.00,0.0609
1032.00,0.0609
1031.00,0.0609
1030.00,0.0608
1029.00,0.0606
1028.00,0.0604
1027.00,0.0602
1026.00,0.0602
1025.00,0.0602
1024.00,0.0601
1023.00,0.0599
1022.00,0.0597
1021.00,0.0595
1020.00,0.0593
1019.00,0.0592
1018.00,0.0590
1017.00,0.0590
1016.00,0.0591
1015.00,0.0593
1014.00,0.0596
1013.00,0.0598
1012.00,0.0600
1011.00,0.0600
1010.00,0.0601
1009.00,0.0601
1008.00,0.0602
1007.00,0.0602
1006.00,0.0602
1005.00,0.0602
1004.00,0.0603
1003.00,0.0603
1002.00,0.0603
1001.00,0.0601
1000.00,0.0598
999.00,0.0592
998.00,0.0587
997.00,0.0583
996.00,0.0582
995.00,0.0580
994.00,0.0578
993.00,0.0574
992.00,0.0570
991.00,0.0565
990.00,0.0562
989.00,0.0559
988.00,0.0557
987.00,0.0556
986.00,0.0555
985.00,0.0553
984.00,0.0550
983.00,0.0547
982.00,0.0545
981.00,0.0543
980.00,0.0541
979.00,0.0539
978.00,0.0536
977.00,0.0533
976.00,0.0529
975.00,0.0527
974.00,0.0525
973.00,0.0525
972.00,0.0523
971.00,0.0522
970.00,0.0519
969.00,0.0517
968.00,0.0515
967.00,0.0513
966.00,0.0511
965.00,0.0509
964.00,0.0508
963.00,0.0508
962.00,0.0508
961.00,0.0508
960.00,0.0507
959.00,0.0505
958.00,0.0504
957.00,0.0503
956.00,0.0502
955.00,0.0501
954.00,0.0499
953.00,0.0498
952.00,0.0498
951.00,0.0499
950.00,0.0501
949.00,0.0502
948.00,0.0503
947.00,0.0502
946.00,0.0500
945.00,0.0499
944.00,0.0498
943.00,0.0498
942.00,0.0498
941.00,0.0499
940.00,0.0501
939.00,0.0504
938.00,0.0505
937.00,0.0505
936.00,0.0503
935.00,0.0501
934.00,0.0500
933.00,0.0501
932.00,0.0503
931.00,0.0505
930.00,0.0506
929.00,0.0506
928.00,0.0506
927.00,0.0507
926.00,0.0508
925.00,0.0509
924.00,0.0509
923.00,0.0510
922.00,0.0510
921.00,0.0511
920.00,0.0511
919.00,0.0512
918.00,0.0514
917.00,0.0516
916.00,0.0519
915.00,0.0521
914.00,0.0521
913.00,0.0520
912.00,0.0520
911.00,0.0519
910.00,0.0516
909.00,0.0513
908.00,0.0509
907.00,0.0506
906.00,0.0506
905.00,0.0508
904.00,0.0511
903.00,0.0513
902.00,0.0512
901.00,0.0509
900.00,0.0506
899.00,0.0503
898.00,0.0503
897.00,0.0503
896.00,0.0503
895.00,0.0501
894.00,0.0498
893.00,0.0495
892.00,0.0492
891.00,0.0490
890.00,0.0490
889.00,0.0490
888.00,0.0491
887.00,0.0489
886.00,0.0485
885.00,0.0482
884.00,0.0481
883.00,0.0483
882.00,0.0486
881.00,0.0488
880.00,0.0488
879.00,0.0486
878.00,0.0483
877.00,0.0480
876.00,0.0477
875.00,0.0475
874.00,0.0474
873.00,0.0473
872.00,0.0473
871.00,0.0473
870.00,0.0473
869.00,0.0471
868.00,0.0469
867.00,0.0467
866.00,0.0466
865.00,0.0467
864.00,0.0468
863.00,0.0470
862.00,0.0470
861.00,0.0471
860.00,0.0471
859.00,0.0469
858.00,0.0467
857.00,0.0465
856.00,0.0465
855.00,0.0467
854.00,0.0469
853.00,0.0469
852.00,0.0468
851.00,0.0467
850.00,0.0467
849.00,0.0468
848.00,0.0470
847.00,0.0471
846.00,0.0472
845.00,0.0473
844.00,0.0473
843.00,0.0473
842.00,0.0471
841.00,0.0468
840.00,0.0466
839.00,0.0465
838.00,0.0465
837.00,0.0467
836.00,0.0468
835.00,0.0468
834.00,0.0467
833.00,0.0467
832.00,0.0467
831.00,0.0467
830.00,0.0466
829.00,0.0464
828.00,0.0463
827.00,0.0464
826.00,0.0466
825.00,0.0469
824.00,0.0471
823.00,0.0472
822.00,0.0472
821.00,0.0472
820.00,0.0473
819.00,0.0474
818.00,0.0475
817.00,0.0473
816.00,0.0470
815.00,0.0467
814.00,0.0467
813.00,0.0470
812.00,0.0473
811.00,0.0475
810.00,0.0476
809.00,0.0477
808.00,0.0478
807.00,0.0478
806.00,0.0477
805.00,0.0477
804.00,0.0477
803.00,0.0478
802.00,0.0480
801.00,0.0484
800.00,0.0488
799.00,0.0491
798.00,0.0492
797.00,0.0491
796.00,0.0489
795.00,0.0488
794.00,0.0487
793.00,0.0487
792.00,0.0488
791.00,0.0489
790.00,0.0491
789.00,0.0491
788.00,0.0490
787.00,0.0490
786.00,0.0491
785.00,0.0494
784.00,0.0497
783.00,0.0499
782.00,0.0499
781.00,0.0497
780.00,0.0494
779.00,0.0492
778.00,0.0491
777.00,0.0491
776.00,0.0492
775.00,0.0491
774.00,0.0488
773.00,0.0485
772.00,0.0484
771.00,0.0483
770.00,0.0483
769.00,0.0484
768.00,0.0484
767.00,0.0483
766.00,0.0481
765.00,0.0480
764.00,0.0479
763.00,0.0478
762.00,0.0477
761.00,0.0476
760.00,0.0476
759.00,0.0479
758.00,0.0483
757.00,0.0485
756.00,0.0485
755.00,0.0483
754.00,0.0482
753.00,0.0482
752.00,0.0483
751.00,0.0485
750.00,0.0487
749.00,0.0488
748.00,0.0489
747.00,0.0489
746.00,0.0487
745.00,0.0485
744.00,0.0483
743.00,0.0483
742.00,0.0483
741.00,0.0482
740.00,0.0480
739.00,0.0478
738.00,0.0476
737.00,0.0476
736.00,0.0476
735.00,0.0475
734.00,0.0474
733.00,0.0472
732.00,0.0472
731.00,0.0472
730.00,0.0474
729.00,0.0478
728.00,0.0482
727.00,0.0486
726.00,0.0488
725.00,0.0488
724.00,0.0486
723.00,0.0484
722.00,0.0483
721.00,0.0482
720.00,0.0482
719.00,0.0483
718.00,0.0484
717.00,0.0484
716.00,0.0482
715.00,0.0479
714.00,0.0477
713.00,0.0478
712.00,0.0480
711.00,0.0481
710.00,0.0481
709.00,0.0481
708.00,0.0482
707.00,0.0485
706.00,0.0489
705.00,0.0493
704.00,0.0498
703.00,0.0501
702.00,0.0502
701.00,0.0500
700.00,0.0498
699.00,0.0499
698.00,0.0500
697.00,0.0502
696.00,0.0503
695.00,0.0504
694.00,0.0504
693.00,0.0506
692.00,0.0507
691.00,0.0508
690.00,0.0508
689.00,0.0507
688.00,0.0506
687.00,0.0503
686.00,0.0501
685.00,0.0498
684.00,0.0495
683.00,0.0492
682.00,0.0491
681.00,0.0493
680.00,0.0496
679.00,0.0499
678.00,0.0501
677.00,0.0501
676.00,0.0499
675.00,0.0498
674.00,0.0497
673.00,0.0497
672.00,0.0500
671.00,0.0505
670.00,0.0510
669.00,0.0515
668.00,0.0522
667.00,0.0525
666.00,0.0522
665.00,0.0515
664.00,0.0510
663.00,0.0506
662.00,0.0502
661.00,0.0496
660.00,0.0489
659.00,0.0485
658.00,0.0487
657.00,0.0493
656.00,0.0502
655.00,0.0507
654.00,0.0504
653.00,0.0496
652.00,0.0488
651.00,0.0486
650.00,0.0489
