Created as New Dataset,Monday, April 03 2023
cm-1,A
4000.00,0.0190
3999.00,0.0190
3998.00,0.0190
3997.00,0.0190
3996.00,0.0190
3995.00,0.0190
3994.00,0.0189
3993.00,0.0189
3992.00,0.0189
3991.00,0.0189
3990.00,0.0189
3989.00,0.0189
3988.00,0.0188
3987.00,0.0188
3986.00,0.0188
3985.00,0.0188
3984.00,0.0188
3983.00,0.0188
3982.00,0.0188
3981.00,0.0188
3980.00,0.0188
3979.00,0.0188
3978.00,0.0188
3977.00,0.0188
3976.00,0.0188
3975.00,0.0187
3974.00,0.0187
3973.00,0.0187
3972.00,0.0188
3971.00,0.0188
3970.00,0.0188
3969.00,0.0188
3968.00,0.0187
3967.00,0.0187
3966.00,0.0187
3965.00,0.0187
3964.00,0.0187
3963.00,0.0188
3962.00,0.0188
3961.00,0.0188
3960.00,0.0188
3959.00,0.0187
3958.00,0.0187
3957.00,0.0187
3956.00,0.0187
3955.00,0.0187
3954.00,0.0186
3953.00,0.0187
3952.00,0.0187
3951.00,0.0188
3950.00,0.0189
3949.00,0.0190
3948.00,0.0190
3947.00,0.0191
3946.00,0.0191
3945.00,0.0190
3944.00,0.0189
3943.00,0.0188
3942.00,0.0187
3941.00,0.0187
3940.00,0.0187
3939.00,0.0187
3938.00,0.0186
3937.00,0.0186
3936.00,0.0187
3935.00,0.0187
3934.00,0.0187
3933.00,0.0187
3932.00,0.0188
3931.00,0.0188
3930.00,0.0188
3929.00,0.0188
3928.00,0.0188
3927.00,0.0188
3926.00,0.0188
3925.00,0.0188
3924.00,0.0188
3923.00,0.0189
3922.00,0.0189
3921.00,0.0189
3920.00,0.0188
3919.00,0.0188
3918.00,0.0188
3917.00,0.0188
3916.00,0.0188
3915.00,0.0187
3914.00,0.0186
3913.00,0.0185
3912.00,0.0184
3911.00,0.0184
3910.00,0.0184
3909.00,0.0185
3908.00,0.0187
3907.00,0.0188
3906.00,0.0189
3905.00,0.0189
3904.00,0.0190
3903.00,0.0191
3902.00,0.0193
3901.00,0.0194
3900.00,0.0192
3899.00,0.0190
3898.00,0.0189
3897.00,0.0188
3896.00,0.0187
3895.00,0.0187
3894.00,0.0187
3893.00,0.0186
3892.00,0.0185
3891.00,0.0185
3890.00,0.0185
3889.00,0.0186
3888.00,0.0187
3887.00,0.0186
3886.00,0.0184
3885.00,0.0184
3884.00,0.0186
3883.00,0.0187
3882.00,0.0187
3881.00,0.0186
3880.00,0.0184
3879.00,0.0185
3878.00,0.0186
3877.00,0.0188
3876.00,0.0188
3875.00,0.0187
3874.00,0.0186
3873.00,0.0187
3872.00,0.0189
3871.00,0.0189
3870.00,0.0187
3869.00,0.0187
3868.00,0.0187
3867.00,0.0188
3866.00,0.0188
3865.00,0.0187
3864.00,0.0187
3863.00,0.0188
3862.00,0.0188
3861.00,0.0188
3860.00,0.0187
3859.00,0.0186
3858.00,0.0186
3857.00,0.0187
3856.00,0.0187
3855.00,0.0185
3854.00,0.0183
3853.00,0.0185
3852.00,0.0186
3851.00,0.0186
3850.00,0.0185
3849.00,0.0183
3848.00,0.0182
3847.00,0.0182
3846.00,0.0182
3845.00,0.0183
3844.00,0.0183
3843.00,0.0184
3842.00,0.0186
3841.00,0.0187
3840.00,0.0188
3839.00,0.0188
3838.00,0.0187
3837.00,0.0187
3836.00,0.0186
3835.00,0.0186
3834.00,0.0186
3833.00,0.0185
3832.00,0.0184
3831.00,0.0183
3830.00,0.0183
3829.00,0.0183
3828.00,0.0183
3827.00,0.0181
3826.00,0.0181
3825.00,0.0183
3824.00,0.0186
3823.00,0.0187
3822.00,0.0186
3821.00,0.0185
3820.00,0.0185
3819.00,0.0186
3818.00,0.0187
3817.00,0.0185
3816.00,0.0182
3815.00,0.0182
3814.00,0.0183
3813.00,0.0183
3812.00,0.0182
3811.00,0.0180
3810.00,0.0179
3809.00,0.0179
3808.00,0.0179
3807.00,0.0179
3806.00,0.0181
3805.00,0.0184
3804.00,0.0187
3803.00,0.0187
3802.00,0.0185
3801.00,0.0184
3800.00,0.0184
3799.00,0.0184
3798.00,0.0183
3797.00,0.0181
3796.00,0.0180
3795.00,0.0180
3794.00,0.0180
3793.00,0.0180
3792.00,0.0179
3791.00,0.0178
3790.00,0.0178
3789.00,0.0179
3788.00,0.0180
3787.00,0.0180
3786.00,0.0181
3785.00,0.0181
3784.00,0.0181
3783.00,0.0181
3782.00,0.0181
3781.00,0.0181
3780.00,0.0179
3779.00,0.0179
3778.00,0.0179
3777.00,0.0179
3776.00,0.0179
3775.00,0.0179
3774.00,0.0178
3773.00,0.0178
3772.00,0.0179
3771.00,0.0178
3770.00,0.0178
3769.00,0.0178
3768.00,0.0179
3767.00,0.0179
3766.00,0.0179
3765.00,0.0178
3764.00,0.0179
3763.00,0.0180
3762.00,0.0181
3761.00,0.0181
3760.00,0.0180
3759.00,0.0180
3758.00,0.0180
3757.00,0.0179
3756.00,0.0179
3755.00,0.0180
3754.00,0.0180
3753.00,0.0179
3752.00,0.0179
3751.00,0.0180
3750.00,0.0182
3749.00,0.0183
3748.00,0.0186
3747.00,0.0188
3746.00,0.0188
3745.00,0.0185
3744.00,0.0182
3743.00,0.0181
3742.00,0.0182
3741.00,0.0182
3740.00,0.0182
3739.00,0.0183
3738.00,0.0184
3737.00,0.0185
3736.00,0.0185
3735.00,0.0185
3734.00,0.0184
3733.00,0.0182
3732.00,0.0180
3731.00,0.0178
3730.00,0.0178
3729.00,0.0178
3728.00,0.0178
3727.00,0.0178
3726.00,0.0178
3725.00,0.0179
3724.00,0.0179
3723.00,0.0179
3722.00,0.0178
3721.00,0.0178
3720.00,0.0178
3719.00,0.0178
3718.00,0.0177
3717.00,0.0177
3716.00,0.0178
3715.00,0.0179
3714.00,0.0180
3713.00,0.0181
3712.00,0.0182
3711.00,0.0182
3710.00,0.0182
3709.00,0.0181
3708.00,0.0181
3707.00,0.0181
3706.00,0.0182
3705.00,0.0183
3704.00,0.0183
3703.00,0.0182
3702.00,0.0181
3701.00,0.0181
3700.00,0.0182
3699.00,0.0183
3698.00,0.0183
3697.00,0.0183
3696.00,0.0182
3695.00,0.0183
3694.00,0.0184
3693.00,0.0185
3692.00,0.0186
3691.00,0.0187
3690.00,0.0189
3689.00,0.0189
3688.00,0.0189
3687.00,0.0188
3686.00,0.0186
3685.00,0.0185
3684.00,0.0183
3683.00,0.0182
3682.00,0.0181
3681.00,0.0180
3680.00,0.0180
3679.00,0.0181
3678.00,0.0182
3677.00,0.0183
3676.00,0.0183
3675.00,0.0183
3674.00,0.0185
3673.00,0.0187
3672.00,0.0188
3671.00,0.0188
3670.00,0.0188
3669.00,0.0188
3668.00,0.0189
3667.00,0.0188
3666.00,0.0187
3665.00,0.0186
3664.00,0.0185
3663.00,0.0186
3662.00,0.0186
3661.00,0.0188
3660.00,0.0189
3659.00,0.0191
3658.00,0.0193
3657.00,0.0194
3656.00,0.0195
3655.00,0.0197
3654.00,0.0199
3653.00,0.0201
3652.00,0.0202
3651.00,0.0202
3650.00,0.0203
3649.00,0.0206
3648.00,0.0207
3647.00,0.0207
3646.00,0.0205
3645.00,0.0204
3644.00,0.0203
3643.00,0.0202
3642.00,0.0201
3641.00,0.0201
3640.00,0.0201
3639.00,0.0202
3638.00,0.0203
3637.00,0.0203
3636.00,0.0204
3635.00,0.0205
3634.00,0.0205
3633.00,0.0206
3632.00,0.0208
3631.00,0.0209
3630.00,0.0210
3629.00,0.0212
3628.00,0.0214
3627.00,0.0215
3626.00,0.0214
3625.00,0.0212
3624.00,0.0211
3623.00,0.0211
3622.00,0.0213
3621.00,0.0215
3620.00,0.0217
3619.00,0.0219
3618.00,0.0220
3617.00,0.0221
3616.00,0.0221
3615.00,0.0220
3614.00,0.0218
3613.00,0.0218
3612.00,0.0217
3611.00,0.0218
3610.00,0.0218
3609.00,0.0219
3608.00,0.0219
3607.00,0.0220
3606.00,0.0219
3605.00,0.0218
3604.00,0.0217
3603.00,0.0217
3602.00,0.0218
3601.00,0.0219
3600.00,0.0220
3599.00,0.0220
3598.00,0.0220
3597.00,0.0220
3596.00,0.0220
3595.00,0.0220
3594.00,0.0220
3593.00,0.0220
3592.00,0.0220
3591.00,0.0221
3590.00,0.0222
3589.00,0.0223
3588.00,0.0225
3587.00,0.0226
3586.00,0.0227
3585.00,0.0227
3584.00,0.0226
3583.00,0.0225
3582.00,0.0224
3581.00,0.0223
3580.00,0.0223
3579.00,0.0223
3578.00,0.0223
3577.00,0.0224
3576.00,0.0224
3575.00,0.0224
3574.00,0.0225
3573.00,0.0226
3572.00,0.0227
3571.00,0.0228
3570.00,0.0229
3569.00,0.0230
3568.00,0.0232
3567.00,0.0235
3566.00,0.0236
3565.00,0.0235
3564.00,0.0234
3563.00,0.0232
3562.00,0.0231
3561.00,0.0231
3560.00,0.0232
3559.00,0.0232
3558.00,0.0232
3557.00,0.0233
3556.00,0.0234
3555.00,0.0234
3554.00,0.0235
3553.00,0.0236
3552.00,0.0237
3551.00,0.0238
3550.00,0.0239
3549.00,0.0240
3548.00,0.0240
3547.00,0.0241
3546.00,0.0242
3545.00,0.0243
3544.00,0.0243
3543.00,0.0242
3542.00,0.0241
3541.00,0.0241
3540.00,0.0240
3539.00,0.0239
3538.00,0.0239
3537.00,0.0239
3536.00,0.0239
3535.00,0.0240
3534.00,0.0242
3533.00,0.0243
3532.00,0.0244
3531.00,0.0245
3530.00,0.0245
3529.00,0.0244
3528.00,0.0244
3527.00,0.0245
3526.00,0.0246
3525.00,0.0247
3524.00,0.0249
3523.00,0.0250
3522.00,0.0250
3521.00,0.0250
3520.00,0.0249
3519.00,0.0247
3518.00,0.0246
3517.00,0.0246
3516.00,0.0246
3515.00,0.0246
3514.00,0.0248
3513.00,0.0249
3512.00,0.0250
3511.00,0.0251
3510.00,0.0251
3509.00,0.0251
3508.00,0.0251
3507.00,0.0252
3506.00,0.0252
3505.00,0.0253
3504.00,0.0254
3503.00,0.0255
3502.00,0.0255
3501.00,0.0255
3500.00,0.0255
3499.00,0.0255
3498.00,0.0256
3497.00,0.0257
3496.00,0.0257
3495.00,0.0258
3494.00,0.0258
3493.00,0.0258
3492.00,0.0258
3491.00,0.0257
3490.00,0.0257
3489.00,0.0257
3488.00,0.0257
3487.00,0.0258
3486.00,0.0258
3485.00,0.0258
3484.00,0.0258
3483.00,0.0259
3482.00,0.0260
3481.00,0.0260
3480.00,0.0261
3479.00,0.0261
3478.00,0.0261
3477.00,0.0261
3476.00,0.0262
3475.00,0.0263
3474.00,0.0263
3473.00,0.0264
3472.00,0.0264
3471.00,0.0264
3470.00,0.0264
3469.00,0.0265
3468.00,0.0265
3467.00,0.0265
3466.00,0.0266
3465.00,0.0267
3464.00,0.0268
3463.00,0.0267
3462.00,0.0266
3461.00,0.0265
3460.00,0.0266
3459.00,0.0267
3458.00,0.0268
3457.00,0.0268
3456.00,0.0268
3455.00,0.0267
3454.00,0.0267
3453.00,0.0268
3452.00,0.0270
3451.00,0.0271
3450.00,0.0272
3449.00,0.0272
3448.00,0.0273
3447.00,0.0273
3446.00,0.0274
3445.00,0.0274
3444.00,0.0274
3443.00,0.0274
3442.00,0.0273
3441.00,0.0272
3440.00,0.0271
3439.00,0.0271
3438.00,0.0272
3437.00,0.0272
3436.00,0.0273
3435.00,0.0273
3434.00,0.0273
3433.00,0.0274
3432.00,0.0274
3431.00,0.0275
3430.00,0.0275
3429.00,0.0275
3428.00,0.0274
3427.00,0.0275
3426.00,0.0275
3425.00,0.0276
3424.00,0.0278
3423.00,0.0279
3422.00,0.0279
3421.00,0.0279
3420.00,0.0279
3419.00,0.0279
3418.00,0.0279
3417.00,0.0279
3416.00,0.0279
3415.00,0.0279
3414.00,0.0279
3413.00,0.0279
3412.00,0.0280
3411.00,0.0280
3410.00,0.0280
3409.00,0.0281
3408.00,0.0281
3407.00,0.0281
3406.00,0.0282
3405.00,0.0281
3404.00,0.0281
3403.00,0.0280
3402.00,0.0281
3401.00,0.0282
3400.00,0.0283
3399.00,0.0284
3398.00,0.0284
3397.00,0.0284
3396.00,0.0283
3395.00,0.0283
3394.00,0.0283
3393.00,0.0283
3392.00,0.0283
3391.00,0.0284
3390.00,0.0284
3389.00,0.0285
3388.00,0.0285
3387.00,0.0284
3386.00,0.0284
3385.00,0.0284
3384.00,0.0285
3383.00,0.0285
3382.00,0.0285
3381.00,0.0285
3380.00,0.0286
3379.00,0.0286
3378.00,0.0287
3377.00,0.0287
3376.00,0.0287
3375.00,0.0287
3374.00,0.0287
3373.00,0.0286
3372.00,0.0286
3371.00,0.0285
3370.00,0.0286
3369.00,0.0286
3368.00,0.0287
3367.00,0.0287
3366.00,0.0287
3365.00,0.0286
3364.00,0.0285
3363.00,0.0286
3362.00,0.0287
3361.00,0.0288
3360.00,0.0289
3359.00,0.0289
3358.00,0.0289
3357.00,0.0288
3356.00,0.0288
3355.00,0.0288
3354.00,0.0289
3353.00,0.0289
3352.00,0.0289
3351.00,0.0289
3350.00,0.0289
3349.00,0.0289
3348.00,0.0288
3347.00,0.0288
3346.00,0.0288
3345.00,0.0287
3344.00,0.0287
3343.00,0.0287
3342.00,0.0288
3341.00,0.0288
3340.00,0.0289
3339.00,0.0290
3338.00,0.0290
3337.00,0.0289
3336.00,0.0289
3335.00,0.0288
3334.00,0.0288
3333.00,0.0288
3332.00,0.0288
3331.00,0.0288
3330.00,0.0287
3329.00,0.0287
3328.00,0.0288
3327.00,0.0288
3326.00,0.0289
3325.00,0.0290
3324.00,0.0290
3323.00,0.0290
3322.00,0.0290
3321.00,0.0289
3320.00,0.0289
3319.00,0.0288
3318.00,0.0289
3317.00,0.0289
3316.00,0.0289
3315.00,0.0289
3314.00,0.0288
3313.00,0.0288
3312.00,0.0288
3311.00,0.0288
3310.00,0.0288
3309.00,0.0289
3308.00,0.0289
3307.00,0.0290
3306.00,0.0289
3305.00,0.0289
3304.00,0.0289
3303.00,0.0289
3302.00,0.0289
3301.00,0.0289
3300.00,0.0288
3299.00,0.0288
3298.00,0.0288
3297.00,0.0289
3296.00,0.0289
3295.00,0.0289
3294.00,0.0289
3293.00,0.0289
3292.00,0.0288
3291.00,0.0288
3290.00,0.0289
3289.00,0.0289
3288.00,0.0289
3287.00,0.0289
3286.00,0.0289
3285.00,0.0289
3284.00,0.0289
3283.00,0.0289
3282.00,0.0289
3281.00,0.0289
3280.00,0.0289
3279.00,0.0289
3278.00,0.0289
3277.00,0.0289
3276.00,0.0290
3275.00,0.0289
3274.00,0.0289
3273.00,0.0289
3272.00,0.0289
3271.00,0.0289
3270.00,0.0290
3269.00,0.0290
3268.00,0.0291
3267.00,0.0291
3266.00,0.0290
3265.00,0.0289
3264.00,0.0288
3263.00,0.0288
3262.00,0.0288
3261.00,0.0288
3260.00,0.0289
3259.00,0.0289
3258.00,0.0289
3257.00,0.0289
3256.00,0.0288
3255.00,0.0288
3254.00,0.0289
3253.00,0.0289
3252.00,0.0289
3251.00,0.0289
3250.00,0.0288
3249.00,0.0288
3248.00,0.0288
3247.00,0.0287
3246.00,0.0288
3245.00,0.0288
3244.00,0.0288
3243.00,0.0288
3242.00,0.0288
3241.00,0.0288
3240.00,0.0288
3239.00,0.0288
3238.00,0.0289
3237.00,0.0289
3236.00,0.0290
3235.00,0.0290
3234.00,0.0291
3233.00,0.0290
3232.00,0.0290
3231.00,0.0289
3230.00,0.0288
3229.00,0.0288
3228.00,0.0287
3227.00,0.0287
3226.00,0.0287
3225.00,0.0287
3224.00,0.0287
3223.00,0.0287
3222.00,0.0287
3221.00,0.0287
3220.00,0.0287
3219.00,0.0287
3218.00,0.0287
3217.00,0.0288
3216.00,0.0288
3215.00,0.0288
3214.00,0.0288
3213.00,0.0287
3212.00,0.0287
3211.00,0.0286
3210.00,0.0286
3209.00,0.0286
3208.00,0.0286
3207.00,0.0286
3206.00,0.0286
3205.00,0.0286
3204.00,0.0287
3203.00,0.0287
3202.00,0.0286
3201.00,0.0286
3200.00,0.0286
3199.00,0.0286
3198.00,0.0286
3197.00,0.0286
3196.00,0.0286
3195.00,0.0286
3194.00,0.0285
3193.00,0.0285
3192.00,0.0285
3191.00,0.0284
3190.00,0.0284
3189.00,0.0283
3188.00,0.0283
3187.00,0.0282
3186.00,0.0281
3185.00,0.0282
3184.00,0.0283
3183.00,0.0283
3182.00,0.0284
3181.00,0.0284
3180.00,0.0284
3179.00,0.0282
3178.00,0.0281
3177.00,0.0280
3176.00,0.0280
3175.00,0.0280
3174.00,0.0280
3173.00,0.0281
3172.00,0.0281
3171.00,0.0281
3170.00,0.0280
3169.00,0.0280
3168.00,0.0280
3167.00,0.0280
3166.00,0.0280
3165.00,0.0281
3164.00,0.0281
3163.00,0.0281
3162.00,0.0280
3161.00,0.0279
3160.00,0.0278
3159.00,0.0277
3158.00,0.0276
3157.00,0.0276
3156.00,0.0276
3155.00,0.0277
3154.00,0.0278
3153.00,0.0278
3152.00,0.0278
3151.00,0.0277
3150.00,0.0277
3149.00,0.0276
3148.00,0.0276
3147.00,0.0276
3146.00,0.0275
3145.00,0.0275
3144.00,0.0275
3143.00,0.0275
3142.00,0.0275
3141.00,0.0275
3140.00,0.0274
3139.00,0.0274
3138.00,0.0274
3137.00,0.0274
3136.00,0.0274
3135.00,0.0274
3134.00,0.0274
3133.00,0.0273
3132.00,0.0273
3131.00,0.0273
3130.00,0.0273
3129.00,0.0273
3128.00,0.0272
3127.00,0.0272
3126.00,0.0272
3125.00,0.0272
3124.00,0.0272
3123.00,0.0272
3122.00,0.0271
3121.00,0.0271
3120.00,0.0271
3119.00,0.0271
3118.00,0.0271
3117.00,0.0270
3116.00,0.0270
3115.00,0.0270
3114.00,0.0270
3113.00,0.0270
3112.00,0.0269
3111.00,0.0269
3110.00,0.0269
3109.00,0.0269
3108.00,0.0269
3107.00,0.0269
3106.00,0.0270
3105.00,0.0270
3104.00,0.0270
3103.00,0.0269
3102.00,0.0269
3101.00,0.0268
3100.00,0.0267
3099.00,0.0266
3098.00,0.0266
3097.00,0.0266
3096.00,0.0267
3095.00,0.0267
3094.00,0.0268
3093.00,0.0269
3092.00,0.0269
3091.00,0.0268
3090.00,0.0267
3089.00,0.0266
3088.00,0.0265
3087.00,0.0265
3086.00,0.0265
3085.00,0.0266
3084.00,0.0266
3083.00,0.0266
3082.00,0.0266
3081.00,0.0266
3080.00,0.0266
3079.00,0.0265
3078.00,0.0265
3077.00,0.0265
3076.00,0.0265
3075.00,0.0265
3074.00,0.0265
3073.00,0.0264
3072.00,0.0264
3071.00,0.0264
3070.00,0.0264
3069.00,0.0264
3068.00,0.0264
3067.00,0.0264
3066.00,0.0264
3065.00,0.0263
3064.00,0.0262
3063.00,0.0261
3062.00,0.0261
3061.00,0.0262
3060.00,0.0262
3059.00,0.0262
3058.00,0.0262
3057.00,0.0262
3056.00,0.0262
3055.00,0.0261
3054.00,0.0261
3053.00,0.0260
3052.00,0.0260
3051.00,0.0260
3050.00,0.0261
3049.00,0.0261
3048.00,0.0261
3047.00,0.0260
3046.00,0.0260
3045.00,0.0260
3044.00,0.0259
3043.00,0.0258
3042.00,0.0257
3041.00,0.0256
3040.00,0.0256
3039.00,0.0256
3038.00,0.0256
3037.00,0.0257
3036.00,0.0257
3035.00,0.0257
3034.00,0.0257
3033.00,0.0257
3032.00,0.0257
3031.00,0.0256
3030.00,0.0255
3029.00,0.0254
3028.00,0.0253
3027.00,0.0253
3026.00,0.0252
3025.00,0.0252
3024.00,0.0252
3023.00,0.0252
3022.00,0.0252
3021.00,0.0252
3020.00,0.0252
3019.00,0.0251
3018.00,0.0250
3017.00,0.0249
3016.00,0.0249
3015.00,0.0249
3014.00,0.0248
3013.00,0.0248
3012.00,0.0247
3011.00,0.0247
3010.00,0.0247
3009.00,0.0246
3008.00,0.0244
3007.00,0.0243
3006.00,0.0242
3005.00,0.0242
3004.00,0.0242
3003.00,0.0241
3002.00,0.0240
3001.00,0.0239
3000.00,0.0238
2999.00,0.0237
2998.00,0.0236
2997.00,0.0235
2996.00,0.0235
2995.00,0.0234
2994.00,0.0234
2993.00,0.0233
2992.00,0.0232
2991.00,0.0231
2990.00,0.0231
2989.00,0.0230
2988.00,0.0230
2987.00,0.0229
2986.00,0.0227
2985.00,0.0225
2984.00,0.0222
2983.00,0.0221
2982.00,0.0220
2981.00,0.0220
2980.00,0.0221
2979.00,0.0222
2978.00,0.0223
2977.00,0.0224
2976.00,0.0225
2975.00,0.0225
2974.00,0.0225
2973.00,0.0224
2972.00,0.0223
2971.00,0.0224
2970.00,0.0224
2969.00,0.0225
2968.00,0.0226
2967.00,0.0227
2966.00,0.0227
2965.00,0.0227
2964.00,0.0227
2963.00,0.0228
2962.00,0.0228
2961.00,0.0228
2960.00,0.0228
2959.00,0.0227
2958.00,0.0227
2957.00,0.0227
2956.00,0.0228
2955.00,0.0229
2954.00,0.0230
2953.00,0.0231
2952.00,0.0231
2951.00,0.0231
2950.00,0.0232
2949.00,0.0232
2948.00,0.0232
2947.00,0.0232
2946.00,0.0231
2945.00,0.0231
2944.00,0.0232
2943.00,0.0232
2942.00,0.0233
2941.00,0.0233
2940.00,0.0233
2939.00,0.0232
2938.00,0.0231
2937.00,0.0231
2936.00,0.0231
2935.00,0.0231
2934.00,0.0230
2933.00,0.0230
2932.00,0.0229
2931.00,0.0229
2930.00,0.0228
2929.00,0.0228
2928.00,0.0228
2927.00,0.0228
2926.00,0.0227
2925.00,0.0226
2924.00,0.0226
2923.00,0.0225
2922.00,0.0225
2921.00,0.0224
2920.00,0.0224
2919.00,0.0223
2918.00,0.0222
2917.00,0.0222
2916.00,0.0222
2915.00,0.0223
2914.00,0.0224
2913.00,0.0225
2912.00,0.0225
2911.00,0.0226
2910.00,0.0226
2909.00,0.0226
2908.00,0.0226
2907.00,0.0226
2906.00,0.0226
2905.00,0.0226
2904.00,0.0226
2903.00,0.0226
2902.00,0.0226
2901.00,0.0226
2900.00,0.0226
2899.00,0.0225
2898.00,0.0225
2897.00,0.0225
2896.00,0.0225
2895.00,0.0225
2894.00,0.0225
2893.00,0.0225
2892.00,0.0225
2891.00,0.0225
2890.00,0.0226
2889.00,0.0225
2888.00,0.0225
2887.00,0.0225
2886.00,0.0225
2885.00,0.0225
2884.00,0.0224
2883.00,0.0224
2882.00,0.0224
2881.00,0.0223
2880.00,0.0224
2879.00,0.0224
2878.00,0.0225
2877.00,0.0225
2876.00,0.0224
2875.00,0.0224
2874.00,0.0223
2873.00,0.0223
2872.00,0.0223
2871.00,0.0223
2870.00,0.0223
2869.00,0.0223
2868.00,0.0223
2867.00,0.0222
2866.00,0.0222
2865.00,0.0222
2864.00,0.0222
2863.00,0.0222
2862.00,0.0222
2861.00,0.0222
2860.00,0.0222
2859.00,0.0222
2858.00,0.0223
2857.00,0.0222
2856.00,0.0222
2855.00,0.0221
2854.00,0.0220
2853.00,0.0220
2852.00,0.0220
2851.00,0.0221
2850.00,0.0221
2849.00,0.0221
2848.00,0.0221
2847.00,0.0221
2846.00,0.0221
2845.00,0.0221
2844.00,0.0222
2843.00,0.0222
2842.00,0.0222
2841.00,0.0222
2840.00,0.0221
2839.00,0.0221
2838.00,0.0221
2837.00,0.0221
2836.00,0.0222
2835.00,0.0222
2834.00,0.0223
2833.00,0.0222
2832.00,0.0221
2831.00,0.0220
2830.00,0.0220
2829.00,0.0220
2828.00,0.0220
2827.00,0.0220
2826.00,0.0220
2825.00,0.0220
2824.00,0.0220
2823.00,0.0220
2822.00,0.0220
2821.00,0.0219
2820.00,0.0219
2819.00,0.0218
2818.00,0.0218
2817.00,0.0218
2816.00,0.0218
2815.00,0.0218
2814.00,0.0217
2813.00,0.0217
2812.00,0.0217
2811.00,0.0217
2810.00,0.0217
2809.00,0.0217
2808.00,0.0217
2807.00,0.0216
2806.00,0.0216
2805.00,0.0216
2804.00,0.0216
2803.00,0.0216
2802.00,0.0216
2801.00,0.0216
2800.00,0.0216
2799.00,0.0216
2798.00,0.0216
2797.00,0.0216
2796.00,0.0216
2795.00,0.0216
2794.00,0.0215
2793.00,0.0215
2792.00,0.0215
2791.00,0.0215
2790.00,0.0215
2789.00,0.0215
2788.00,0.0215
2787.00,0.0214
2786.00,0.0214
2785.00,0.0214
2784.00,0.0214
2783.00,0.0213
2782.00,0.0213
2781.00,0.0212
2780.00,0.0211
2779.00,0.0211
2778.00,0.0212
2777.00,0.0212
2776.00,0.0212
2775.00,0.0212
2774.00,0.0212
2773.00,0.0212
2772.00,0.0212
2771.00,0.0212
2770.00,0.0211
2769.00,0.0210
2768.00,0.0209
2767.00,0.0209
2766.00,0.0209
2765.00,0.0209
2764.00,0.0210
2763.00,0.0210
2762.00,0.0210
2761.00,0.0210
2760.00,0.0210
2759.00,0.0210
2758.00,0.0209
2757.00,0.0209
2756.00,0.0209
2755.00,0.0209
2754.00,0.0209
2753.00,0.0209
2752.00,0.0209
2751.00,0.0209
2750.00,0.0209
2749.00,0.0209
2748.00,0.0208
2747.00,0.0208
2746.00,0.0208
2745.00,0.0208
2744.00,0.0208
2743.00,0.0208
2742.00,0.0208
2741.00,0.0208
2740.00,0.0208
2739.00,0.0207
2738.00,0.0207
2737.00,0.0206
2736.00,0.0206
2735.00,0.0206
2734.00,0.0207
2733.00,0.0207
2732.00,0.0207
2731.00,0.0207
2730.00,0.0206
2729.00,0.0206
2728.00,0.0206
2727.00,0.0206
2726.00,0.0205
2725.00,0.0205
2724.00,0.0205
2723.00,0.0205
2722.00,0.0205
2721.00,0.0204
2720.00,0.0204
2719.00,0.0205
2718.00,0.0205
2717.00,0.0205
2716.00,0.0205
2715.00,0.0205
2714.00,0.0204
2713.00,0.0204
2712.00,0.0204
2711.00,0.0204
2710.00,0.0204
2709.00,0.0204
2708.00,0.0203
2707.00,0.0203
2706.00,0.0203
2705.00,0.0203
2704.00,0.0203
2703.00,0.0203
2702.00,0.0203
2701.00,0.0203
2700.00,0.0203
2699.00,0.0203
2698.00,0.0202
2697.00,0.0202
2696.00,0.0201
2695.00,0.0201
2694.00,0.0202
2693.00,0.0202
2692.00,0.0202
2691.00,0.0202
2690.00,0.0202
2689.00,0.0202
2688.00,0.0202
2687.00,0.0202
2686.00,0.0202
2685.00,0.0202
2684.00,0.0201
2683.00,0.0201
2682.00,0.0201
2681.00,0.0201
2680.00,0.0200
2679.00,0.0200
2678.00,0.0199
2677.00,0.0199
2676.00,0.0199
2675.00,0.0199
2674.00,0.0199
2673.00,0.0199
2672.00,0.0199
2671.00,0.0199
2670.00,0.0199
2669.00,0.0198
2668.00,0.0199
2667.00,0.0199
2666.00,0.0199
2665.00,0.0199
2664.00,0.0199
2663.00,0.0199
2662.00,0.0199
2661.00,0.0199
2660.00,0.0199
2659.00,0.0199
2658.00,0.0200
2657.00,0.0199
2656.00,0.0199
2655.00,0.0199
2654.00,0.0200
2653.00,0.0200
2652.00,0.0200
2651.00,0.0201
2650.00,0.0201
2649.00,0.0201
2648.00,0.0200
2647.00,0.0199
2646.00,0.0199
2645.00,0.0199
2644.00,0.0199
2643.00,0.0200
2642.00,0.0200
2641.00,0.0200
2640.00,0.0200
2639.00,0.0200
2638.00,0.0200
2637.00,0.0200
2636.00,0.0200
2635.00,0.0200
2634.00,0.0200
2633.00,0.0200
2632.00,0.0200
2631.00,0.0200
2630.00,0.0199
2629.00,0.0199
2628.00,0.0198
2627.00,0.0198
2626.00,0.0198
2625.00,0.0199
2624.00,0.0199
2623.00,0.0199
2622.00,0.0200
2621.00,0.0200
2620.00,0.0200
2619.00,0.0200
2618.00,0.0200
2617.00,0.0200
2616.00,0.0200
2615.00,0.0199
2614.00,0.0198
2613.00,0.0199
2612.00,0.0199
2611.00,0.0200
2610.00,0.0200
2609.00,0.0199
2608.00,0.0198
2607.00,0.0198
2606.00,0.0198
2605.00,0.0199
2604.00,0.0199
2603.00,0.0200
2602.00,0.0200
2601.00,0.0200
2600.00,0.0200
2599.00,0.0199
2598.00,0.0199
2597.00,0.0198
2596.00,0.0198
2595.00,0.0197
2594.00,0.0198
2593.00,0.0198
2592.00,0.0199
2591.00,0.0199
2590.00,0.0199
2589.00,0.0199
2588.00,0.0198
2587.00,0.0198
2586.00,0.0198
2585.00,0.0197
2584.00,0.0197
2583.00,0.0197
2582.00,0.0197
2581.00,0.0198
2580.00,0.0198
2579.00,0.0198
2578.00,0.0199
2577.00,0.0198
2576.00,0.0197
2575.00,0.0197
2574.00,0.0196
2573.00,0.0197
2572.00,0.0197
2571.00,0.0197
2570.00,0.0197
2569.00,0.0196
2568.00,0.0196
2567.00,0.0197
2566.00,0.0198
2565.00,0.0199
2564.00,0.0199
2563.00,0.0198
2562.00,0.0198
2561.00,0.0198
2560.00,0.0198
2559.00,0.0197
2558.00,0.0197
2557.00,0.0197
2556.00,0.0198
2555.00,0.0198
2554.00,0.0198
2553.00,0.0197
2552.00,0.0196
2551.00,0.0195
2550.00,0.0194
2549.00,0.0193
2548.00,0.0192
2547.00,0.0192
2546.00,0.0192
2545.00,0.0193
2544.00,0.0193
2543.00,0.0193
2542.00,0.0193
2541.00,0.0192
2540.00,0.0191
2539.00,0.0190
2538.00,0.0189
2537.00,0.0189
2536.00,0.0190
2535.00,0.0191
2534.00,0.0192
2533.00,0.0193
2532.00,0.0193
2531.00,0.0193
2530.00,0.0192
2529.00,0.0191
2528.00,0.0191
2527.00,0.0190
2526.00,0.0189
2525.00,0.0189
2524.00,0.0189
2523.00,0.0190
2522.00,0.0190
2521.00,0.0191
2520.00,0.0191
2519.00,0.0191
2518.00,0.0192
2517.00,0.0193
2516.00,0.0193
2515.00,0.0192
2514.00,0.0191
2513.00,0.0190
2512.00,0.0190
2511.00,0.0190
2510.00,0.0191
2509.00,0.0192
2508.00,0.0193
2507.00,0.0193
2506.00,0.0192
2505.00,0.0191
2504.00,0.0190
2503.00,0.0190
2502.00,0.0190
2501.00,0.0191
2500.00,0.0192
2499.00,0.0192
2498.00,0.0192
2497.00,0.0192
2496.00,0.0192
2495.00,0.0192
2494.00,0.0192
2493.00,0.0193
2492.00,0.0193
2491.00,0.0193
2490.00,0.0193
2489.00,0.0193
2488.00,0.0193
2487.00,0.0192
2486.00,0.0192
2485.00,0.0191
2484.00,0.0190
2483.00,0.0189
2482.00,0.0189
2481.00,0.0190
2480.00,0.0191
2479.00,0.0191
2478.00,0.0191
2477.00,0.0190
2476.00,0.0189
2475.00,0.0189
2474.00,0.0188
2473.00,0.0188
2472.00,0.0189
2471.00,0.0189
2470.00,0.0189
2469.00,0.0189
2468.00,0.0189
2467.00,0.0188
2466.00,0.0188
2465.00,0.0188
2464.00,0.0187
2463.00,0.0187
2462.00,0.0188
2461.00,0.0188
2460.00,0.0188
2459.00,0.0189
2458.00,0.0189
2457.00,0.0189
2456.00,0.0189
2455.00,0.0189
2454.00,0.0190
2453.00,0.0190
2452.00,0.0190
2451.00,0.0190
2450.00,0.0190
2449.00,0.0189
2448.00,0.0188
2447.00,0.0187
2446.00,0.0187
2445.00,0.0186
2444.00,0.0186
2443.00,0.0186
2442.00,0.0186
2441.00,0.0187
2440.00,0.0187
2439.00,0.0187
2438.00,0.0186
2437.00,0.0186
2436.00,0.0186
2435.00,0.0186
2434.00,0.0185
2433.00,0.0185
2432.00,0.0185
2431.00,0.0185
2430.00,0.0185
2429.00,0.0186
2428.00,0.0186
2427.00,0.0186
2426.00,0.0186
2425.00,0.0185
2424.00,0.0185
2423.00,0.0184
2422.00,0.0184
2421.00,0.0184
2420.00,0.0184
2419.00,0.0184
2418.00,0.0184
2417.00,0.0184
2416.00,0.0184
2415.00,0.0183
2414.00,0.0183
2413.00,0.0184
2412.00,0.0184
2411.00,0.0184
2410.00,0.0184
2409.00,0.0184
2408.00,0.0184
2407.00,0.0183
2406.00,0.0183
2405.00,0.0182
2404.00,0.0182
2403.00,0.0181
2402.00,0.0181
2401.00,0.0180
2400.00,0.0180
2399.00,0.0180
2398.00,0.0180
2397.00,0.0180
2396.00,0.0180
2395.00,0.0179
2394.00,0.0179
2393.00,0.0179
2392.00,0.0179
2391.00,0.0179
2390.00,0.0179
2389.00,0.0179
2388.00,0.0179
2387.00,0.0179
2386.00,0.0178
2385.00,0.0178
2384.00,0.0177
2383.00,0.0176
2382.00,0.0176
2381.00,0.0177
2380.00,0.0178
2379.00,0.0178
2378.00,0.0178
2377.00,0.0176
2376.00,0.0174
2375.00,0.0174
2374.00,0.0175
2373.00,0.0176
2372.00,0.0177
2371.00,0.0177
2370.00,0.0176
2369.00,0.0173
2368.00,0.0171
2367.00,0.0171
2366.00,0.0173
2365.00,0.0176
2364.00,0.0176
2363.00,0.0175
2362.00,0.0174
2361.00,0.0174
2360.00,0.0175
2359.00,0.0176
2358.00,0.0176
2357.00,0.0175
2356.00,0.0174
2355.00,0.0173
2354.00,0.0172
2353.00,0.0172
2352.00,0.0172
2351.00,0.0173
2350.00,0.0174
2349.00,0.0175
2348.00,0.0174
2347.00,0.0172
2346.00,0.0170
2345.00,0.0170
2344.00,0.0172
2343.00,0.0174
2342.00,0.0176
2341.00,0.0178
2340.00,0.0179
2339.00,0.0178
2338.00,0.0175
2337.00,0.0172
2336.00,0.0171
2335.00,0.0171
2334.00,0.0172
2333.00,0.0173
2332.00,0.0172
2331.00,0.0172
2330.00,0.0171
2329.00,0.0171
2328.00,0.0172
2327.00,0.0174
2326.00,0.0177
2325.00,0.0177
2324.00,0.0177
2323.00,0.0175
2322.00,0.0175
2321.00,0.0175
2320.00,0.0175
2319.00,0.0174
2318.00,0.0173
2317.00,0.0173
2316.00,0.0173
2315.00,0.0174
2314.00,0.0174
2313.00,0.0173
2312.00,0.0173
2311.00,0.0174
2310.00,0.0175
2309.00,0.0176
2308.00,0.0176
2307.00,0.0175
2306.00,0.0174
2305.00,0.0174
2304.00,0.0173
2303.00,0.0172
2302.00,0.0172
2301.00,0.0172
2300.00,0.0172
2299.00,0.0173
2298.00,0.0174
2297.00,0.0174
2296.00,0.0174
2295.00,0.0174
2294.00,0.0175
2293.00,0.0176
2292.00,0.0178
2291.00,0.0178
2290.00,0.0178
2289.00,0.0178
2288.00,0.0178
2287.00,0.0179
2286.00,0.0180
2285.00,0.0181
2284.00,0.0182
2283.00,0.0183
2282.00,0.0183
2281.00,0.0182
2280.00,0.0181
2279.00,0.0181
2278.00,0.0181
2277.00,0.0180
2276.00,0.0180
2275.00,0.0178
2274.00,0.0177
2273.00,0.0176
2272.00,0.0176
2271.00,0.0176
2270.00,0.0177
2269.00,0.0178
2268.00,0.0178
2267.00,0.0177
2266.00,0.0178
2265.00,0.0178
2264.00,0.0179
2263.00,0.0179
2262.00,0.0179
2261.00,0.0179
2260.00,0.0179
2259.00,0.0179
2258.00,0.0177
2257.00,0.0175
2256.00,0.0173
2255.00,0.0173
2254.00,0.0173
2253.00,0.0174
2252.00,0.0174
2251.00,0.0174
2250.00,0.0173
2249.00,0.0173
2248.00,0.0173
2247.00,0.0173
2246.00,0.0175
2245.00,0.0177
2244.00,0.0178
2243.00,0.0179
2242.00,0.0179
2241.00,0.0178
2240.00,0.0176
2239.00,0.0175
2238.00,0.0174
2237.00,0.0174
2236.00,0.0174
2235.00,0.0175
2234.00,0.0175
2233.00,0.0176
2232.00,0.0175
2231.00,0.0174
2230.00,0.0173
2229.00,0.0173
2228.00,0.0174
2227.00,0.0175
2226.00,0.0177
2225.00,0.0177
2224.00,0.0177
2223.00,0.0176
2222.00,0.0175
2221.00,0.0174
2220.00,0.0174
2219.00,0.0175
2218.00,0.0174
2217.00,0.0174
2216.00,0.0174
2215.00,0.0176
2214.00,0.0178
2213.00,0.0179
2212.00,0.0179
2211.00,0.0177
2210.00,0.0175
2209.00,0.0174
2208.00,0.0173
2207.00,0.0174
2206.00,0.0175
2205.00,0.0175
2204.00,0.0175
2203.00,0.0175
2202.00,0.0175
2201.00,0.0174
2200.00,0.0173
2199.00,0.0173
2198.00,0.0173
2197.00,0.0173
2196.00,0.0172
2195.00,0.0171
2194.00,0.0170
2193.00,0.0170
2192.00,0.0170
2191.00,0.0169
2190.00,0.0167
2189.00,0.0166
2188.00,0.0165
2187.00,0.0167
2186.00,0.0171
2185.00,0.0172
2184.00,0.0171
2183.00,0.0169
2182.00,0.0167
2181.00,0.0167
2180.00,0.0169
2179.00,0.0171
2178.00,0.0174
2177.00,0.0175
2176.00,0.0174
2175.00,0.0173
2174.00,0.0172
2173.00,0.0172
2172.00,0.0173
2171.00,0.0175
2170.00,0.0178
2169.00,0.0179
2168.00,0.0180
2167.00,0.0179
2166.00,0.0180
2165.00,0.0182
2164.00,0.0184
2163.00,0.0186
2162.00,0.0185
2161.00,0.0180
2160.00,0.0173
2159.00,0.0164
2158.00,0.0157
2157.00,0.0154
2156.00,0.0155
2155.00,0.0157
2154.00,0.0161
2153.00,0.0163
2152.00,0.0163
2151.00,0.0161
2150.00,0.0158
2149.00,0.0157
2148.00,0.0158
2147.00,0.0161
2146.00,0.0164
2145.00,0.0166
2144.00,0.0166
2143.00,0.0165
2142.00,0.0165
2141.00,0.0165
2140.00,0.0165
2139.00,0.0164
2138.00,0.0162
2137.00,0.0161
2136.00,0.0159
2135.00,0.0158
2134.00,0.0158
2133.00,0.0158
2132.00,0.0158
2131.00,0.0158
2130.00,0.0159
2129.00,0.0160
2128.00,0.0162
2127.00,0.0163
2126.00,0.0163
2125.00,0.0162
2124.00,0.0161
2123.00,0.0161
2122.00,0.0161
2121.00,0.0161
2120.00,0.0161
2119.00,0.0161
2118.00,0.0161
2117.00,0.0161
2116.00,0.0161
2115.00,0.0159
2114.00,0.0158
2113.00,0.0158
2112.00,0.0158
2111.00,0.0160
2110.00,0.0162
2109.00,0.0163
2108.00,0.0164
2107.00,0.0164
2106.00,0.0165
2105.00,0.0165
2104.00,0.0165
2103.00,0.0164
2102.00,0.0164
2101.00,0.0163
2100.00,0.0161
2099.00,0.0159
2098.00,0.0157
2097.00,0.0157
2096.00,0.0158
2095.00,0.0159
2094.00,0.0159
2093.00,0.0159
2092.00,0.0158
2091.00,0.0157
2090.00,0.0156
2089.00,0.0157
2088.00,0.0158
2087.00,0.0158
2086.00,0.0160
2085.00,0.0162
2084.00,0.0164
2083.00,0.0165
2082.00,0.0165
2081.00,0.0164
2080.00,0.0163
2079.00,0.0161
2078.00,0.0161
2077.00,0.0160
2076.00,0.0161
2075.00,0.0162
2074.00,0.0163
2073.00,0.0163
2072.00,0.0163
2071.00,0.0163
2070.00,0.0162
2069.00,0.0161
2068.00,0.0158
2067.00,0.0156
2066.00,0.0156
2065.00,0.0156
2064.00,0.0158
2063.00,0.0160
2062.00,0.0161
2061.00,0.0161
2060.00,0.0159
2059.00,0.0157
2058.00,0.0156
2057.00,0.0156
2056.00,0.0157
2055.00,0.0159
2054.00,0.0160
2053.00,0.0162
2052.00,0.0164
2051.00,0.0164
2050.00,0.0162
2049.00,0.0160
2048.00,0.0160
2047.00,0.0161
2046.00,0.0163
2045.00,0.0163
2044.00,0.0163
2043.00,0.0163
2042.00,0.0163
2041.00,0.0162
2040.00,0.0161
2039.00,0.0160
2038.00,0.0161
2037.00,0.0164
2036.00,0.0166
2035.00,0.0165
2034.00,0.0162
2033.00,0.0160
2032.00,0.0162
2031.00,0.0164
2030.00,0.0165
2029.00,0.0163
2028.00,0.0160
2027.00,0.0158
2026.00,0.0157
2025.00,0.0155
2024.00,0.0152
2023.00,0.0150
2022.00,0.0149
2021.00,0.0148
2020.00,0.0148
2019.00,0.0147
2018.00,0.0146
2017.00,0.0147
2016.00,0.0148
2015.00,0.0150
2014.00,0.0152
2013.00,0.0153
2012.00,0.0153
2011.00,0.0152
2010.00,0.0152
2009.00,0.0153
2008.00,0.0153
2007.00,0.0152
2006.00,0.0149
2005.00,0.0148
2004.00,0.0148
2003.00,0.0150
2002.00,0.0154
2001.00,0.0158
2000.00,0.0160
1999.00,0.0158
1998.00,0.0156
1997.00,0.0156
1996.00,0.0157
1995.00,0.0159
1994.00,0.0160
1993.00,0.0161
1992.00,0.0161
1991.00,0.0160
1990.00,0.0157
1989.00,0.0154
1988.00,0.0152
1987.00,0.0152
1986.00,0.0153
1985.00,0.0154
1984.00,0.0155
1983.00,0.0156
1982.00,0.0157
1981.00,0.0157
1980.00,0.0155
1979.00,0.0150
1978.00,0.0144
1977.00,0.0140
1976.00,0.0140
1975.00,0.0143
1974.00,0.0148
1973.00,0.0151
1972.00,0.0151
1971.00,0.0148
1970.00,0.0146
1969.00,0.0146
1968.00,0.0147
1967.00,0.0147
1966.00,0.0146
1965.00,0.0145
1964.00,0.0145
1963.00,0.0145
1962.00,0.0145
1961.00,0.0145
1960.00,0.0145
1959.00,0.0146
1958.00,0.0146
1957.00,0.0145
1956.00,0.0144
1955.00,0.0144
1954.00,0.0144
1953.00,0.0145
1952.00,0.0145
1951.00,0.0143
1950.00,0.0141
1949.00,0.0140
1948.00,0.0140
1947.00,0.0142
1946.00,0.0142
1945.00,0.0142
1944.00,0.0141
1943.00,0.0139
1942.00,0.0137
1941.00,0.0137
1940.00,0.0136
1939.00,0.0135
1938.00,0.0135
1937.00,0.0135
1936.00,0.0134
1935.00,0.0134
1934.00,0.0133
1933.00,0.0133
1932.00,0.0134
1931.00,0.0135
1930.00,0.0137
1929.00,0.0139
1928.00,0.0140
1927.00,0.0141
1926.00,0.0141
1925.00,0.0142
1924.00,0.0141
1923.00,0.0140
1922.00,0.0139
1921.00,0.0138
1920.00,0.0137
1919.00,0.0136
1918.00,0.0134
1917.00,0.0133
1916.00,0.0134
1915.00,0.0135
1914.00,0.0136
1913.00,0.0136
1912.00,0.0137
1911.00,0.0136
1910.00,0.0135
1909.00,0.0133
1908.00,0.0132
1907.00,0.0131
1906.00,0.0131
1905.00,0.0132
1904.00,0.0133
1903.00,0.0133
1902.00,0.0133
1901.00,0.0133
1900.00,0.0133
1899.00,0.0134
1898.00,0.0134
1897.00,0.0133
1896.00,0.0131
1895.00,0.0130
1894.00,0.0129
1893.00,0.0130
1892.00,0.0131
1891.00,0.0132
1890.00,0.0131
1889.00,0.0131
1888.00,0.0130
1887.00,0.0129
1886.00,0.0129
1885.00,0.0129
1884.00,0.0129
1883.00,0.0129
1882.00,0.0128
1881.00,0.0128
1880.00,0.0128
1879.00,0.0127
1878.00,0.0126
1877.00,0.0126
1876.00,0.0126
1875.00,0.0127
1874.00,0.0128
1873.00,0.0129
1872.00,0.0129
1871.00,0.0130
1870.00,0.0129
1869.00,0.0128
1868.00,0.0126
1867.00,0.0126
1866.00,0.0125
1865.00,0.0125
1864.00,0.0125
1863.00,0.0124
1862.00,0.0123
1861.00,0.0122
1860.00,0.0121
1859.00,0.0121
1858.00,0.0121
1857.00,0.0122
1856.00,0.0123
1855.00,0.0123
1854.00,0.0122
1853.00,0.0121
1852.00,0.0120
1851.00,0.0121
1850.00,0.0121
1849.00,0.0122
1848.00,0.0122
1847.00,0.0122
1846.00,0.0122
1845.00,0.0121
1844.00,0.0119
1843.00,0.0117
1842.00,0.0117
1841.00,0.0117
1840.00,0.0118
1839.00,0.0118
1838.00,0.0117
1837.00,0.0117
1836.00,0.0117
1835.00,0.0117
1834.00,0.0117
1833.00,0.0118
1832.00,0.0120
1831.00,0.0121
1830.00,0.0120
1829.00,0.0119
1828.00,0.0118
1827.00,0.0118
1826.00,0.0117
1825.00,0.0116
1824.00,0.0115
1823.00,0.0114
1822.00,0.0114
1821.00,0.0114
1820.00,0.0114
1819.00,0.0113
1818.00,0.0113
1817.00,0.0112
1816.00,0.0112
1815.00,0.0112
1814.00,0.0112
1813.00,0.0113
1812.00,0.0113
1811.00,0.0113
1810.00,0.0112
1809.00,0.0112
1808.00,0.0113
1807.00,0.0113
1806.00,0.0113
1805.00,0.0113
1804.00,0.0114
1803.00,0.0114
1802.00,0.0114
1801.00,0.0113
1800.00,0.0113
1799.00,0.0112
1798.00,0.0113
1797.00,0.0113
1796.00,0.0114
1795.00,0.0114
1794.00,0.0114
1793.00,0.0113
1792.00,0.0113
1791.00,0.0112
1790.00,0.0112
1789.00,0.0113
1788.00,0.0114
1787.00,0.0115
1786.00,0.0116
1785.00,0.0116
1784.00,0.0117
1783.00,0.0118
1782.00,0.0119
1781.00,0.0119
1780.00,0.0119
1779.00,0.0119
1778.00,0.0120
1777.00,0.0121
1776.00,0.0122
1775.00,0.0124
1774.00,0.0125
1773.00,0.0125
1772.00,0.0124
1771.00,0.0123
1770.00,0.0123
1769.00,0.0124
1768.00,0.0125
1767.00,0.0125
1766.00,0.0126
1765.00,0.0128
1764.00,0.0130
1763.00,0.0130
1762.00,0.0129
1761.00,0.0128
1760.00,0.0129
1759.00,0.0131
1758.00,0.0132
1757.00,0.0132
1756.00,0.0132
1755.00,0.0133
1754.00,0.0135
1753.00,0.0136
1752.00,0.0136
1751.00,0.0136
1750.00,0.0137
1749.00,0.0138
1748.00,0.0140
1747.00,0.0141
1746.00,0.0143
1745.00,0.0145
1744.00,0.0146
1743.00,0.0147
1742.00,0.0148
1741.00,0.0149
1740.00,0.0150
1739.00,0.0151
1738.00,0.0151
1737.00,0.0153
1736.00,0.0156
1735.00,0.0157
1734.00,0.0157
1733.00,0.0159
1732.00,0.0161
1731.00,0.0164
1730.00,0.0166
1729.00,0.0168
1728.00,0.0169
1727.00,0.0171
1726.00,0.0172
1725.00,0.0174
1724.00,0.0177
1723.00,0.0178
1722.00,0.0179
1721.00,0.0181
1720.00,0.0183
1719.00,0.0184
1718.00,0.0184
1717.00,0.0185
1716.00,0.0187
1715.00,0.0188
1714.00,0.0190
1713.00,0.0192
1712.00,0.0193
1711.00,0.0195
1710.00,0.0196
1709.00,0.0197
1708.00,0.0199
1707.00,0.0200
1706.00,0.0201
1705.00,0.0202
1704.00,0.0202
1703.00,0.0203
1702.00,0.0205
1701.00,0.0204
1700.00,0.0203
1699.00,0.0203
1698.00,0.0205
1697.00,0.0208
1696.00,0.0209
1695.00,0.0209
1694.00,0.0209
1693.00,0.0210
1692.00,0.0212
1691.00,0.0214
1690.00,0.0215
1689.00,0.0217
1688.00,0.0217
1687.00,0.0218
1686.00,0.0219
1685.00,0.0219
1684.00,0.0219
1683.00,0.0220
1682.00,0.0222
1681.00,0.0223
1680.00,0.0223
1679.00,0.0224
1678.00,0.0225
1677.00,0.0227
1676.00,0.0230
1675.00,0.0232
1674.00,0.0233
1673.00,0.0234
1672.00,0.0236
1671.00,0.0237
1670.00,0.0239
1669.00,0.0241
1668.00,0.0242
1667.00,0.0243
1666.00,0.0243
1665.00,0.0245
1664.00,0.0246
1663.00,0.0248
1662.00,0.0250
1661.00,0.0252
1660.00,0.0254
1659.00,0.0257
1658.00,0.0259
1657.00,0.0259
1656.00,0.0260
1655.00,0.0260
1654.00,0.0259
1653.00,0.0262
1652.00,0.0266
1651.00,0.0267
1650.00,0.0269
1649.00,0.0272
1648.00,0.0274
1647.00,0.0276
1646.00,0.0278
1645.00,0.0280
1644.00,0.0282
1643.00,0.0283
1642.00,0.0284
1641.00,0.0285
1640.00,0.0287
1639.00,0.0288
1638.00,0.0290
1637.00,0.0292
1636.00,0.0297
1635.00,0.0300
1634.00,0.0301
1633.00,0.0301
1632.00,0.0301
1631.00,0.0301
1630.00,0.0303
1629.00,0.0305
1628.00,0.0307
1627.00,0.0308
1626.00,0.0310
1625.00,0.0312
1624.00,0.0314
1623.00,0.0317
1622.00,0.0319
1621.00,0.0319
1620.00,0.0319
1619.00,0.0319
1618.00,0.0320
1617.00,0.0322
1616.00,0.0324
1615.00,0.0326
1614.00,0.0327
1613.00,0.0328
1612.00,0.0328
1611.00,0.0329
1610.00,0.0331
1609.00,0.0332
1608.00,0.0333
1607.00,0.0334
1606.00,0.0335
1605.00,0.0336
1604.00,0.0337
1603.00,0.0337
1602.00,0.0337
1601.00,0.0337
1600.00,0.0337
1599.00,0.0338
1598.00,0.0339
1597.00,0.0341
1596.00,0.0343
1595.00,0.0344
1594.00,0.0345
1593.00,0.0345
1592.00,0.0345
1591.00,0.0346
1590.00,0.0346
1589.00,0.0347
1588.00,0.0348
1587.00,0.0349
1586.00,0.0350
1585.00,0.0350
1584.00,0.0349
1583.00,0.0349
1582.00,0.0350
1581.00,0.0350
1580.00,0.0350
1579.00,0.0350
1578.00,0.0351
1577.00,0.0353
1576.00,0.0353
1575.00,0.0353
1574.00,0.0351
1573.00,0.0350
1572.00,0.0349
1571.00,0.0349
1570.00,0.0350
1569.00,0.0350
1568.00,0.0350
1567.00,0.0350
1566.00,0.0349
1565.00,0.0347
1564.00,0.0344
1563.00,0.0342
1562.00,0.0340
1561.00,0.0338
1560.00,0.0339
1559.00,0.0342
1558.00,0.0342
1557.00,0.0339
1556.00,0.0336
1555.00,0.0335
1554.00,0.0335
1553.00,0.0334
1552.00,0.0333
1551.00,0.0332
1550.00,0.0331
1549.00,0.0328
1548.00,0.0325
1547.00,0.0323
1546.00,0.0321
1545.00,0.0319
1544.00,0.0317
1543.00,0.0314
1542.00,0.0312
1541.00,0.0311
1540.00,0.0312
1539.00,0.0311
1538.00,0.0308
1537.00,0.0306
1536.00,0.0304
1535.00,0.0303
1534.00,0.0303
1533.00,0.0302
1532.00,0.0301
1531.00,0.0300
1530.00,0.0299
1529.00,0.0298
1528.00,0.0297
1527.00,0.0295
1526.00,0.0293
1525.00,0.0291
1524.00,0.0289
1523.00,0.0288
1522.00,0.0287
1521.00,0.0287
1520.00,0.0288
1519.00,0.0288
1518.00,0.0288
1517.00,0.0287
1516.00,0.0284
1515.00,0.0282
1514.00,0.0281
1513.00,0.0280
1512.00,0.0279
1511.00,0.0279
1510.00,0.0279
1509.00,0.0279
1508.00,0.0279
1507.00,0.0278
1506.00,0.0276
1505.00,0.0273
1504.00,0.0271
1503.00,0.0270
1502.00,0.0269
1501.00,0.0268
1500.00,0.0268
1499.00,0.0267
1498.00,0.0267
1497.00,0.0267
1496.00,0.0268
1495.00,0.0267
1494.00,0.0266
1493.00,0.0265
1492.00,0.0265
1491.00,0.0266
1490.00,0.0267
1489.00,0.0267
1488.00,0.0267
1487.00,0.0266
1486.00,0.0264
1485.00,0.0262
1484.00,0.0261
1483.00,0.0261
1482.00,0.0260
1481.00,0.0260
1480.00,0.0259
1479.00,0.0259
1478.00,0.0259
1477.00,0.0260
1476.00,0.0260
1475.00,0.0260
1474.00,0.0260
1473.00,0.0260
1472.00,0.0261
1471.00,0.0262
1470.00,0.0262
1469.00,0.0263
1468.00,0.0263
1467.00,0.0263
1466.00,0.0263
1465.00,0.0262
1464.00,0.0262
1463.00,0.0262
1462.00,0.0262
1461.00,0.0261
1460.00,0.0261
1459.00,0.0261
1458.00,0.0262
1457.00,0.0263
1456.00,0.0265
1455.00,0.0265
1454.00,0.0265
1453.00,0.0266
1452.00,0.0267
1451.00,0.0268
1450.00,0.0269
1449.00,0.0270
1448.00,0.0272
1447.00,0.0273
1446.00,0.0273
1445.00,0.0273
1444.00,0.0273
1443.00,0.0273
1442.00,0.0272
1441.00,0.0272
1440.00,0.0272
1439.00,0.0273
1438.00,0.0274
1437.00,0.0275
1436.00,0.0277
1435.00,0.0278
1434.00,0.0278
1433.00,0.0279
1432.00,0.0279
1431.00,0.0280
1430.00,0.0279
1429.00,0.0279
1428.00,0.0279
1427.00,0.0280
1426.00,0.0281
1425.00,0.0282
1424.00,0.0283
1423.00,0.0283
1422.00,0.0283
1421.00,0.0283
1420.00,0.0284
1419.00,0.0286
1418.00,0.0288
1417.00,0.0290
1416.00,0.0290
1415.00,0.0290
1414.00,0.0290
1413.00,0.0289
1412.00,0.0288
1411.00,0.0288
1410.00,0.0288
1409.00,0.0289
1408.00,0.0289
1407.00,0.0290
1406.00,0.0291
1405.00,0.0291
1404.00,0.0290
1403.00,0.0290
1402.00,0.0290
1401.00,0.0290
1400.00,0.0290
1399.00,0.0291
1398.00,0.0292
1397.00,0.0292
1396.00,0.0293
1395.00,0.0294
1394.00,0.0294
1393.00,0.0294
1392.00,0.0294
1391.00,0.0295
1390.00,0.0295
1389.00,0.0296
1388.00,0.0297
1387.00,0.0298
1386.00,0.0298
1385.00,0.0298
1384.00,0.0298
1383.00,0.0298
1382.00,0.0299
1381.00,0.0300
1380.00,0.0301
1379.00,0.0302
1378.00,0.0302
1377.00,0.0303
1376.00,0.0304
1375.00,0.0305
1374.00,0.0306
1373.00,0.0306
1372.00,0.0305
1371.00,0.0305
1370.00,0.0305
1369.00,0.0305
1368.00,0.0305
1367.00,0.0304
1366.00,0.0304
1365.00,0.0304
1364.00,0.0305
1363.00,0.0305
1362.00,0.0306
1361.00,0.0306
1360.00,0.0305
1359.00,0.0305
1358.00,0.0304
1357.00,0.0305
1356.00,0.0305
1355.00,0.0305
1354.00,0.0305
1353.00,0.0305
1352.00,0.0304
1351.00,0.0302
1350.00,0.0301
1349.00,0.0300
1348.00,0.0300
1347.00,0.0300
1346.00,0.0300
1345.00,0.0299
1344.00,0.0299
1343.00,0.0299
1342.00,0.0299
1341.00,0.0300
1340.00,0.0301
1339.00,0.0302
1338.00,0.0302
1337.00,0.0301
1336.00,0.0300
1335.00,0.0299
1334.00,0.0298
1333.00,0.0298
1332.00,0.0298
1331.00,0.0297
1330.00,0.0297
1329.00,0.0296
1328.00,0.0296
1327.00,0.0295
1326.00,0.0295
1325.00,0.0296
1324.00,0.0296
1323.00,0.0297
1322.00,0.0298
1321.00,0.0298
1320.00,0.0298
1319.00,0.0298
1318.00,0.0297
1317.00,0.0296
1316.00,0.0295
1315.00,0.0294
1314.00,0.0294
1313.00,0.0295
1312.00,0.0296
1311.00,0.0297
1310.00,0.0297
1309.00,0.0297
1308.00,0.0297
1307.00,0.0297
1306.00,0.0296
1305.00,0.0296
1304.00,0.0297
1303.00,0.0298
1302.00,0.0298
1301.00,0.0298
1300.00,0.0297
1299.00,0.0297
1298.00,0.0296
1297.00,0.0295
1296.00,0.0295
1295.00,0.0296
1294.00,0.0296
1293.00,0.0297
1292.00,0.0299
1291.00,0.0299
1290.00,0.0300
1289.00,0.0300
1288.00,0.0300
1287.00,0.0300
1286.00,0.0299
1285.00,0.0300
1284.00,0.0300
1283.00,0.0301
1282.00,0.0302
1281.00,0.0301
1280.00,0.0301
1279.00,0.0301
1278.00,0.0301
1277.00,0.0301
1276.00,0.0302
1275.00,0.0302
1274.00,0.0303
1273.00,0.0303
1272.00,0.0303
1271.00,0.0304
1270.00,0.0304
1269.00,0.0305
1268.00,0.0306
1267.00,0.0306
1266.00,0.0307
1265.00,0.0308
1264.00,0.0309
1263.00,0.0309
1262.00,0.0310
1261.00,0.0311
1260.00,0.0313
1259.00,0.0315
1258.00,0.0317
1257.00,0.0318
1256.00,0.0319
1255.00,0.0320
1254.00,0.0322
1253.00,0.0325
1252.00,0.0327
1251.00,0.0328
1250.00,0.0329
1249.00,0.0331
1248.00,0.0333
1247.00,0.0335
1246.00,0.0337
1245.00,0.0340
1244.00,0.0343
1243.00,0.0344
1242.00,0.0345
1241.00,0.0346
1240.00,0.0347
1239.00,0.0348
1238.00,0.0351
1237.00,0.0353
1236.00,0.0355
1235.00,0.0357
1234.00,0.0358
1233.00,0.0360
1232.00,0.0361
1231.00,0.0362
1230.00,0.0363
1229.00,0.0364
1228.00,0.0365
1227.00,0.0367
1226.00,0.0368
1225.00,0.0369
1224.00,0.0369
1223.00,0.0370
1222.00,0.0371
1221.00,0.0373
1220.00,0.0374
1219.00,0.0376
1218.00,0.0377
1217.00,0.0378
1216.00,0.0379
1215.00,0.0380
1214.00,0.0380
1213.00,0.0381
1212.00,0.0382
1211.00,0.0384
1210.00,0.0386
1209.00,0.0387
1208.00,0.0389
1207.00,0.0389
1206.00,0.0389
1205.00,0.0389
1204.00,0.0390
1203.00,0.0391
1202.00,0.0392
1201.00,0.0393
1200.00,0.0394
1199.00,0.0395
1198.00,0.0395
1197.00,0.0396
1196.00,0.0396
1195.00,0.0397
1194.00,0.0398
1193.00,0.0399
1192.00,0.0400
1191.00,0.0401
1190.00,0.0401
1189.00,0.0401
1188.00,0.0402
1187.00,0.0403
1186.00,0.0404
1185.00,0.0405
1184.00,0.0406
1183.00,0.0406
1182.00,0.0406
1181.00,0.0406
1180.00,0.0406
1179.00,0.0406
1178.00,0.0407
1177.00,0.0408
1176.00,0.0410
1175.00,0.0411
1174.00,0.0413
1173.00,0.0415
1172.00,0.0416
1171.00,0.0416
1170.00,0.0416
1169.00,0.0416
1168.00,0.0417
1167.00,0.0419
1166.00,0.0421
1165.00,0.0422
1164.00,0.0423
1163.00,0.0424
1162.00,0.0424
1161.00,0.0424
1160.00,0.0424
1159.00,0.0424
1158.00,0.0425
1157.00,0.0425
1156.00,0.0427
1155.00,0.0428
1154.00,0.0429
1153.00,0.0430
1152.00,0.0430
1151.00,0.0430
1150.00,0.0430
1149.00,0.0430
1148.00,0.0431
1147.00,0.0432
1146.00,0.0433
1145.00,0.0435
1144.00,0.0438
1143.00,0.0440
1142.00,0.0442
1141.00,0.0444
1140.00,0.0445
1139.00,0.0446
1138.00,0.0447
1137.00,0.0448
1136.00,0.0450
1135.00,0.0452
1134.00,0.0455
1133.00,0.0457
1132.00,0.0459
1131.00,0.0461
1130.00,0.0464
1129.00,0.0467
1128.00,0.0470
1127.00,0.0472
1126.00,0.0472
1125.00,0.0473
1124.00,0.0476
1123.00,0.0480
1122.00,0.0486
1121.00,0.0491
1120.00,0.0496
1119.00,0.0499
1118.00,0.0502
1117.00,0.0504
1116.00,0.0506
1115.00,0.0510
1114.00,0.0514
1113.00,0.0517
1112.00,0.0520
1111.00,0.0523
1110.00,0.0527
1109.00,0.0532
1108.00,0.0537
1107.00,0.0540
1106.00,0.0543
1105.00,0.0546
1104.00,0.0551
1103.00,0.0556
1102.00,0.0562
1101.00,0.0567
1100.00,0.0571
1099.00,0.0575
1098.00,0.0579
1097.00,0.0582
1096.00,0.0585
1095.00,0.0588
1094.00,0.0591
1093.00,0.0595
1092.00,0.0598
1091.00,0.0601
1090.00,0.0602
1089.00,0.0601
1088.00,0.0602
1087.00,0.0604
1086.00,0.0607
1085.00,0.0611
1084.00,0.0614
1083.00,0.0616
1082.00,0.0618
1081.00,0.0620
1080.00,0.0623
1079.00,0.0626
1078.00,0.0629
1077.00,0.0631
1076.00,0.0632
1075.00,0.0631
1074.00,0.0629
1073.00,0.0629
1072.00,0.0630
1071.00,0.0631
1070.00,0.0631
1069.00,0.0631
1068.00,0.0632
1067.00,0.0633
1066.00,0.0636
1065.00,0.0640
1064.00,0.0643
1063.00,0.0644
1062.00,0.0645
1061.00,0.0644
1060.00,0.0643
1059.00,0.0643
1058.00,0.0644
1057.00,0.0646
1056.00,0.0648
1055.00,0.0650
1054.00,0.0651
1053.00,0.0652
1052.00,0.0654
1051.00,0.0655
1050.00,0.0656
1049.00,0.0658
1048.00,0.0661
1047.00,0.0662
1046.00,0.0661
1045.00,0.0661
1044.00,0.0660
1043.00,0.0660
1042.00,0.0659
1041.00,0.0657
1040.00,0.0656
1039.00,0.0657
1038.00,0.0658
1037.00,0.0658
1036.00,0.0658
1035.00,0.0657
1034.00,0.0655
1033.00,0.0654
1032.00,0.0654
1031.00,0.0652
1030.00,0.0648
1029.00,0.0643
1028.00,0.0639
1027.00,0.0635
1026.00,0.0632
1025.00,0.0630
1024.00,0.0628
1023.00,0.0625
1022.00,0.0621
1021.00,0.0617
1020.00,0.0614
1019.00,0.0611
1018.00,0.0608
1017.00,0.0606
1016.00,0.0604
1015.00,0.0603
1014.00,0.0602
1013.00,0.0601
1012.00,0.0598
1011.00,0.0596
1010.00,0.0593
1009.00,0.0591
1008.00,0.0589
1007.00,0.0585
1006.00,0.0582
1005.00,0.0579
1004.00,0.0577
1003.00,0.0575
1002.00,0.0572
1001.00,0.0569
1000.00,0.0564
999.00,0.0558
998.00,0.0552
997.00,0.0547
996.00,0.0543
995.00,0.0541
994.00,0.0537
993.00,0.0533
992.00,0.0528
991.00,0.0524
990.00,0.0521
989.00,0.0518
988.00,0.0515
987.00,0.0514
986.00,0.0512
985.00,0.0510
984.00,0.0507
983.00,0.0503
982.00,0.0498
981.00,0.0495
980.00,0.0493
979.00,0.0490
978.00,0.0488
977.00,0.0484
976.00,0.0481
975.00,0.0479
974.00,0.0478
973.00,0.0476
972.00,0.0475
971.00,0.0472
970.00,0.0469
969.00,0.0465
968.00,0.0462
967.00,0.0460
966.00,0.0458
965.00,0.0456
964.00,0.0454
963.00,0.0453
962.00,0.0453
961.00,0.0452
960.00,0.0451
959.00,0.0449
958.00,0.0447
957.00,0.0446
956.00,0.0445
955.00,0.0444
954.00,0.0442
953.00,0.0441
952.00,0.0440
951.00,0.0440
950.00,0.0441
949.00,0.0442
948.00,0.0441
947.00,0.0440
946.00,0.0438
945.00,0.0436
944.00,0.0436
943.00,0.0435
942.00,0.0434
941.00,0.0434
940.00,0.0434
939.00,0.0435
938.00,0.0434
937.00,0.0432
936.00,0.0430
935.00,0.0427
934.00,0.0427
933.00,0.0428
932.00,0.0430
931.00,0.0432
930.00,0.0433
929.00,0.0433
928.00,0.0433
927.00,0.0432
926.00,0.0432
925.00,0.0431
924.00,0.0431
923.00,0.0430
922.00,0.0429
921.00,0.0429
920.00,0.0428
919.00,0.0428
918.00,0.0429
917.00,0.0430
916.00,0.0433
915.00,0.0435
914.00,0.0435
913.00,0.0434
912.00,0.0433
911.00,0.0431
910.00,0.0427
909.00,0.0423
908.00,0.0420
907.00,0.0418
906.00,0.0417
905.00,0.0418
904.00,0.0421
903.00,0.0423
902.00,0.0423
901.00,0.0422
900.00,0.0419
899.00,0.0417
898.00,0.0416
897.00,0.0416
896.00,0.0415
895.00,0.0413
894.00,0.0410
893.00,0.0408
892.00,0.0405
891.00,0.0403
890.00,0.0403
889.00,0.0404
888.00,0.0405
887.00,0.0404
886.00,0.0402
885.00,0.0399
884.00,0.0399
883.00,0.0401
882.00,0.0402
881.00,0.0401
880.00,0.0399
879.00,0.0396
878.00,0.0393
877.00,0.0389
876.00,0.0386
875.00,0.0385
874.00,0.0384
873.00,0.0383
872.00,0.0381
871.00,0.0380
870.00,0.0380
869.00,0.0380
868.00,0.0380
867.00,0.0379
866.00,0.0378
865.00,0.0379
864.00,0.0380
863.00,0.0381
862.00,0.0381
861.00,0.0380
860.00,0.0377
859.00,0.0374
858.00,0.0370
857.00,0.0368
856.00,0.0367
855.00,0.0369
854.00,0.0371
853.00,0.0372
852.00,0.0371
851.00,0.0370
850.00,0.0371
849.00,0.0373
848.00,0.0375
847.00,0.0378
846.00,0.0382
845.00,0.0386
844.00,0.0387
843.00,0.0387
842.00,0.0386
841.00,0.0385
840.00,0.0384
839.00,0.0383
838.00,0.0382
837.00,0.0383
836.00,0.0385
835.00,0.0386
834.00,0.0386
833.00,0.0387
832.00,0.0388
831.00,0.0389
830.00,0.0391
829.00,0.0392
828.00,0.0394
827.00,0.0396
826.00,0.0399
825.00,0.0402
824.00,0.0405
823.00,0.0406
822.00,0.0406
821.00,0.0406
820.00,0.0406
819.00,0.0407
818.00,0.0408
817.00,0.0408
816.00,0.0408
815.00,0.0409
814.00,0.0413
813.00,0.0417
812.00,0.0420
811.00,0.0422
810.00,0.0423
809.00,0.0425
808.00,0.0429
807.00,0.0432
806.00,0.0435
805.00,0.0438
804.00,0.0441
803.00,0.0444
802.00,0.0449
801.00,0.0454
800.00,0.0461
799.00,0.0466
798.00,0.0469
797.00,0.0469
796.00,0.0468
795.00,0.0467
794.00,0.0465
793.00,0.0463
792.00,0.0462
791.00,0.0463
790.00,0.0463
789.00,0.0464
788.00,0.0463
787.00,0.0463
786.00,0.0464
785.00,0.0466
784.00,0.0470
783.00,0.0472
782.00,0.0473
781.00,0.0473
780.00,0.0472
779.00,0.0472
778.00,0.0472
777.00,0.0473
776.00,0.0474
775.00,0.0473
774.00,0.0470
773.00,0.0466
772.00,0.0463
771.00,0.0463
770.00,0.0464
769.00,0.0465
768.00,0.0464
767.00,0.0462
766.00,0.0459
765.00,0.0456
764.00,0.0455
763.00,0.0455
762.00,0.0454
761.00,0.0452
760.00,0.0453
759.00,0.0455
758.00,0.0458
757.00,0.0461
756.00,0.0461
755.00,0.0460
754.00,0.0458
753.00,0.0457
752.00,0.0457
751.00,0.0458
750.00,0.0460
749.00,0.0461
748.00,0.0462
747.00,0.0462
746.00,0.0461
745.00,0.0459
744.00,0.0457
743.00,0.0455
742.00,0.0454
741.00,0.0452
740.00,0.0450
739.00,0.0447
738.00,0.0445
737.00,0.0444
736.00,0.0443
735.00,0.0442
734.00,0.0441
733.00,0.0441
732.00,0.0441
731.00,0.0443
730.00,0.0445
729.00,0.0449
728.00,0.0453
727.00,0.0457
726.00,0.0460
725.00,0.0460
724.00,0.0457
723.00,0.0453
722.00,0.0451
721.00,0.0452
720.00,0.0453
719.00,0.0455
718.00,0.0456
717.00,0.0457
716.00,0.0456
715.00,0.0454
714.00,0.0453
713.00,0.0454
712.00,0.0458
711.00,0.0461
710.00,0.0462
709.00,0.0461
708.00,0.0460
707.00,0.0460
706.00,0.0461
705.00,0.0463
704.00,0.0468
703.00,0.0472
702.00,0.0475
701.00,0.0475
700.00,0.0474
699.00,0.0475
698.00,0.0477
697.00,0.0480
696.00,0.0481
695.00,0.0482
694.00,0.0481
693.00,0.0482
692.00,0.0482
691.00,0.0484
690.00,0.0486
689.00,0.0488
688.00,0.0489
687.00,0.0488
686.00,0.0485
685.00,0.0483
684.00,0.0480
683.00,0.0476
682.00,0.0472
681.00,0.0471
680.00,0.0474
679.00,0.0478
678.00,0.0481
677.00,0.0483
676.00,0.0484
675.00,0.0485
674.00,0.0485
673.00,0.0487
672.00,0.0489
671.00,0.0490
670.00,0.0490
669.00,0.0489
668.00,0.0489
667.00,0.0493
666.00,0.0497
665.00,0.0500
664.00,0.0501
663.00,0.0500
662.00,0.0494
661.00,0.0486
660.00,0.0479
659.00,0.0476
658.00,0.0478
657.00,0.0484
656.00,0.0489
655.00,0.0489
654.00,0.0484
653.00,0.0478
652.00,0.0475
651.00,0.0477
650.00,0.0481
