Created as New Dataset,Monday, April 03 2023
cm-1,A
4000.00,0.0833
3999.00,0.0833
3998.00,0.0833
3997.00,0.0833
3996.00,0.0833
3995.00,0.0833
3994.00,0.0833
3993.00,0.0833
3992.00,0.0833
3991.00,0.0833
3990.00,0.0832
3989.00,0.0832
3988.00,0.0832
3987.00,0.0832
3986.00,0.0831
3985.00,0.0832
3984.00,0.0832
3983.00,0.0832
3982.00,0.0832
3981.00,0.0832
3980.00,0.0831
3979.00,0.0831
3978.00,0.0832
3977.00,0.0832
3976.00,0.0832
3975.00,0.0832
3974.00,0.0832
3973.00,0.0832
3972.00,0.0833
3971.00,0.0833
3970.00,0.0833
3969.00,0.0833
3968.00,0.0832
3967.00,0.0831
3966.00,0.0831
3965.00,0.0831
3964.00,0.0831
3963.00,0.0833
3962.00,0.0834
3961.00,0.0833
3960.00,0.0833
3959.00,0.0832
3958.00,0.0832
3957.00,0.0831
3956.00,0.0831
3955.00,0.0831
3954.00,0.0830
3953.00,0.0830
3952.00,0.0831
3951.00,0.0832
3950.00,0.0834
3949.00,0.0835
3948.00,0.0836
3947.00,0.0836
3946.00,0.0836
3945.00,0.0836
3944.00,0.0836
3943.00,0.0834
3942.00,0.0833
3941.00,0.0833
3940.00,0.0833
3939.00,0.0832
3938.00,0.0831
3937.00,0.0830
3936.00,0.0830
3935.00,0.0831
3934.00,0.0832
3933.00,0.0833
3932.00,0.0834
3931.00,0.0835
3930.00,0.0836
3929.00,0.0835
3928.00,0.0835
3927.00,0.0834
3926.00,0.0834
3925.00,0.0833
3924.00,0.0834
3923.00,0.0835
3922.00,0.0836
3921.00,0.0835
3920.00,0.0834
3919.00,0.0834
3918.00,0.0835
3917.00,0.0836
3916.00,0.0835
3915.00,0.0834
3914.00,0.0832
3913.00,0.0831
3912.00,0.0830
3911.00,0.0828
3910.00,0.0828
3909.00,0.0829
3908.00,0.0830
3907.00,0.0832
3906.00,0.0834
3905.00,0.0835
3904.00,0.0836
3903.00,0.0839
3902.00,0.0842
3901.00,0.0845
3900.00,0.0844
3899.00,0.0840
3898.00,0.0836
3897.00,0.0834
3896.00,0.0833
3895.00,0.0833
3894.00,0.0833
3893.00,0.0835
3892.00,0.0834
3891.00,0.0832
3890.00,0.0830
3889.00,0.0831
3888.00,0.0834
3887.00,0.0833
3886.00,0.0830
3885.00,0.0828
3884.00,0.0831
3883.00,0.0836
3882.00,0.0839
3881.00,0.0837
3880.00,0.0834
3879.00,0.0832
3878.00,0.0833
3877.00,0.0836
3876.00,0.0836
3875.00,0.0834
3874.00,0.0832
3873.00,0.0834
3872.00,0.0839
3871.00,0.0840
3870.00,0.0836
3869.00,0.0833
3868.00,0.0834
3867.00,0.0837
3866.00,0.0838
3865.00,0.0836
3864.00,0.0835
3863.00,0.0837
3862.00,0.0838
3861.00,0.0836
3860.00,0.0835
3859.00,0.0834
3858.00,0.0835
3857.00,0.0836
3856.00,0.0834
3855.00,0.0829
3854.00,0.0824
3853.00,0.0823
3852.00,0.0825
3851.00,0.0830
3850.00,0.0833
3849.00,0.0833
3848.00,0.0831
3847.00,0.0830
3846.00,0.0830
3845.00,0.0830
3844.00,0.0830
3843.00,0.0831
3842.00,0.0833
3841.00,0.0837
3840.00,0.0839
3839.00,0.0839
3838.00,0.0837
3837.00,0.0834
3836.00,0.0834
3835.00,0.0835
3834.00,0.0836
3833.00,0.0836
3832.00,0.0834
3831.00,0.0831
3830.00,0.0831
3829.00,0.0832
3828.00,0.0832
3827.00,0.0831
3826.00,0.0830
3825.00,0.0831
3824.00,0.0835
3823.00,0.0838
3822.00,0.0837
3821.00,0.0833
3820.00,0.0832
3819.00,0.0835
3818.00,0.0838
3817.00,0.0835
3816.00,0.0829
3815.00,0.0826
3814.00,0.0828
3813.00,0.0831
3812.00,0.0831
3811.00,0.0828
3810.00,0.0827
3809.00,0.0827
3808.00,0.0827
3807.00,0.0824
3806.00,0.0824
3805.00,0.0829
3804.00,0.0835
3803.00,0.0837
3802.00,0.0834
3801.00,0.0829
3800.00,0.0830
3799.00,0.0834
3798.00,0.0837
3797.00,0.0835
3796.00,0.0832
3795.00,0.0830
3794.00,0.0830
3793.00,0.0830
3792.00,0.0829
3791.00,0.0828
3790.00,0.0827
3789.00,0.0827
3788.00,0.0828
3787.00,0.0830
3786.00,0.0831
3785.00,0.0831
3784.00,0.0831
3783.00,0.0831
3782.00,0.0832
3781.00,0.0832
3780.00,0.0831
3779.00,0.0829
3778.00,0.0829
3777.00,0.0830
3776.00,0.0830
3775.00,0.0828
3774.00,0.0827
3773.00,0.0827
3772.00,0.0828
3771.00,0.0828
3770.00,0.0827
3769.00,0.0827
3768.00,0.0830
3767.00,0.0832
3766.00,0.0832
3765.00,0.0830
3764.00,0.0828
3763.00,0.0830
3762.00,0.0831
3761.00,0.0830
3760.00,0.0830
3759.00,0.0831
3758.00,0.0832
3757.00,0.0832
3756.00,0.0832
3755.00,0.0831
3754.00,0.0828
3753.00,0.0824
3752.00,0.0823
3751.00,0.0826
3750.00,0.0829
3749.00,0.0830
3748.00,0.0833
3747.00,0.0839
3746.00,0.0841
3745.00,0.0833
3744.00,0.0823
3743.00,0.0821
3742.00,0.0827
3741.00,0.0831
3740.00,0.0832
3739.00,0.0832
3738.00,0.0833
3737.00,0.0834
3736.00,0.0836
3735.00,0.0840
3734.00,0.0842
3733.00,0.0839
3732.00,0.0833
3731.00,0.0827
3730.00,0.0825
3729.00,0.0827
3728.00,0.0828
3727.00,0.0828
3726.00,0.0828
3725.00,0.0830
3724.00,0.0832
3723.00,0.0832
3722.00,0.0831
3721.00,0.0831
3720.00,0.0831
3719.00,0.0830
3718.00,0.0829
3717.00,0.0827
3716.00,0.0826
3715.00,0.0826
3714.00,0.0825
3713.00,0.0825
3712.00,0.0826
3711.00,0.0829
3710.00,0.0830
3709.00,0.0829
3708.00,0.0827
3707.00,0.0826
3706.00,0.0826
3705.00,0.0826
3704.00,0.0827
3703.00,0.0826
3702.00,0.0825
3701.00,0.0825
3700.00,0.0825
3699.00,0.0825
3698.00,0.0825
3697.00,0.0824
3696.00,0.0822
3695.00,0.0822
3694.00,0.0823
3693.00,0.0824
3692.00,0.0825
3691.00,0.0828
3690.00,0.0831
3689.00,0.0831
3688.00,0.0827
3687.00,0.0824
3686.00,0.0824
3685.00,0.0824
3684.00,0.0823
3683.00,0.0822
3682.00,0.0821
3681.00,0.0820
3680.00,0.0819
3679.00,0.0819
3678.00,0.0821
3677.00,0.0823
3676.00,0.0822
3675.00,0.0820
3674.00,0.0819
3673.00,0.0822
3672.00,0.0825
3671.00,0.0823
3670.00,0.0821
3669.00,0.0821
3668.00,0.0821
3667.00,0.0821
3666.00,0.0819
3665.00,0.0817
3664.00,0.0815
3663.00,0.0814
3662.00,0.0814
3661.00,0.0815
3660.00,0.0816
3659.00,0.0818
3658.00,0.0819
3657.00,0.0818
3656.00,0.0816
3655.00,0.0816
3654.00,0.0820
3653.00,0.0823
3652.00,0.0822
3651.00,0.0819
3650.00,0.0821
3649.00,0.0827
3648.00,0.0831
3647.00,0.0830
3646.00,0.0827
3645.00,0.0824
3644.00,0.0822
3643.00,0.0820
3642.00,0.0818
3641.00,0.0817
3640.00,0.0817
3639.00,0.0816
3638.00,0.0816
3637.00,0.0816
3636.00,0.0817
3635.00,0.0818
3634.00,0.0818
3633.00,0.0819
3632.00,0.0821
3631.00,0.0823
3630.00,0.0823
3629.00,0.0823
3628.00,0.0822
3627.00,0.0822
3626.00,0.0823
3625.00,0.0821
3624.00,0.0820
3623.00,0.0819
3622.00,0.0821
3621.00,0.0823
3620.00,0.0825
3619.00,0.0827
3618.00,0.0828
3617.00,0.0829
3616.00,0.0831
3615.00,0.0832
3614.00,0.0831
3613.00,0.0829
3612.00,0.0828
3611.00,0.0828
3610.00,0.0827
3609.00,0.0828
3608.00,0.0828
3607.00,0.0829
3606.00,0.0828
3605.00,0.0826
3604.00,0.0824
3603.00,0.0824
3602.00,0.0825
3601.00,0.0826
3600.00,0.0828
3599.00,0.0828
3598.00,0.0828
3597.00,0.0828
3596.00,0.0828
3595.00,0.0829
3594.00,0.0828
3593.00,0.0827
3592.00,0.0827
3591.00,0.0827
3590.00,0.0828
3589.00,0.0830
3588.00,0.0832
3587.00,0.0834
3586.00,0.0835
3585.00,0.0834
3584.00,0.0832
3583.00,0.0831
3582.00,0.0829
3581.00,0.0828
3580.00,0.0827
3579.00,0.0828
3578.00,0.0828
3577.00,0.0828
3576.00,0.0829
3575.00,0.0829
3574.00,0.0830
3573.00,0.0830
3572.00,0.0830
3571.00,0.0830
3570.00,0.0831
3569.00,0.0833
3568.00,0.0837
3567.00,0.0842
3566.00,0.0844
3565.00,0.0844
3564.00,0.0840
3563.00,0.0837
3562.00,0.0835
3561.00,0.0834
3560.00,0.0834
3559.00,0.0835
3558.00,0.0835
3557.00,0.0835
3556.00,0.0836
3555.00,0.0836
3554.00,0.0837
3553.00,0.0838
3552.00,0.0839
3551.00,0.0840
3550.00,0.0840
3549.00,0.0840
3548.00,0.0840
3547.00,0.0841
3546.00,0.0843
3545.00,0.0844
3544.00,0.0845
3543.00,0.0844
3542.00,0.0842
3541.00,0.0841
3540.00,0.0840
3539.00,0.0839
3538.00,0.0839
3537.00,0.0839
3536.00,0.0839
3535.00,0.0840
3534.00,0.0840
3533.00,0.0841
3532.00,0.0841
3531.00,0.0841
3530.00,0.0842
3529.00,0.0842
3528.00,0.0842
3527.00,0.0842
3526.00,0.0844
3525.00,0.0846
3524.00,0.0848
3523.00,0.0849
3522.00,0.0848
3521.00,0.0847
3520.00,0.0845
3519.00,0.0843
3518.00,0.0841
3517.00,0.0840
3516.00,0.0840
3515.00,0.0841
3514.00,0.0842
3513.00,0.0844
3512.00,0.0846
3511.00,0.0847
3510.00,0.0848
3509.00,0.0848
3508.00,0.0847
3507.00,0.0847
3506.00,0.0846
3505.00,0.0847
3504.00,0.0849
3503.00,0.0851
3502.00,0.0852
3501.00,0.0852
3500.00,0.0852
3499.00,0.0851
3498.00,0.0851
3497.00,0.0852
3496.00,0.0852
3495.00,0.0852
3494.00,0.0851
3493.00,0.0850
3492.00,0.0850
3491.00,0.0849
3490.00,0.0849
3489.00,0.0850
3488.00,0.0850
3487.00,0.0851
3486.00,0.0851
3485.00,0.0851
3484.00,0.0851
3483.00,0.0852
3482.00,0.0853
3481.00,0.0853
3480.00,0.0854
3479.00,0.0854
3478.00,0.0854
3477.00,0.0855
3476.00,0.0855
3475.00,0.0855
3474.00,0.0855
3473.00,0.0855
3472.00,0.0855
3471.00,0.0855
3470.00,0.0856
3469.00,0.0856
3468.00,0.0857
3467.00,0.0858
3466.00,0.0859
3465.00,0.0860
3464.00,0.0860
3463.00,0.0860
3462.00,0.0859
3461.00,0.0858
3460.00,0.0859
3459.00,0.0859
3458.00,0.0860
3457.00,0.0861
3456.00,0.0860
3455.00,0.0859
3454.00,0.0859
3453.00,0.0859
3452.00,0.0860
3451.00,0.0860
3450.00,0.0861
3449.00,0.0861
3448.00,0.0862
3447.00,0.0863
3446.00,0.0864
3445.00,0.0865
3444.00,0.0865
3443.00,0.0865
3442.00,0.0864
3441.00,0.0863
3440.00,0.0863
3439.00,0.0862
3438.00,0.0863
3437.00,0.0863
3436.00,0.0863
3435.00,0.0863
3434.00,0.0863
3433.00,0.0863
3432.00,0.0864
3431.00,0.0865
3430.00,0.0865
3429.00,0.0864
3428.00,0.0864
3427.00,0.0864
3426.00,0.0865
3425.00,0.0866
3424.00,0.0868
3423.00,0.0869
3422.00,0.0870
3421.00,0.0871
3420.00,0.0870
3419.00,0.0870
3418.00,0.0870
3417.00,0.0870
3416.00,0.0869
3415.00,0.0868
3414.00,0.0868
3413.00,0.0869
3412.00,0.0869
3411.00,0.0870
3410.00,0.0870
3409.00,0.0871
3408.00,0.0871
3407.00,0.0871
3406.00,0.0872
3405.00,0.0872
3404.00,0.0872
3403.00,0.0872
3402.00,0.0872
3401.00,0.0872
3400.00,0.0873
3399.00,0.0874
3398.00,0.0874
3397.00,0.0874
3396.00,0.0873
3395.00,0.0873
3394.00,0.0873
3393.00,0.0873
3392.00,0.0874
3391.00,0.0875
3390.00,0.0875
3389.00,0.0875
3388.00,0.0875
3387.00,0.0874
3386.00,0.0874
3385.00,0.0875
3384.00,0.0876
3383.00,0.0876
3382.00,0.0877
3381.00,0.0877
3380.00,0.0878
3379.00,0.0878
3378.00,0.0879
3377.00,0.0879
3376.00,0.0878
3375.00,0.0878
3374.00,0.0878
3373.00,0.0877
3372.00,0.0877
3371.00,0.0877
3370.00,0.0877
3369.00,0.0878
3368.00,0.0879
3367.00,0.0879
3366.00,0.0879
3365.00,0.0879
3364.00,0.0879
3363.00,0.0879
3362.00,0.0880
3361.00,0.0882
3360.00,0.0883
3359.00,0.0883
3358.00,0.0883
3357.00,0.0883
3356.00,0.0883
3355.00,0.0883
3354.00,0.0883
3353.00,0.0883
3352.00,0.0883
3351.00,0.0882
3350.00,0.0883
3349.00,0.0883
3348.00,0.0883
3347.00,0.0883
3346.00,0.0883
3345.00,0.0883
3344.00,0.0883
3343.00,0.0883
3342.00,0.0883
3341.00,0.0884
3340.00,0.0885
3339.00,0.0885
3338.00,0.0886
3337.00,0.0886
3336.00,0.0886
3335.00,0.0886
3334.00,0.0886
3333.00,0.0885
3332.00,0.0885
3331.00,0.0884
3330.00,0.0884
3329.00,0.0883
3328.00,0.0884
3327.00,0.0884
3326.00,0.0886
3325.00,0.0887
3324.00,0.0888
3323.00,0.0888
3322.00,0.0888
3321.00,0.0888
3320.00,0.0887
3319.00,0.0888
3318.00,0.0888
3317.00,0.0888
3316.00,0.0887
3315.00,0.0887
3314.00,0.0887
3313.00,0.0887
3312.00,0.0887
3311.00,0.0887
3310.00,0.0888
3309.00,0.0888
3308.00,0.0889
3307.00,0.0890
3306.00,0.0890
3305.00,0.0890
3304.00,0.0889
3303.00,0.0889
3302.00,0.0889
3301.00,0.0889
3300.00,0.0889
3299.00,0.0888
3298.00,0.0889
3297.00,0.0889
3296.00,0.0890
3295.00,0.0891
3294.00,0.0891
3293.00,0.0891
3292.00,0.0891
3291.00,0.0891
3290.00,0.0891
3289.00,0.0891
3288.00,0.0891
3287.00,0.0892
3286.00,0.0892
3285.00,0.0893
3284.00,0.0894
3283.00,0.0893
3282.00,0.0893
3281.00,0.0893
3280.00,0.0893
3279.00,0.0893
3278.00,0.0893
3277.00,0.0893
3276.00,0.0893
3275.00,0.0893
3274.00,0.0893
3273.00,0.0894
3272.00,0.0894
3271.00,0.0895
3270.00,0.0895
3269.00,0.0895
3268.00,0.0896
3267.00,0.0896
3266.00,0.0895
3265.00,0.0894
3264.00,0.0894
3263.00,0.0894
3262.00,0.0894
3261.00,0.0894
3260.00,0.0895
3259.00,0.0896
3258.00,0.0897
3257.00,0.0896
3256.00,0.0896
3255.00,0.0895
3254.00,0.0895
3253.00,0.0895
3252.00,0.0896
3251.00,0.0896
3250.00,0.0896
3249.00,0.0896
3248.00,0.0896
3247.00,0.0896
3246.00,0.0896
3245.00,0.0897
3244.00,0.0897
3243.00,0.0898
3242.00,0.0898
3241.00,0.0898
3240.00,0.0898
3239.00,0.0898
3238.00,0.0899
3237.00,0.0899
3236.00,0.0900
3235.00,0.0900
3234.00,0.0901
3233.00,0.0901
3232.00,0.0901
3231.00,0.0901
3230.00,0.0901
3229.00,0.0900
3228.00,0.0899
3227.00,0.0899
3226.00,0.0899
3225.00,0.0899
3224.00,0.0899
3223.00,0.0899
3222.00,0.0900
3221.00,0.0900
3220.00,0.0900
3219.00,0.0899
3218.00,0.0900
3217.00,0.0900
3216.00,0.0901
3215.00,0.0902
3214.00,0.0902
3213.00,0.0901
3212.00,0.0900
3211.00,0.0899
3210.00,0.0899
3209.00,0.0899
3208.00,0.0900
3207.00,0.0900
3206.00,0.0901
3205.00,0.0901
3204.00,0.0902
3203.00,0.0902
3202.00,0.0902
3201.00,0.0901
3200.00,0.0902
3199.00,0.0902
3198.00,0.0902
3197.00,0.0903
3196.00,0.0903
3195.00,0.0902
3194.00,0.0902
3193.00,0.0902
3192.00,0.0902
3191.00,0.0901
3190.00,0.0901
3189.00,0.0900
3188.00,0.0900
3187.00,0.0900
3186.00,0.0900
3185.00,0.0901
3184.00,0.0901
3183.00,0.0902
3182.00,0.0903
3181.00,0.0903
3180.00,0.0903
3179.00,0.0903
3178.00,0.0902
3177.00,0.0901
3176.00,0.0901
3175.00,0.0901
3174.00,0.0901
3173.00,0.0902
3172.00,0.0902
3171.00,0.0902
3170.00,0.0902
3169.00,0.0902
3168.00,0.0902
3167.00,0.0903
3166.00,0.0903
3165.00,0.0904
3164.00,0.0904
3163.00,0.0905
3162.00,0.0904
3161.00,0.0903
3160.00,0.0902
3159.00,0.0901
3158.00,0.0900
3157.00,0.0900
3156.00,0.0901
3155.00,0.0902
3154.00,0.0902
3153.00,0.0903
3152.00,0.0902
3151.00,0.0902
3150.00,0.0902
3149.00,0.0902
3148.00,0.0902
3147.00,0.0902
3146.00,0.0902
3145.00,0.0902
3144.00,0.0902
3143.00,0.0902
3142.00,0.0902
3141.00,0.0902
3140.00,0.0901
3139.00,0.0901
3138.00,0.0902
3137.00,0.0902
3136.00,0.0903
3135.00,0.0903
3134.00,0.0903
3133.00,0.0902
3132.00,0.0903
3131.00,0.0903
3130.00,0.0903
3129.00,0.0903
3128.00,0.0903
3127.00,0.0902
3126.00,0.0902
3125.00,0.0903
3124.00,0.0903
3123.00,0.0903
3122.00,0.0903
3121.00,0.0902
3120.00,0.0902
3119.00,0.0902
3118.00,0.0902
3117.00,0.0902
3116.00,0.0902
3115.00,0.0902
3114.00,0.0902
3113.00,0.0902
3112.00,0.0901
3111.00,0.0901
3110.00,0.0901
3109.00,0.0901
3108.00,0.0901
3107.00,0.0902
3106.00,0.0902
3105.00,0.0903
3104.00,0.0903
3103.00,0.0903
3102.00,0.0902
3101.00,0.0902
3100.00,0.0902
3099.00,0.0901
3098.00,0.0901
3097.00,0.0902
3096.00,0.0902
3095.00,0.0903
3094.00,0.0904
3093.00,0.0904
3092.00,0.0903
3091.00,0.0902
3090.00,0.0901
3089.00,0.0900
3088.00,0.0899
3087.00,0.0899
3086.00,0.0900
3085.00,0.0901
3084.00,0.0902
3083.00,0.0902
3082.00,0.0902
3081.00,0.0902
3080.00,0.0902
3079.00,0.0902
3078.00,0.0902
3077.00,0.0902
3076.00,0.0902
3075.00,0.0902
3074.00,0.0902
3073.00,0.0902
3072.00,0.0903
3071.00,0.0903
3070.00,0.0903
3069.00,0.0903
3068.00,0.0904
3067.00,0.0904
3066.00,0.0904
3065.00,0.0903
3064.00,0.0902
3063.00,0.0901
3062.00,0.0901
3061.00,0.0901
3060.00,0.0901
3059.00,0.0902
3058.00,0.0902
3057.00,0.0902
3056.00,0.0903
3055.00,0.0903
3054.00,0.0902
3053.00,0.0902
3052.00,0.0901
3051.00,0.0902
3050.00,0.0902
3049.00,0.0903
3048.00,0.0903
3047.00,0.0903
3046.00,0.0903
3045.00,0.0903
3044.00,0.0902
3043.00,0.0901
3042.00,0.0900
3041.00,0.0899
3040.00,0.0899
3039.00,0.0899
3038.00,0.0900
3037.00,0.0900
3036.00,0.0901
3035.00,0.0901
3034.00,0.0901
3033.00,0.0901
3032.00,0.0902
3031.00,0.0901
3030.00,0.0901
3029.00,0.0900
3028.00,0.0899
3027.00,0.0899
3026.00,0.0899
3025.00,0.0899
3024.00,0.0899
3023.00,0.0899
3022.00,0.0899
3021.00,0.0899
3020.00,0.0899
3019.00,0.0898
3018.00,0.0898
3017.00,0.0898
3016.00,0.0898
3015.00,0.0898
3014.00,0.0898
3013.00,0.0897
3012.00,0.0897
3011.00,0.0896
3010.00,0.0896
3009.00,0.0895
3008.00,0.0893
3007.00,0.0892
3006.00,0.0891
3005.00,0.0890
3004.00,0.0889
3003.00,0.0888
3002.00,0.0887
3001.00,0.0885
3000.00,0.0884
2999.00,0.0883
2998.00,0.0881
2997.00,0.0880
2996.00,0.0879
2995.00,0.0879
2994.00,0.0879
2993.00,0.0878
2992.00,0.0877
2991.00,0.0876
2990.00,0.0876
2989.00,0.0875
2988.00,0.0875
2987.00,0.0873
2986.00,0.0871
2985.00,0.0868
2984.00,0.0865
2983.00,0.0862
2982.00,0.0861
2981.00,0.0862
2980.00,0.0863
2979.00,0.0865
2978.00,0.0867
2977.00,0.0869
2976.00,0.0871
2975.00,0.0872
2974.00,0.0872
2973.00,0.0872
2972.00,0.0872
2971.00,0.0873
2970.00,0.0874
2969.00,0.0877
2968.00,0.0879
2967.00,0.0881
2966.00,0.0882
2965.00,0.0883
2964.00,0.0885
2963.00,0.0887
2962.00,0.0889
2961.00,0.0890
2960.00,0.0891
2959.00,0.0892
2958.00,0.0892
2957.00,0.0893
2956.00,0.0894
2955.00,0.0896
2954.00,0.0897
2953.00,0.0897
2952.00,0.0898
2951.00,0.0898
2950.00,0.0898
2949.00,0.0899
2948.00,0.0899
2947.00,0.0899
2946.00,0.0900
2945.00,0.0901
2944.00,0.0902
2943.00,0.0904
2942.00,0.0906
2941.00,0.0908
2940.00,0.0909
2939.00,0.0911
2938.00,0.0913
2937.00,0.0915
2936.00,0.0918
2935.00,0.0921
2934.00,0.0923
2933.00,0.0925
2932.00,0.0928
2931.00,0.0930
2930.00,0.0933
2929.00,0.0936
2928.00,0.0939
2927.00,0.0941
2926.00,0.0942
2925.00,0.0943
2924.00,0.0944
2923.00,0.0944
2922.00,0.0943
2921.00,0.0942
2920.00,0.0940
2919.00,0.0938
2918.00,0.0935
2917.00,0.0933
2916.00,0.0931
2915.00,0.0929
2914.00,0.0927
2913.00,0.0924
2912.00,0.0922
2911.00,0.0920
2910.00,0.0919
2909.00,0.0917
2908.00,0.0916
2907.00,0.0915
2906.00,0.0914
2905.00,0.0912
2904.00,0.0911
2903.00,0.0909
2902.00,0.0908
2901.00,0.0908
2900.00,0.0907
2899.00,0.0906
2898.00,0.0905
2897.00,0.0904
2896.00,0.0903
2895.00,0.0902
2894.00,0.0902
2893.00,0.0901
2892.00,0.0900
2891.00,0.0899
2890.00,0.0898
2889.00,0.0897
2888.00,0.0897
2887.00,0.0897
2886.00,0.0896
2885.00,0.0895
2884.00,0.0894
2883.00,0.0894
2882.00,0.0894
2881.00,0.0894
2880.00,0.0894
2879.00,0.0895
2878.00,0.0895
2877.00,0.0896
2876.00,0.0897
2875.00,0.0897
2874.00,0.0897
2873.00,0.0897
2872.00,0.0896
2871.00,0.0897
2870.00,0.0897
2869.00,0.0897
2868.00,0.0898
2867.00,0.0898
2866.00,0.0899
2865.00,0.0900
2864.00,0.0901
2863.00,0.0902
2862.00,0.0904
2861.00,0.0907
2860.00,0.0910
2859.00,0.0913
2858.00,0.0916
2857.00,0.0919
2856.00,0.0920
2855.00,0.0922
2854.00,0.0922
2853.00,0.0922
2852.00,0.0922
2851.00,0.0921
2850.00,0.0920
2849.00,0.0918
2848.00,0.0916
2847.00,0.0913
2846.00,0.0911
2845.00,0.0909
2844.00,0.0907
2843.00,0.0905
2842.00,0.0903
2841.00,0.0901
2840.00,0.0899
2839.00,0.0897
2838.00,0.0896
2837.00,0.0896
2836.00,0.0896
2835.00,0.0896
2834.00,0.0896
2833.00,0.0895
2832.00,0.0894
2831.00,0.0893
2830.00,0.0893
2829.00,0.0892
2828.00,0.0892
2827.00,0.0892
2826.00,0.0891
2825.00,0.0891
2824.00,0.0891
2823.00,0.0891
2822.00,0.0891
2821.00,0.0890
2820.00,0.0889
2819.00,0.0889
2818.00,0.0888
2817.00,0.0888
2816.00,0.0888
2815.00,0.0887
2814.00,0.0887
2813.00,0.0886
2812.00,0.0886
2811.00,0.0887
2810.00,0.0887
2809.00,0.0887
2808.00,0.0887
2807.00,0.0886
2806.00,0.0886
2805.00,0.0886
2804.00,0.0886
2803.00,0.0885
2802.00,0.0885
2801.00,0.0885
2800.00,0.0885
2799.00,0.0885
2798.00,0.0885
2797.00,0.0885
2796.00,0.0885
2795.00,0.0885
2794.00,0.0884
2793.00,0.0884
2792.00,0.0884
2791.00,0.0884
2790.00,0.0884
2789.00,0.0884
2788.00,0.0884
2787.00,0.0884
2786.00,0.0883
2785.00,0.0883
2784.00,0.0882
2783.00,0.0882
2782.00,0.0881
2781.00,0.0880
2780.00,0.0880
2779.00,0.0880
2778.00,0.0880
2777.00,0.0881
2776.00,0.0881
2775.00,0.0881
2774.00,0.0881
2773.00,0.0881
2772.00,0.0881
2771.00,0.0880
2770.00,0.0879
2769.00,0.0878
2768.00,0.0878
2767.00,0.0878
2766.00,0.0878
2765.00,0.0878
2764.00,0.0878
2763.00,0.0879
2762.00,0.0879
2761.00,0.0879
2760.00,0.0879
2759.00,0.0879
2758.00,0.0879
2757.00,0.0878
2756.00,0.0878
2755.00,0.0878
2754.00,0.0877
2753.00,0.0877
2752.00,0.0878
2751.00,0.0878
2750.00,0.0878
2749.00,0.0878
2748.00,0.0878
2747.00,0.0878
2746.00,0.0878
2745.00,0.0878
2744.00,0.0878
2743.00,0.0878
2742.00,0.0878
2741.00,0.0878
2740.00,0.0878
2739.00,0.0877
2738.00,0.0876
2737.00,0.0875
2736.00,0.0875
2735.00,0.0875
2734.00,0.0876
2733.00,0.0877
2732.00,0.0877
2731.00,0.0877
2730.00,0.0876
2729.00,0.0876
2728.00,0.0875
2727.00,0.0875
2726.00,0.0875
2725.00,0.0875
2724.00,0.0875
2723.00,0.0875
2722.00,0.0875
2721.00,0.0875
2720.00,0.0875
2719.00,0.0875
2718.00,0.0876
2717.00,0.0876
2716.00,0.0876
2715.00,0.0876
2714.00,0.0875
2713.00,0.0875
2712.00,0.0875
2711.00,0.0875
2710.00,0.0874
2709.00,0.0874
2708.00,0.0874
2707.00,0.0874
2706.00,0.0874
2705.00,0.0874
2704.00,0.0874
2703.00,0.0873
2702.00,0.0873
2701.00,0.0872
2700.00,0.0872
2699.00,0.0873
2698.00,0.0873
2697.00,0.0873
2696.00,0.0873
2695.00,0.0873
2694.00,0.0873
2693.00,0.0874
2692.00,0.0874
2691.00,0.0874
2690.00,0.0874
2689.00,0.0873
2688.00,0.0873
2687.00,0.0873
2686.00,0.0873
2685.00,0.0873
2684.00,0.0873
2683.00,0.0872
2682.00,0.0872
2681.00,0.0872
2680.00,0.0871
2679.00,0.0871
2678.00,0.0871
2677.00,0.0870
2676.00,0.0870
2675.00,0.0871
2674.00,0.0871
2673.00,0.0871
2672.00,0.0871
2671.00,0.0871
2670.00,0.0870
2669.00,0.0870
2668.00,0.0870
2667.00,0.0870
2666.00,0.0871
2665.00,0.0871
2664.00,0.0871
2663.00,0.0871
2662.00,0.0872
2661.00,0.0872
2660.00,0.0871
2659.00,0.0871
2658.00,0.0871
2657.00,0.0871
2656.00,0.0871
2655.00,0.0871
2654.00,0.0871
2653.00,0.0871
2652.00,0.0871
2651.00,0.0872
2650.00,0.0872
2649.00,0.0873
2648.00,0.0873
2647.00,0.0872
2646.00,0.0872
2645.00,0.0873
2644.00,0.0873
2643.00,0.0873
2642.00,0.0873
2641.00,0.0873
2640.00,0.0873
2639.00,0.0873
2638.00,0.0873
2637.00,0.0873
2636.00,0.0872
2635.00,0.0872
2634.00,0.0873
2633.00,0.0873
2632.00,0.0873
2631.00,0.0873
2630.00,0.0872
2629.00,0.0872
2628.00,0.0871
2627.00,0.0871
2626.00,0.0871
2625.00,0.0872
2624.00,0.0873
2623.00,0.0874
2622.00,0.0874
2621.00,0.0874
2620.00,0.0874
2619.00,0.0874
2618.00,0.0874
2617.00,0.0874
2616.00,0.0874
2615.00,0.0874
2614.00,0.0874
2613.00,0.0874
2612.00,0.0875
2611.00,0.0875
2610.00,0.0875
2609.00,0.0874
2608.00,0.0874
2607.00,0.0874
2606.00,0.0875
2605.00,0.0876
2604.00,0.0876
2603.00,0.0876
2602.00,0.0875
2601.00,0.0875
2600.00,0.0874
2599.00,0.0874
2598.00,0.0874
2597.00,0.0874
2596.00,0.0874
2595.00,0.0874
2594.00,0.0874
2593.00,0.0874
2592.00,0.0875
2591.00,0.0875
2590.00,0.0875
2589.00,0.0875
2588.00,0.0875
2587.00,0.0875
2586.00,0.0875
2585.00,0.0874
2584.00,0.0873
2583.00,0.0873
2582.00,0.0874
2581.00,0.0875
2580.00,0.0875
2579.00,0.0876
2578.00,0.0876
2577.00,0.0875
2576.00,0.0874
2575.00,0.0874
2574.00,0.0873
2573.00,0.0874
2572.00,0.0874
2571.00,0.0874
2570.00,0.0874
2569.00,0.0874
2568.00,0.0875
2567.00,0.0876
2566.00,0.0877
2565.00,0.0877
2564.00,0.0877
2563.00,0.0876
2562.00,0.0877
2561.00,0.0877
2560.00,0.0877
2559.00,0.0877
2558.00,0.0876
2557.00,0.0876
2556.00,0.0877
2555.00,0.0877
2554.00,0.0876
2553.00,0.0876
2552.00,0.0875
2551.00,0.0874
2550.00,0.0874
2549.00,0.0873
2548.00,0.0872
2547.00,0.0872
2546.00,0.0872
2545.00,0.0872
2544.00,0.0873
2543.00,0.0873
2542.00,0.0873
2541.00,0.0872
2540.00,0.0871
2539.00,0.0870
2538.00,0.0869
2537.00,0.0869
2536.00,0.0869
2535.00,0.0870
2534.00,0.0871
2533.00,0.0873
2532.00,0.0873
2531.00,0.0873
2530.00,0.0872
2529.00,0.0872
2528.00,0.0872
2527.00,0.0872
2526.00,0.0871
2525.00,0.0871
2524.00,0.0870
2523.00,0.0870
2522.00,0.0871
2521.00,0.0871
2520.00,0.0871
2519.00,0.0872
2518.00,0.0873
2517.00,0.0874
2516.00,0.0875
2515.00,0.0874
2514.00,0.0873
2513.00,0.0872
2512.00,0.0871
2511.00,0.0872
2510.00,0.0873
2509.00,0.0873
2508.00,0.0874
2507.00,0.0873
2506.00,0.0873
2505.00,0.0872
2504.00,0.0872
2503.00,0.0872
2502.00,0.0872
2501.00,0.0873
2500.00,0.0874
2499.00,0.0874
2498.00,0.0874
2497.00,0.0874
2496.00,0.0873
2495.00,0.0874
2494.00,0.0874
2493.00,0.0875
2492.00,0.0875
2491.00,0.0875
2490.00,0.0875
2489.00,0.0875
2488.00,0.0875
2487.00,0.0874
2486.00,0.0874
2485.00,0.0873
2484.00,0.0872
2483.00,0.0872
2482.00,0.0873
2481.00,0.0874
2480.00,0.0874
2479.00,0.0874
2478.00,0.0874
2477.00,0.0873
2476.00,0.0872
2475.00,0.0872
2474.00,0.0872
2473.00,0.0873
2472.00,0.0873
2471.00,0.0873
2470.00,0.0873
2469.00,0.0872
2468.00,0.0872
2467.00,0.0871
2466.00,0.0871
2465.00,0.0871
2464.00,0.0871
2463.00,0.0871
2462.00,0.0871
2461.00,0.0871
2460.00,0.0871
2459.00,0.0872
2458.00,0.0873
2457.00,0.0873
2456.00,0.0873
2455.00,0.0873
2454.00,0.0873
2453.00,0.0874
2452.00,0.0874
2451.00,0.0874
2450.00,0.0873
2449.00,0.0872
2448.00,0.0872
2447.00,0.0872
2446.00,0.0872
2445.00,0.0871
2444.00,0.0870
2443.00,0.0869
2442.00,0.0869
2441.00,0.0870
2440.00,0.0870
2439.00,0.0871
2438.00,0.0871
2437.00,0.0871
2436.00,0.0871
2435.00,0.0870
2434.00,0.0869
2433.00,0.0869
2432.00,0.0869
2431.00,0.0870
2430.00,0.0870
2429.00,0.0871
2428.00,0.0871
2427.00,0.0871
2426.00,0.0871
2425.00,0.0871
2424.00,0.0871
2423.00,0.0870
2422.00,0.0870
2421.00,0.0870
2420.00,0.0869
2419.00,0.0869
2418.00,0.0869
2417.00,0.0869
2416.00,0.0868
2415.00,0.0868
2414.00,0.0869
2413.00,0.0869
2412.00,0.0869
2411.00,0.0869
2410.00,0.0869
2409.00,0.0869
2408.00,0.0868
2407.00,0.0868
2406.00,0.0868
2405.00,0.0869
2404.00,0.0869
2403.00,0.0868
2402.00,0.0867
2401.00,0.0867
2400.00,0.0867
2399.00,0.0867
2398.00,0.0867
2397.00,0.0867
2396.00,0.0866
2395.00,0.0866
2394.00,0.0865
2393.00,0.0865
2392.00,0.0865
2391.00,0.0865
2390.00,0.0865
2389.00,0.0865
2388.00,0.0865
2387.00,0.0864
2386.00,0.0863
2385.00,0.0862
2384.00,0.0861
2383.00,0.0860
2382.00,0.0859
2381.00,0.0859
2380.00,0.0860
2379.00,0.0860
2378.00,0.0860
2377.00,0.0859
2376.00,0.0859
2375.00,0.0860
2374.00,0.0861
2373.00,0.0862
2372.00,0.0861
2371.00,0.0860
2370.00,0.0858
2369.00,0.0855
2368.00,0.0854
2367.00,0.0854
2366.00,0.0856
2365.00,0.0859
2364.00,0.0859
2363.00,0.0858
2362.00,0.0857
2361.00,0.0857
2360.00,0.0857
2359.00,0.0857
2358.00,0.0857
2357.00,0.0858
2356.00,0.0859
2355.00,0.0858
2354.00,0.0855
2353.00,0.0854
2352.00,0.0855
2351.00,0.0858
2350.00,0.0860
2349.00,0.0859
2348.00,0.0852
2347.00,0.0845
2346.00,0.0841
2345.00,0.0844
2344.00,0.0850
2343.00,0.0855
2342.00,0.0858
2341.00,0.0860
2340.00,0.0861
2339.00,0.0859
2338.00,0.0857
2337.00,0.0856
2336.00,0.0856
2335.00,0.0857
2334.00,0.0858
2333.00,0.0857
2332.00,0.0857
2331.00,0.0856
2330.00,0.0857
2329.00,0.0858
2328.00,0.0860
2327.00,0.0861
2326.00,0.0862
2325.00,0.0861
2324.00,0.0860
2323.00,0.0859
2322.00,0.0859
2321.00,0.0860
2320.00,0.0861
2319.00,0.0861
2318.00,0.0861
2317.00,0.0862
2316.00,0.0861
2315.00,0.0860
2314.00,0.0860
2313.00,0.0860
2312.00,0.0860
2311.00,0.0860
2310.00,0.0862
2309.00,0.0863
2308.00,0.0863
2307.00,0.0863
2306.00,0.0863
2305.00,0.0862
2304.00,0.0860
2303.00,0.0858
2302.00,0.0857
2301.00,0.0856
2300.00,0.0856
2299.00,0.0857
2298.00,0.0857
2297.00,0.0857
2296.00,0.0858
2295.00,0.0858
2294.00,0.0859
2293.00,0.0861
2292.00,0.0862
2291.00,0.0863
2290.00,0.0864
2289.00,0.0864
2288.00,0.0864
2287.00,0.0865
2286.00,0.0866
2285.00,0.0867
2284.00,0.0867
2283.00,0.0867
2282.00,0.0867
2281.00,0.0866
2280.00,0.0865
2279.00,0.0865
2278.00,0.0865
2277.00,0.0866
2276.00,0.0865
2275.00,0.0864
2274.00,0.0863
2273.00,0.0862
2272.00,0.0862
2271.00,0.0862
2270.00,0.0863
2269.00,0.0863
2268.00,0.0863
2267.00,0.0862
2266.00,0.0862
2265.00,0.0862
2264.00,0.0863
2263.00,0.0864
2262.00,0.0865
2261.00,0.0866
2260.00,0.0867
2259.00,0.0867
2258.00,0.0864
2257.00,0.0861
2256.00,0.0859
2255.00,0.0858
2254.00,0.0859
2253.00,0.0860
2252.00,0.0861
2251.00,0.0861
2250.00,0.0860
2249.00,0.0859
2248.00,0.0858
2247.00,0.0857
2246.00,0.0858
2245.00,0.0860
2244.00,0.0861
2243.00,0.0861
2242.00,0.0862
2241.00,0.0861
2240.00,0.0860
2239.00,0.0859
2238.00,0.0858
2237.00,0.0857
2236.00,0.0858
2235.00,0.0858
2234.00,0.0860
2233.00,0.0861
2232.00,0.0860
2231.00,0.0858
2230.00,0.0856
2229.00,0.0856
2228.00,0.0856
2227.00,0.0857
2226.00,0.0857
2225.00,0.0857
2224.00,0.0857
2223.00,0.0857
2222.00,0.0858
2221.00,0.0858
2220.00,0.0857
2219.00,0.0856
2218.00,0.0855
2217.00,0.0855
2216.00,0.0855
2215.00,0.0857
2214.00,0.0859
2213.00,0.0859
2212.00,0.0858
2211.00,0.0856
2210.00,0.0855
2209.00,0.0855
2208.00,0.0856
2207.00,0.0856
2206.00,0.0857
2205.00,0.0857
2204.00,0.0857
2203.00,0.0857
2202.00,0.0856
2201.00,0.0855
2200.00,0.0852
2199.00,0.0851
2198.00,0.0851
2197.00,0.0852
2196.00,0.0853
2195.00,0.0853
2194.00,0.0853
2193.00,0.0852
2192.00,0.0851
2191.00,0.0848
2190.00,0.0846
2189.00,0.0844
2188.00,0.0845
2187.00,0.0849
2186.00,0.0854
2185.00,0.0856
2184.00,0.0855
2183.00,0.0851
2182.00,0.0849
2181.00,0.0849
2180.00,0.0850
2179.00,0.0853
2178.00,0.0855
2177.00,0.0856
2176.00,0.0855
2175.00,0.0853
2174.00,0.0851
2173.00,0.0850
2172.00,0.0851
2171.00,0.0852
2170.00,0.0855
2169.00,0.0857
2168.00,0.0857
2167.00,0.0856
2166.00,0.0855
2165.00,0.0857
2164.00,0.0858
2163.00,0.0859
2162.00,0.0858
2161.00,0.0855
2160.00,0.0851
2159.00,0.0846
2158.00,0.0844
2157.00,0.0844
2156.00,0.0844
2155.00,0.0844
2154.00,0.0845
2153.00,0.0847
2152.00,0.0847
2151.00,0.0845
2150.00,0.0843
2149.00,0.0842
2148.00,0.0843
2147.00,0.0846
2146.00,0.0848
2145.00,0.0850
2144.00,0.0850
2143.00,0.0850
2142.00,0.0850
2141.00,0.0851
2140.00,0.0850
2139.00,0.0848
2138.00,0.0846
2137.00,0.0844
2136.00,0.0843
2135.00,0.0841
2134.00,0.0842
2133.00,0.0843
2132.00,0.0843
2131.00,0.0844
2130.00,0.0844
2129.00,0.0846
2128.00,0.0847
2127.00,0.0848
2126.00,0.0848
2125.00,0.0847
2124.00,0.0846
2123.00,0.0844
2122.00,0.0843
2121.00,0.0843
2120.00,0.0843
2119.00,0.0843
2118.00,0.0843
2117.00,0.0843
2116.00,0.0842
2115.00,0.0841
2114.00,0.0840
2113.00,0.0840
2112.00,0.0840
2111.00,0.0841
2110.00,0.0843
2109.00,0.0845
2108.00,0.0846
2107.00,0.0847
2106.00,0.0846
2105.00,0.0845
2104.00,0.0844
2103.00,0.0843
2102.00,0.0844
2101.00,0.0844
2100.00,0.0842
2099.00,0.0840
2098.00,0.0838
2097.00,0.0838
2096.00,0.0838
2095.00,0.0839
2094.00,0.0840
2093.00,0.0841
2092.00,0.0841
2091.00,0.0840
2090.00,0.0839
2089.00,0.0839
2088.00,0.0839
2087.00,0.0840
2086.00,0.0841
2085.00,0.0842
2084.00,0.0843
2083.00,0.0842
2082.00,0.0841
2081.00,0.0840
2080.00,0.0839
2079.00,0.0839
2078.00,0.0840
2077.00,0.0840
2076.00,0.0840
2075.00,0.0840
2074.00,0.0839
2073.00,0.0839
2072.00,0.0839
2071.00,0.0841
2070.00,0.0842
2069.00,0.0841
2068.00,0.0838
2067.00,0.0836
2066.00,0.0836
2065.00,0.0837
2064.00,0.0837
2063.00,0.0838
2062.00,0.0838
2061.00,0.0839
2060.00,0.0838
2059.00,0.0837
2058.00,0.0837
2057.00,0.0837
2056.00,0.0837
2055.00,0.0836
2054.00,0.0837
2053.00,0.0839
2052.00,0.0840
2051.00,0.0839
2050.00,0.0836
2049.00,0.0832
2048.00,0.0830
2047.00,0.0831
2046.00,0.0833
2045.00,0.0835
2044.00,0.0836
2043.00,0.0836
2042.00,0.0835
2041.00,0.0834
2040.00,0.0834
2039.00,0.0834
2038.00,0.0835
2037.00,0.0837
2036.00,0.0838
2035.00,0.0837
2034.00,0.0835
2033.00,0.0835
2032.00,0.0836
2031.00,0.0838
2030.00,0.0838
2029.00,0.0836
2028.00,0.0833
2027.00,0.0832
2026.00,0.0831
2025.00,0.0830
2024.00,0.0827
2023.00,0.0825
2022.00,0.0824
2021.00,0.0825
2020.00,0.0826
2019.00,0.0825
2018.00,0.0824
2017.00,0.0822
2016.00,0.0821
2015.00,0.0822
2014.00,0.0824
2013.00,0.0825
2012.00,0.0826
2011.00,0.0826
2010.00,0.0827
2009.00,0.0828
2008.00,0.0828
2007.00,0.0826
2006.00,0.0825
2005.00,0.0824
2004.00,0.0824
2003.00,0.0827
2002.00,0.0831
2001.00,0.0834
2000.00,0.0834
1999.00,0.0830
1998.00,0.0827
1997.00,0.0827
1996.00,0.0829
1995.00,0.0832
1994.00,0.0835
1993.00,0.0836
1992.00,0.0834
1991.00,0.0830
1990.00,0.0826
1989.00,0.0824
1988.00,0.0824
1987.00,0.0825
1986.00,0.0827
1985.00,0.0827
1984.00,0.0826
1983.00,0.0825
1982.00,0.0825
1981.00,0.0824
1980.00,0.0822
1979.00,0.0818
1978.00,0.0814
1977.00,0.0811
1976.00,0.0810
1975.00,0.0813
1974.00,0.0817
1973.00,0.0820
1972.00,0.0819
1971.00,0.0816
1970.00,0.0815
1969.00,0.0816
1968.00,0.0817
1967.00,0.0818
1966.00,0.0817
1965.00,0.0815
1964.00,0.0815
1963.00,0.0815
1962.00,0.0816
1961.00,0.0817
1960.00,0.0818
1959.00,0.0818
1958.00,0.0818
1957.00,0.0817
1956.00,0.0816
1955.00,0.0816
1954.00,0.0817
1953.00,0.0817
1952.00,0.0816
1951.00,0.0814
1950.00,0.0812
1949.00,0.0811
1948.00,0.0811
1947.00,0.0812
1946.00,0.0813
1945.00,0.0811
1944.00,0.0808
1943.00,0.0805
1942.00,0.0805
1941.00,0.0805
1940.00,0.0805
1939.00,0.0804
1938.00,0.0803
1937.00,0.0803
1936.00,0.0803
1935.00,0.0803
1934.00,0.0802
1933.00,0.0801
1932.00,0.0801
1931.00,0.0802
1930.00,0.0803
1929.00,0.0805
1928.00,0.0806
1927.00,0.0806
1926.00,0.0807
1925.00,0.0807
1924.00,0.0806
1923.00,0.0805
1922.00,0.0804
1921.00,0.0803
1920.00,0.0801
1919.00,0.0799
1918.00,0.0797
1917.00,0.0797
1916.00,0.0797
1915.00,0.0797
1914.00,0.0797
1913.00,0.0797
1912.00,0.0796
1911.00,0.0796
1910.00,0.0795
1909.00,0.0794
1908.00,0.0793
1907.00,0.0793
1906.00,0.0793
1905.00,0.0793
1904.00,0.0793
1903.00,0.0792
1902.00,0.0792
1901.00,0.0791
1900.00,0.0790
1899.00,0.0790
1898.00,0.0790
1897.00,0.0789
1896.00,0.0788
1895.00,0.0786
1894.00,0.0786
1893.00,0.0787
1892.00,0.0787
1891.00,0.0787
1890.00,0.0787
1889.00,0.0787
1888.00,0.0786
1887.00,0.0784
1886.00,0.0783
1885.00,0.0783
1884.00,0.0783
1883.00,0.0783
1882.00,0.0782
1881.00,0.0782
1880.00,0.0781
1879.00,0.0780
1878.00,0.0779
1877.00,0.0778
1876.00,0.0778
1875.00,0.0778
1874.00,0.0779
1873.00,0.0779
1872.00,0.0779
1871.00,0.0778
1870.00,0.0777
1869.00,0.0777
1868.00,0.0777
1867.00,0.0776
1866.00,0.0775
1865.00,0.0774
1864.00,0.0773
1863.00,0.0771
1862.00,0.0769
1861.00,0.0768
1860.00,0.0766
1859.00,0.0765
1858.00,0.0765
1857.00,0.0766
1856.00,0.0766
1855.00,0.0766
1854.00,0.0765
1853.00,0.0764
1852.00,0.0764
1851.00,0.0763
1850.00,0.0764
1849.00,0.0764
1848.00,0.0764
1847.00,0.0764
1846.00,0.0763
1845.00,0.0761
1844.00,0.0759
1843.00,0.0757
1842.00,0.0757
1841.00,0.0757
1840.00,0.0756
1839.00,0.0755
1838.00,0.0754
1837.00,0.0753
1836.00,0.0753
1835.00,0.0752
1834.00,0.0753
1833.00,0.0753
1832.00,0.0754
1831.00,0.0754
1830.00,0.0753
1829.00,0.0752
1828.00,0.0750
1827.00,0.0749
1826.00,0.0748
1825.00,0.0747
1824.00,0.0746
1823.00,0.0744
1822.00,0.0743
1821.00,0.0742
1820.00,0.0741
1819.00,0.0739
1818.00,0.0738
1817.00,0.0737
1816.00,0.0736
1815.00,0.0735
1814.00,0.0734
1813.00,0.0734
1812.00,0.0734
1811.00,0.0733
1810.00,0.0732
1809.00,0.0732
1808.00,0.0730
1807.00,0.0729
1806.00,0.0728
1805.00,0.0727
1804.00,0.0727
1803.00,0.0727
1802.00,0.0726
1801.00,0.0726
1800.00,0.0725
1799.00,0.0724
1798.00,0.0723
1797.00,0.0722
1796.00,0.0722
1795.00,0.0721
1794.00,0.0719
1793.00,0.0717
1792.00,0.0717
1791.00,0.0716
1790.00,0.0715
1789.00,0.0715
1788.00,0.0714
1787.00,0.0713
1786.00,0.0713
1785.00,0.0712
1784.00,0.0712
1783.00,0.0712
1782.00,0.0713
1781.00,0.0712
1780.00,0.0712
1779.00,0.0711
1778.00,0.0711
1777.00,0.0712
1776.00,0.0713
1775.00,0.0714
1774.00,0.0713
1773.00,0.0712
1772.00,0.0711
1771.00,0.0711
1770.00,0.0711
1769.00,0.0712
1768.00,0.0711
1767.00,0.0711
1766.00,0.0712
1765.00,0.0714
1764.00,0.0715
1763.00,0.0715
1762.00,0.0715
1761.00,0.0715
1760.00,0.0716
1759.00,0.0717
1758.00,0.0719
1757.00,0.0720
1756.00,0.0722
1755.00,0.0725
1754.00,0.0728
1753.00,0.0729
1752.00,0.0730
1751.00,0.0732
1750.00,0.0736
1749.00,0.0740
1748.00,0.0744
1747.00,0.0746
1746.00,0.0747
1745.00,0.0748
1744.00,0.0750
1743.00,0.0751
1742.00,0.0752
1741.00,0.0752
1740.00,0.0752
1739.00,0.0752
1738.00,0.0754
1737.00,0.0756
1736.00,0.0756
1735.00,0.0753
1734.00,0.0752
1733.00,0.0754
1732.00,0.0758
1731.00,0.0761
1730.00,0.0763
1729.00,0.0764
1728.00,0.0763
1727.00,0.0764
1726.00,0.0765
1725.00,0.0766
1724.00,0.0768
1723.00,0.0770
1722.00,0.0772
1721.00,0.0775
1720.00,0.0776
1719.00,0.0774
1718.00,0.0774
1717.00,0.0777
1716.00,0.0780
1715.00,0.0782
1714.00,0.0783
1713.00,0.0784
1712.00,0.0784
1711.00,0.0784
1710.00,0.0784
1709.00,0.0785
1708.00,0.0786
1707.00,0.0786
1706.00,0.0786
1705.00,0.0786
1704.00,0.0787
1703.00,0.0787
1702.00,0.0785
1701.00,0.0779
1700.00,0.0774
1699.00,0.0773
1698.00,0.0775
1697.00,0.0778
1696.00,0.0776
1695.00,0.0772
1694.00,0.0771
1693.00,0.0773
1692.00,0.0774
1691.00,0.0775
1690.00,0.0775
1689.00,0.0776
1688.00,0.0777
1687.00,0.0777
1686.00,0.0774
1685.00,0.0770
1684.00,0.0770
1683.00,0.0770
1682.00,0.0770
1681.00,0.0771
1680.00,0.0770
1679.00,0.0770
1678.00,0.0770
1677.00,0.0771
1676.00,0.0770
1675.00,0.0770
1674.00,0.0771
1673.00,0.0772
1672.00,0.0774
1671.00,0.0774
1670.00,0.0775
1669.00,0.0775
1668.00,0.0775
1667.00,0.0775
1666.00,0.0775
1665.00,0.0776
1664.00,0.0776
1663.00,0.0776
1662.00,0.0776
1661.00,0.0778
1660.00,0.0780
1659.00,0.0783
1658.00,0.0786
1657.00,0.0789
1656.00,0.0791
1655.00,0.0788
1654.00,0.0784
1653.00,0.0784
1652.00,0.0785
1651.00,0.0788
1650.00,0.0794
1649.00,0.0800
1648.00,0.0802
1647.00,0.0803
1646.00,0.0804
1645.00,0.0805
1644.00,0.0806
1643.00,0.0808
1642.00,0.0810
1641.00,0.0813
1640.00,0.0815
1639.00,0.0818
1638.00,0.0821
1637.00,0.0824
1636.00,0.0829
1635.00,0.0833
1634.00,0.0834
1633.00,0.0834
1632.00,0.0835
1631.00,0.0837
1630.00,0.0840
1629.00,0.0844
1628.00,0.0848
1627.00,0.0852
1626.00,0.0856
1625.00,0.0860
1624.00,0.0864
1623.00,0.0869
1622.00,0.0872
1621.00,0.0875
1620.00,0.0877
1619.00,0.0878
1618.00,0.0880
1617.00,0.0883
1616.00,0.0887
1615.00,0.0892
1614.00,0.0897
1613.00,0.0900
1612.00,0.0903
1611.00,0.0907
1610.00,0.0911
1609.00,0.0915
1608.00,0.0919
1607.00,0.0924
1606.00,0.0928
1605.00,0.0931
1604.00,0.0934
1603.00,0.0937
1602.00,0.0940
1601.00,0.0943
1600.00,0.0945
1599.00,0.0948
1598.00,0.0952
1597.00,0.0956
1596.00,0.0961
1595.00,0.0965
1594.00,0.0969
1593.00,0.0973
1592.00,0.0975
1591.00,0.0978
1590.00,0.0981
1589.00,0.0984
1588.00,0.0988
1587.00,0.0991
1586.00,0.0995
1585.00,0.0998
1584.00,0.1001
1583.00,0.1004
1582.00,0.1007
1581.00,0.1009
1580.00,0.1011
1579.00,0.1013
1578.00,0.1014
1577.00,0.1017
1576.00,0.1021
1575.00,0.1025
1574.00,0.1026
1573.00,0.1028
1572.00,0.1029
1571.00,0.1030
1570.00,0.1034
1569.00,0.1037
1568.00,0.1039
1567.00,0.1041
1566.00,0.1042
1565.00,0.1042
1564.00,0.1042
1563.00,0.1042
1562.00,0.1041
1561.00,0.1038
1560.00,0.1037
1559.00,0.1050
1558.00,0.1057
1557.00,0.1051
1556.00,0.1048
1555.00,0.1047
1554.00,0.1047
1553.00,0.1046
1552.00,0.1047
1551.00,0.1048
1550.00,0.1048
1549.00,0.1047
1548.00,0.1044
1547.00,0.1042
1546.00,0.1040
1545.00,0.1040
1544.00,0.1040
1543.00,0.1039
1542.00,0.1036
1541.00,0.1036
1540.00,0.1040
1539.00,0.1040
1538.00,0.1036
1537.00,0.1033
1536.00,0.1032
1535.00,0.1030
1534.00,0.1030
1533.00,0.1030
1532.00,0.1029
1531.00,0.1026
1530.00,0.1024
1529.00,0.1022
1528.00,0.1022
1527.00,0.1020
1526.00,0.1018
1525.00,0.1016
1524.00,0.1014
1523.00,0.1012
1522.00,0.1011
1521.00,0.1012
1520.00,0.1012
1519.00,0.1012
1518.00,0.1011
1517.00,0.1010
1516.00,0.1009
1515.00,0.1005
1514.00,0.1001
1513.00,0.0999
1512.00,0.0997
1511.00,0.0997
1510.00,0.0997
1509.00,0.0997
1508.00,0.0998
1507.00,0.1001
1506.00,0.0998
1505.00,0.0989
1504.00,0.0985
1503.00,0.0982
1502.00,0.0981
1501.00,0.0979
1500.00,0.0977
1499.00,0.0976
1498.00,0.0975
1497.00,0.0976
1496.00,0.0976
1495.00,0.0975
1494.00,0.0973
1493.00,0.0972
1492.00,0.0972
1491.00,0.0973
1490.00,0.0976
1489.00,0.0978
1488.00,0.0977
1487.00,0.0973
1486.00,0.0969
1485.00,0.0966
1484.00,0.0963
1483.00,0.0962
1482.00,0.0961
1481.00,0.0961
1480.00,0.0960
1479.00,0.0959
1478.00,0.0958
1477.00,0.0958
1476.00,0.0959
1475.00,0.0959
1474.00,0.0959
1473.00,0.0961
1472.00,0.0964
1471.00,0.0965
1470.00,0.0965
1469.00,0.0966
1468.00,0.0967
1467.00,0.0966
1466.00,0.0966
1465.00,0.0966
1464.00,0.0966
1463.00,0.0965
1462.00,0.0964
1461.00,0.0963
1460.00,0.0963
1459.00,0.0963
1458.00,0.0964
1457.00,0.0966
1456.00,0.0967
1455.00,0.0966
1454.00,0.0965
1453.00,0.0966
1452.00,0.0966
1451.00,0.0967
1450.00,0.0967
1449.00,0.0969
1448.00,0.0971
1447.00,0.0973
1446.00,0.0973
1445.00,0.0972
1444.00,0.0972
1443.00,0.0972
1442.00,0.0972
1441.00,0.0972
1440.00,0.0973
1439.00,0.0975
1438.00,0.0976
1437.00,0.0978
1436.00,0.0980
1435.00,0.0981
1434.00,0.0980
1433.00,0.0981
1432.00,0.0981
1431.00,0.0982
1430.00,0.0983
1429.00,0.0982
1428.00,0.0982
1427.00,0.0982
1426.00,0.0983
1425.00,0.0984
1424.00,0.0986
1423.00,0.0987
1422.00,0.0987
1421.00,0.0986
1420.00,0.0987
1419.00,0.0990
1418.00,0.0992
1417.00,0.0993
1416.00,0.0994
1415.00,0.0993
1414.00,0.0991
1413.00,0.0990
1412.00,0.0990
1411.00,0.0991
1410.00,0.0991
1409.00,0.0990
1408.00,0.0991
1407.00,0.0991
1406.00,0.0991
1405.00,0.0992
1404.00,0.0993
1403.00,0.0992
1402.00,0.0991
1401.00,0.0990
1400.00,0.0991
1399.00,0.0992
1398.00,0.0994
1397.00,0.0994
1396.00,0.0995
1395.00,0.0996
1394.00,0.0996
1393.00,0.0995
1392.00,0.0996
1391.00,0.0996
1390.00,0.0997
1389.00,0.0998
1388.00,0.0999
1387.00,0.1001
1386.00,0.1002
1385.00,0.1003
1384.00,0.1003
1383.00,0.1004
1382.00,0.1006
1381.00,0.1008
1380.00,0.1010
1379.00,0.1012
1378.00,0.1013
1377.00,0.1015
1376.00,0.1018
1375.00,0.1020
1374.00,0.1023
1373.00,0.1023
1372.00,0.1023
1371.00,0.1023
1370.00,0.1023
1369.00,0.1024
1368.00,0.1025
1367.00,0.1026
1366.00,0.1026
1365.00,0.1026
1364.00,0.1028
1363.00,0.1030
1362.00,0.1033
1361.00,0.1034
1360.00,0.1033
1359.00,0.1033
1358.00,0.1033
1357.00,0.1033
1356.00,0.1034
1355.00,0.1035
1354.00,0.1036
1353.00,0.1036
1352.00,0.1036
1351.00,0.1036
1350.00,0.1035
1349.00,0.1035
1348.00,0.1035
1347.00,0.1036
1346.00,0.1036
1345.00,0.1036
1344.00,0.1036
1343.00,0.1036
1342.00,0.1037
1341.00,0.1039
1340.00,0.1042
1339.00,0.1045
1338.00,0.1047
1337.00,0.1046
1336.00,0.1045
1335.00,0.1044
1334.00,0.1044
1333.00,0.1044
1332.00,0.1044
1331.00,0.1043
1330.00,0.1043
1329.00,0.1043
1328.00,0.1043
1327.00,0.1043
1326.00,0.1042
1325.00,0.1042
1324.00,0.1043
1323.00,0.1044
1322.00,0.1045
1321.00,0.1046
1320.00,0.1048
1319.00,0.1048
1318.00,0.1048
1317.00,0.1047
1316.00,0.1046
1315.00,0.1045
1314.00,0.1046
1313.00,0.1047
1312.00,0.1048
1311.00,0.1049
1310.00,0.1049
1309.00,0.1049
1308.00,0.1049
1307.00,0.1048
1306.00,0.1048
1305.00,0.1048
1304.00,0.1049
1303.00,0.1050
1302.00,0.1050
1301.00,0.1051
1300.00,0.1051
1299.00,0.1051
1298.00,0.1051
1297.00,0.1050
1296.00,0.1050
1295.00,0.1051
1294.00,0.1052
1293.00,0.1053
1292.00,0.1054
1291.00,0.1054
1290.00,0.1055
1289.00,0.1055
1288.00,0.1055
1287.00,0.1056
1286.00,0.1056
1285.00,0.1057
1284.00,0.1058
1283.00,0.1059
1282.00,0.1060
1281.00,0.1060
1280.00,0.1060
1279.00,0.1061
1278.00,0.1061
1277.00,0.1061
1276.00,0.1062
1275.00,0.1062
1274.00,0.1063
1273.00,0.1063
1272.00,0.1064
1271.00,0.1064
1270.00,0.1065
1269.00,0.1065
1268.00,0.1066
1267.00,0.1067
1266.00,0.1068
1265.00,0.1069
1264.00,0.1070
1263.00,0.1070
1262.00,0.1070
1261.00,0.1070
1260.00,0.1072
1259.00,0.1073
1258.00,0.1074
1257.00,0.1074
1256.00,0.1074
1255.00,0.1074
1254.00,0.1075
1253.00,0.1076
1252.00,0.1077
1251.00,0.1078
1250.00,0.1078
1249.00,0.1078
1248.00,0.1079
1247.00,0.1081
1246.00,0.1082
1245.00,0.1083
1244.00,0.1084
1243.00,0.1084
1242.00,0.1084
1241.00,0.1084
1240.00,0.1084
1239.00,0.1085
1238.00,0.1086
1237.00,0.1087
1236.00,0.1088
1235.00,0.1088
1234.00,0.1088
1233.00,0.1088
1232.00,0.1088
1231.00,0.1088
1230.00,0.1088
1229.00,0.1088
1228.00,0.1089
1227.00,0.1090
1226.00,0.1090
1225.00,0.1089
1224.00,0.1089
1223.00,0.1088
1222.00,0.1088
1221.00,0.1088
1220.00,0.1089
1219.00,0.1090
1218.00,0.1090
1217.00,0.1090
1216.00,0.1091
1215.00,0.1091
1214.00,0.1091
1213.00,0.1091
1212.00,0.1091
1211.00,0.1092
1210.00,0.1093
1209.00,0.1093
1208.00,0.1093
1207.00,0.1093
1206.00,0.1092
1205.00,0.1091
1204.00,0.1090
1203.00,0.1090
1202.00,0.1090
1201.00,0.1091
1200.00,0.1091
1199.00,0.1091
1198.00,0.1091
1197.00,0.1090
1196.00,0.1089
1195.00,0.1088
1194.00,0.1088
1193.00,0.1088
1192.00,0.1088
1191.00,0.1087
1190.00,0.1086
1189.00,0.1085
1188.00,0.1085
1187.00,0.1086
1186.00,0.1086
1185.00,0.1085
1184.00,0.1085
1183.00,0.1084
1182.00,0.1083
1181.00,0.1082
1180.00,0.1081
1179.00,0.1080
1178.00,0.1080
1177.00,0.1079
1176.00,0.1080
1175.00,0.1081
1174.00,0.1081
1173.00,0.1081
1172.00,0.1080
1171.00,0.1078
1170.00,0.1076
1169.00,0.1076
1168.00,0.1076
1167.00,0.1077
1166.00,0.1077
1165.00,0.1077
1164.00,0.1076
1163.00,0.1075
1162.00,0.1074
1161.00,0.1074
1160.00,0.1074
1159.00,0.1074
1158.00,0.1073
1157.00,0.1072
1156.00,0.1072
1155.00,0.1073
1154.00,0.1074
1153.00,0.1075
1152.00,0.1074
1151.00,0.1072
1150.00,0.1070
1149.00,0.1069
1148.00,0.1068
1147.00,0.1069
1146.00,0.1069
1145.00,0.1069
1144.00,0.1070
1143.00,0.1072
1142.00,0.1073
1141.00,0.1073
1140.00,0.1072
1139.00,0.1072
1138.00,0.1071
1137.00,0.1070
1136.00,0.1070
1135.00,0.1071
1134.00,0.1072
1133.00,0.1073
1132.00,0.1072
1131.00,0.1072
1130.00,0.1071
1129.00,0.1072
1128.00,0.1073
1127.00,0.1073
1126.00,0.1071
1125.00,0.1069
1124.00,0.1069
1123.00,0.1071
1122.00,0.1074
1121.00,0.1077
1120.00,0.1080
1119.00,0.1080
1118.00,0.1079
1117.00,0.1079
1116.00,0.1080
1115.00,0.1081
1114.00,0.1081
1113.00,0.1080
1112.00,0.1079
1111.00,0.1078
1110.00,0.1078
1109.00,0.1079
1108.00,0.1079
1107.00,0.1079
1106.00,0.1078
1105.00,0.1077
1104.00,0.1077
1103.00,0.1079
1102.00,0.1081
1101.00,0.1081
1100.00,0.1081
1099.00,0.1080
1098.00,0.1079
1097.00,0.1078
1096.00,0.1077
1095.00,0.1076
1094.00,0.1075
1093.00,0.1076
1092.00,0.1078
1091.00,0.1079
1090.00,0.1079
1089.00,0.1077
1088.00,0.1074
1087.00,0.1074
1086.00,0.1074
1085.00,0.1076
1084.00,0.1077
1083.00,0.1078
1082.00,0.1078
1081.00,0.1079
1080.00,0.1079
1079.00,0.1081
1078.00,0.1084
1077.00,0.1086
1076.00,0.1086
1075.00,0.1083
1074.00,0.1081
1073.00,0.1079
1072.00,0.1079
1071.00,0.1079
1070.00,0.1078
1069.00,0.1076
1068.00,0.1075
1067.00,0.1075
1066.00,0.1077
1065.00,0.1078
1064.00,0.1081
1063.00,0.1083
1062.00,0.1083
1061.00,0.1081
1060.00,0.1078
1059.00,0.1077
1058.00,0.1078
1057.00,0.1080
1056.00,0.1081
1055.00,0.1082
1054.00,0.1082
1053.00,0.1082
1052.00,0.1083
1051.00,0.1083
1050.00,0.1085
1049.00,0.1087
1048.00,0.1090
1047.00,0.1092
1046.00,0.1092
1045.00,0.1092
1044.00,0.1093
1043.00,0.1093
1042.00,0.1091
1041.00,0.1089
1040.00,0.1087
1039.00,0.1087
1038.00,0.1089
1037.00,0.1091
1036.00,0.1091
1035.00,0.1091
1034.00,0.1090
1033.00,0.1090
1032.00,0.1090
1031.00,0.1090
1030.00,0.1089
1029.00,0.1088
1028.00,0.1087
1027.00,0.1087
1026.00,0.1087
1025.00,0.1087
1024.00,0.1087
1023.00,0.1086
1022.00,0.1085
1021.00,0.1085
1020.00,0.1084
1019.00,0.1084
1018.00,0.1083
1017.00,0.1083
1016.00,0.1082
1015.00,0.1083
1014.00,0.1083
1013.00,0.1083
1012.00,0.1084
1011.00,0.1084
1010.00,0.1085
1009.00,0.1085
1008.00,0.1084
1007.00,0.1082
1006.00,0.1081
1005.00,0.1080
1004.00,0.1080
1003.00,0.1080
1002.00,0.1080
1001.00,0.1079
1000.00,0.1076
999.00,0.1073
998.00,0.1071
997.00,0.1070
996.00,0.1071
995.00,0.1072
994.00,0.1072
993.00,0.1071
992.00,0.1068
991.00,0.1066
990.00,0.1065
989.00,0.1065
988.00,0.1065
987.00,0.1066
986.00,0.1067
985.00,0.1066
984.00,0.1064
983.00,0.1062
982.00,0.1059
981.00,0.1058
980.00,0.1058
979.00,0.1058
978.00,0.1057
977.00,0.1055
976.00,0.1053
975.00,0.1051
974.00,0.1051
973.00,0.1051
972.00,0.1051
971.00,0.1050
970.00,0.1048
969.00,0.1045
968.00,0.1044
967.00,0.1043
966.00,0.1041
965.00,0.1040
964.00,0.1039
963.00,0.1039
962.00,0.1040
961.00,0.1039
960.00,0.1038
959.00,0.1036
958.00,0.1034
957.00,0.1035
956.00,0.1036
955.00,0.1036
954.00,0.1035
953.00,0.1034
952.00,0.1033
951.00,0.1034
950.00,0.1035
949.00,0.1035
948.00,0.1035
947.00,0.1034
946.00,0.1032
945.00,0.1031
944.00,0.1030
943.00,0.1028
942.00,0.1027
941.00,0.1027
940.00,0.1028
939.00,0.1031
938.00,0.1033
937.00,0.1033
936.00,0.1032
935.00,0.1030
934.00,0.1028
933.00,0.1028
932.00,0.1030
931.00,0.1032
930.00,0.1033
929.00,0.1034
928.00,0.1035
927.00,0.1037
926.00,0.1038
925.00,0.1038
924.00,0.1038
923.00,0.1038
922.00,0.1037
921.00,0.1035
920.00,0.1034
919.00,0.1034
918.00,0.1035
917.00,0.1037
916.00,0.1039
915.00,0.1041
914.00,0.1041
913.00,0.1039
912.00,0.1038
911.00,0.1038
910.00,0.1038
909.00,0.1037
908.00,0.1036
907.00,0.1034
906.00,0.1034
905.00,0.1036
904.00,0.1040
903.00,0.1043
902.00,0.1044
901.00,0.1044
900.00,0.1042
899.00,0.1041
898.00,0.1040
897.00,0.1041
896.00,0.1040
895.00,0.1039
894.00,0.1038
893.00,0.1036
892.00,0.1036
891.00,0.1035
890.00,0.1036
889.00,0.1036
888.00,0.1037
887.00,0.1035
886.00,0.1031
885.00,0.1029
884.00,0.1030
883.00,0.1032
882.00,0.1034
881.00,0.1035
880.00,0.1035
879.00,0.1034
878.00,0.1031
877.00,0.1027
876.00,0.1023
875.00,0.1021
874.00,0.1021
873.00,0.1021
872.00,0.1022
871.00,0.1022
870.00,0.1022
869.00,0.1021
868.00,0.1019
867.00,0.1016
866.00,0.1015
865.00,0.1016
864.00,0.1018
863.00,0.1020
862.00,0.1021
861.00,0.1021
860.00,0.1021
859.00,0.1018
858.00,0.1015
857.00,0.1012
856.00,0.1013
855.00,0.1016
854.00,0.1020
853.00,0.1021
852.00,0.1021
851.00,0.1020
850.00,0.1022
849.00,0.1025
848.00,0.1028
847.00,0.1030
846.00,0.1032
845.00,0.1033
844.00,0.1034
843.00,0.1032
842.00,0.1031
841.00,0.1030
840.00,0.1029
839.00,0.1030
838.00,0.1030
837.00,0.1030
836.00,0.1031
835.00,0.1032
834.00,0.1031
833.00,0.1031
832.00,0.1032
831.00,0.1032
830.00,0.1031
829.00,0.1031
828.00,0.1031
827.00,0.1032
826.00,0.1035
825.00,0.1039
824.00,0.1043
823.00,0.1046
822.00,0.1047
821.00,0.1048
820.00,0.1049
819.00,0.1050
818.00,0.1049
817.00,0.1045
816.00,0.1041
815.00,0.1038
814.00,0.1038
813.00,0.1041
812.00,0.1043
811.00,0.1044
810.00,0.1044
809.00,0.1045
808.00,0.1047
807.00,0.1048
806.00,0.1048
805.00,0.1047
804.00,0.1046
803.00,0.1046
802.00,0.1048
801.00,0.1051
800.00,0.1055
799.00,0.1057
798.00,0.1057
797.00,0.1057
796.00,0.1058
795.00,0.1058
794.00,0.1058
793.00,0.1057
792.00,0.1058
791.00,0.1060
790.00,0.1061
789.00,0.1062
788.00,0.1061
787.00,0.1061
786.00,0.1063
785.00,0.1066
784.00,0.1069
783.00,0.1071
782.00,0.1070
781.00,0.1069
780.00,0.1067
779.00,0.1066
778.00,0.1066
777.00,0.1068
776.00,0.1071
775.00,0.1072
774.00,0.1071
773.00,0.1070
772.00,0.1070
771.00,0.1072
770.00,0.1075
769.00,0.1076
768.00,0.1075
767.00,0.1073
766.00,0.1071
765.00,0.1071
764.00,0.1072
763.00,0.1073
762.00,0.1071
761.00,0.1070
760.00,0.1071
759.00,0.1076
758.00,0.1082
757.00,0.1085
756.00,0.1086
755.00,0.1085
754.00,0.1083
753.00,0.1083
752.00,0.1085
751.00,0.1088
750.00,0.1090
749.00,0.1091
748.00,0.1090
747.00,0.1090
746.00,0.1090
745.00,0.1091
744.00,0.1091
743.00,0.1091
742.00,0.1089
741.00,0.1086
740.00,0.1083
739.00,0.1082
738.00,0.1082
737.00,0.1085
736.00,0.1087
735.00,0.1087
734.00,0.1088
733.00,0.1089
732.00,0.1091
731.00,0.1095
730.00,0.1098
729.00,0.1100
728.00,0.1102
727.00,0.1103
726.00,0.1106
725.00,0.1109
724.00,0.1110
723.00,0.1110
722.00,0.1110
721.00,0.1111
720.00,0.1112
719.00,0.1113
718.00,0.1115
717.00,0.1117
716.00,0.1117
715.00,0.1116
714.00,0.1114
713.00,0.1113
712.00,0.1115
711.00,0.1118
710.00,0.1120
709.00,0.1119
708.00,0.1118
707.00,0.1117
706.00,0.1119
705.00,0.1124
704.00,0.1131
703.00,0.1138
702.00,0.1140
701.00,0.1138
700.00,0.1135
699.00,0.1133
698.00,0.1133
697.00,0.1133
696.00,0.1134
695.00,0.1136
694.00,0.1140
693.00,0.1145
692.00,0.1148
691.00,0.1150
690.00,0.1152
689.00,0.1155
688.00,0.1156
687.00,0.1155
686.00,0.1152
685.00,0.1150
684.00,0.1149
683.00,0.1147
682.00,0.1144
681.00,0.1142
680.00,0.1141
679.00,0.1141
678.00,0.1143
677.00,0.1148
676.00,0.1153
675.00,0.1157
674.00,0.1157
673.00,0.1157
672.00,0.1158
671.00,0.1161
670.00,0.1167
669.00,0.1174
668.00,0.1184
667.00,0.1189
666.00,0.1188
665.00,0.1184
664.00,0.1182
663.00,0.1179
662.00,0.1174
661.00,0.1169
660.00,0.1163
659.00,0.1159
658.00,0.1160
657.00,0.1166
656.00,0.1174
655.00,0.1180
654.00,0.1181
653.00,0.1177
652.00,0.1174
651.00,0.1174
650.00,0.1176
