Created as New Dataset,Monday, April 03 2023
cm-1,A
4000.00,0.0292
3999.00,0.0292
3998.00,0.0291
3997.00,0.0291
3996.00,0.0290
3995.00,0.0289
3994.00,0.0289
3993.00,0.0289
3992.00,0.0289
3991.00,0.0289
3990.00,0.0289
3989.00,0.0288
3988.00,0.0288
3987.00,0.0288
3986.00,0.0288
3985.00,0.0288
3984.00,0.0288
3983.00,0.0288
3982.00,0.0288
3981.00,0.0288
3980.00,0.0288
3979.00,0.0288
3978.00,0.0288
3977.00,0.0288
3976.00,0.0287
3975.00,0.0286
3974.00,0.0286
3973.00,0.0286
3972.00,0.0286
3971.00,0.0287
3970.00,0.0287
3969.00,0.0287
3968.00,0.0287
3967.00,0.0286
3966.00,0.0285
3965.00,0.0285
3964.00,0.0286
3963.00,0.0287
3962.00,0.0287
3961.00,0.0287
3960.00,0.0286
3959.00,0.0285
3958.00,0.0285
3957.00,0.0285
3956.00,0.0285
3955.00,0.0284
3954.00,0.0284
3953.00,0.0283
3952.00,0.0283
3951.00,0.0284
3950.00,0.0285
3949.00,0.0286
3948.00,0.0286
3947.00,0.0285
3946.00,0.0285
3945.00,0.0284
3944.00,0.0283
3943.00,0.0283
3942.00,0.0282
3941.00,0.0281
3940.00,0.0281
3939.00,0.0281
3938.00,0.0282
3937.00,0.0282
3936.00,0.0282
3935.00,0.0281
3934.00,0.0281
3933.00,0.0281
3932.00,0.0281
3931.00,0.0281
3930.00,0.0280
3929.00,0.0280
3928.00,0.0280
3927.00,0.0281
3926.00,0.0281
3925.00,0.0282
3924.00,0.0282
3923.00,0.0281
3922.00,0.0280
3921.00,0.0279
3920.00,0.0279
3919.00,0.0279
3918.00,0.0279
3917.00,0.0279
3916.00,0.0279
3915.00,0.0279
3914.00,0.0279
3913.00,0.0279
3912.00,0.0280
3911.00,0.0281
3910.00,0.0280
3909.00,0.0279
3908.00,0.0277
3907.00,0.0275
3906.00,0.0273
3905.00,0.0272
3904.00,0.0271
3903.00,0.0270
3902.00,0.0270
3901.00,0.0271
3900.00,0.0272
3899.00,0.0272
3898.00,0.0272
3897.00,0.0273
3896.00,0.0274
3895.00,0.0274
3894.00,0.0274
3893.00,0.0275
3892.00,0.0275
3891.00,0.0273
3890.00,0.0270
3889.00,0.0268
3888.00,0.0268
3887.00,0.0269
3886.00,0.0271
3885.00,0.0270
3884.00,0.0268
3883.00,0.0268
3882.00,0.0269
3881.00,0.0270
3880.00,0.0270
3879.00,0.0269
3878.00,0.0268
3877.00,0.0270
3876.00,0.0272
3875.00,0.0273
3874.00,0.0271
3873.00,0.0268
3872.00,0.0266
3871.00,0.0266
3870.00,0.0267
3869.00,0.0267
3868.00,0.0265
3867.00,0.0265
3866.00,0.0268
3865.00,0.0270
3864.00,0.0271
3863.00,0.0271
3862.00,0.0271
3861.00,0.0271
3860.00,0.0271
3859.00,0.0270
3858.00,0.0266
3857.00,0.0261
3856.00,0.0255
3855.00,0.0253
3854.00,0.0257
3853.00,0.0259
3852.00,0.0258
3851.00,0.0259
3850.00,0.0264
3849.00,0.0269
3848.00,0.0271
3847.00,0.0270
3846.00,0.0269
3845.00,0.0268
3844.00,0.0267
3843.00,0.0266
3842.00,0.0264
3841.00,0.0263
3840.00,0.0263
3839.00,0.0264
3838.00,0.0265
3837.00,0.0264
3836.00,0.0264
3835.00,0.0264
3834.00,0.0265
3833.00,0.0266
3832.00,0.0267
3831.00,0.0267
3830.00,0.0267
3829.00,0.0267
3828.00,0.0268
3827.00,0.0268
3826.00,0.0266
3825.00,0.0264
3824.00,0.0263
3823.00,0.0263
3822.00,0.0265
3821.00,0.0264
3820.00,0.0261
3819.00,0.0258
3818.00,0.0258
3817.00,0.0262
3816.00,0.0265
3815.00,0.0265
3814.00,0.0265
3813.00,0.0266
3812.00,0.0267
3811.00,0.0266
3810.00,0.0263
3809.00,0.0261
3808.00,0.0262
3807.00,0.0263
3806.00,0.0263
3805.00,0.0262
3804.00,0.0262
3803.00,0.0263
3802.00,0.0265
3801.00,0.0265
3800.00,0.0262
3799.00,0.0261
3798.00,0.0262
3797.00,0.0264
3796.00,0.0264
3795.00,0.0263
3794.00,0.0263
3793.00,0.0264
3792.00,0.0266
3791.00,0.0266
3790.00,0.0266
3789.00,0.0266
3788.00,0.0266
3787.00,0.0266
3786.00,0.0267
3785.00,0.0267
3784.00,0.0266
3783.00,0.0264
3782.00,0.0263
3781.00,0.0263
3780.00,0.0262
3779.00,0.0262
3778.00,0.0261
3777.00,0.0261
3776.00,0.0262
3775.00,0.0262
3774.00,0.0261
3773.00,0.0260
3772.00,0.0259
3771.00,0.0259
3770.00,0.0258
3769.00,0.0257
3768.00,0.0256
3767.00,0.0256
3766.00,0.0257
3765.00,0.0258
3764.00,0.0257
3763.00,0.0257
3762.00,0.0257
3761.00,0.0258
3760.00,0.0258
3759.00,0.0258
3758.00,0.0256
3757.00,0.0255
3756.00,0.0253
3755.00,0.0250
3754.00,0.0248
3753.00,0.0246
3752.00,0.0247
3751.00,0.0249
3750.00,0.0250
3749.00,0.0248
3748.00,0.0247
3747.00,0.0247
3746.00,0.0248
3745.00,0.0248
3744.00,0.0247
3743.00,0.0243
3742.00,0.0244
3741.00,0.0249
3740.00,0.0252
3739.00,0.0252
3738.00,0.0250
3737.00,0.0250
3736.00,0.0249
3735.00,0.0247
3734.00,0.0244
3733.00,0.0243
3732.00,0.0243
3731.00,0.0245
3730.00,0.0247
3729.00,0.0249
3728.00,0.0251
3727.00,0.0252
3726.00,0.0251
3725.00,0.0249
3724.00,0.0248
3723.00,0.0248
3722.00,0.0248
3721.00,0.0249
3720.00,0.0250
3719.00,0.0250
3718.00,0.0251
3717.00,0.0250
3716.00,0.0248
3715.00,0.0246
3714.00,0.0245
3713.00,0.0245
3712.00,0.0246
3711.00,0.0245
3710.00,0.0244
3709.00,0.0243
3708.00,0.0244
3707.00,0.0247
3706.00,0.0249
3705.00,0.0251
3704.00,0.0251
3703.00,0.0250
3702.00,0.0249
3701.00,0.0248
3700.00,0.0247
3699.00,0.0247
3698.00,0.0249
3697.00,0.0250
3696.00,0.0249
3695.00,0.0248
3694.00,0.0246
3693.00,0.0243
3692.00,0.0242
3691.00,0.0242
3690.00,0.0244
3689.00,0.0245
3688.00,0.0244
3687.00,0.0244
3686.00,0.0245
3685.00,0.0247
3684.00,0.0249
3683.00,0.0249
3682.00,0.0247
3681.00,0.0245
3680.00,0.0242
3679.00,0.0238
3678.00,0.0234
3677.00,0.0233
3676.00,0.0235
3675.00,0.0234
3674.00,0.0231
3673.00,0.0230
3672.00,0.0234
3671.00,0.0240
3670.00,0.0244
3669.00,0.0244
3668.00,0.0243
3667.00,0.0244
3666.00,0.0246
3665.00,0.0249
3664.00,0.0251
3663.00,0.0252
3662.00,0.0253
3661.00,0.0254
3660.00,0.0254
3659.00,0.0254
3658.00,0.0255
3657.00,0.0257
3656.00,0.0257
3655.00,0.0255
3654.00,0.0253
3653.00,0.0252
3652.00,0.0251
3651.00,0.0252
3650.00,0.0255
3649.00,0.0258
3648.00,0.0258
3647.00,0.0259
3646.00,0.0261
3645.00,0.0264
3644.00,0.0269
3643.00,0.0273
3642.00,0.0275
3641.00,0.0277
3640.00,0.0278
3639.00,0.0279
3638.00,0.0281
3637.00,0.0282
3636.00,0.0282
3635.00,0.0283
3634.00,0.0283
3633.00,0.0281
3632.00,0.0278
3631.00,0.0278
3630.00,0.0281
3629.00,0.0286
3628.00,0.0288
3627.00,0.0287
3626.00,0.0289
3625.00,0.0293
3624.00,0.0296
3623.00,0.0296
3622.00,0.0295
3621.00,0.0296
3620.00,0.0298
3619.00,0.0300
3618.00,0.0301
3617.00,0.0301
3616.00,0.0303
3615.00,0.0305
3614.00,0.0308
3613.00,0.0309
3612.00,0.0308
3611.00,0.0309
3610.00,0.0311
3609.00,0.0314
3608.00,0.0318
3607.00,0.0319
3606.00,0.0319
3605.00,0.0319
3604.00,0.0320
3603.00,0.0322
3602.00,0.0325
3601.00,0.0327
3600.00,0.0329
3599.00,0.0329
3598.00,0.0328
3597.00,0.0328
3596.00,0.0329
3595.00,0.0330
3594.00,0.0331
3593.00,0.0331
3592.00,0.0330
3591.00,0.0329
3590.00,0.0329
3589.00,0.0331
3588.00,0.0334
3587.00,0.0337
3586.00,0.0339
3585.00,0.0340
3584.00,0.0342
3583.00,0.0344
3582.00,0.0346
3581.00,0.0347
3580.00,0.0348
3579.00,0.0349
3578.00,0.0350
3577.00,0.0351
3576.00,0.0352
3575.00,0.0353
3574.00,0.0354
3573.00,0.0355
3572.00,0.0354
3571.00,0.0351
3570.00,0.0349
3569.00,0.0350
3568.00,0.0354
3567.00,0.0359
3566.00,0.0361
3565.00,0.0361
3564.00,0.0361
3563.00,0.0362
3562.00,0.0364
3561.00,0.0366
3560.00,0.0368
3559.00,0.0369
3558.00,0.0370
3557.00,0.0371
3556.00,0.0373
3555.00,0.0374
3554.00,0.0375
3553.00,0.0376
3552.00,0.0377
3551.00,0.0378
3550.00,0.0378
3549.00,0.0378
3548.00,0.0379
3547.00,0.0381
3546.00,0.0383
3545.00,0.0385
3544.00,0.0386
3543.00,0.0387
3542.00,0.0387
3541.00,0.0388
3540.00,0.0387
3539.00,0.0387
3538.00,0.0387
3537.00,0.0388
3536.00,0.0389
3535.00,0.0391
3534.00,0.0392
3533.00,0.0393
3532.00,0.0394
3531.00,0.0395
3530.00,0.0395
3529.00,0.0395
3528.00,0.0396
3527.00,0.0396
3526.00,0.0398
3525.00,0.0400
3524.00,0.0402
3523.00,0.0405
3522.00,0.0405
3521.00,0.0405
3520.00,0.0405
3519.00,0.0404
3518.00,0.0404
3517.00,0.0405
3516.00,0.0405
3515.00,0.0406
3514.00,0.0407
3513.00,0.0409
3512.00,0.0410
3511.00,0.0412
3510.00,0.0413
3509.00,0.0413
3508.00,0.0413
3507.00,0.0413
3506.00,0.0413
3505.00,0.0415
3504.00,0.0417
3503.00,0.0419
3502.00,0.0421
3501.00,0.0421
3500.00,0.0421
3499.00,0.0422
3498.00,0.0423
3497.00,0.0424
3496.00,0.0425
3495.00,0.0425
3494.00,0.0424
3493.00,0.0425
3492.00,0.0425
3491.00,0.0425
3490.00,0.0426
3489.00,0.0426
3488.00,0.0427
3487.00,0.0428
3486.00,0.0429
3485.00,0.0429
3484.00,0.0430
3483.00,0.0431
3482.00,0.0433
3481.00,0.0434
3480.00,0.0435
3479.00,0.0435
3478.00,0.0435
3477.00,0.0436
3476.00,0.0437
3475.00,0.0438
3474.00,0.0439
3473.00,0.0440
3472.00,0.0441
3471.00,0.0442
3470.00,0.0443
3469.00,0.0444
3468.00,0.0445
3467.00,0.0445
3466.00,0.0446
3465.00,0.0446
3464.00,0.0446
3463.00,0.0446
3462.00,0.0446
3461.00,0.0446
3460.00,0.0447
3459.00,0.0449
3458.00,0.0450
3457.00,0.0451
3456.00,0.0451
3455.00,0.0451
3454.00,0.0452
3453.00,0.0453
3452.00,0.0454
3451.00,0.0454
3450.00,0.0455
3449.00,0.0456
3448.00,0.0457
3447.00,0.0458
3446.00,0.0459
3445.00,0.0460
3444.00,0.0461
3443.00,0.0461
3442.00,0.0461
3441.00,0.0460
3440.00,0.0460
3439.00,0.0460
3438.00,0.0461
3437.00,0.0462
3436.00,0.0462
3435.00,0.0462
3434.00,0.0463
3433.00,0.0463
3432.00,0.0465
3431.00,0.0466
3430.00,0.0467
3429.00,0.0467
3428.00,0.0467
3427.00,0.0468
3426.00,0.0468
3425.00,0.0469
3424.00,0.0471
3423.00,0.0472
3422.00,0.0473
3421.00,0.0474
3420.00,0.0474
3419.00,0.0475
3418.00,0.0475
3417.00,0.0475
3416.00,0.0474
3415.00,0.0474
3414.00,0.0474
3413.00,0.0475
3412.00,0.0477
3411.00,0.0478
3410.00,0.0479
3409.00,0.0479
3408.00,0.0480
3407.00,0.0481
3406.00,0.0481
3405.00,0.0481
3404.00,0.0481
3403.00,0.0481
3402.00,0.0481
3401.00,0.0482
3400.00,0.0483
3399.00,0.0484
3398.00,0.0484
3397.00,0.0484
3396.00,0.0483
3395.00,0.0483
3394.00,0.0484
3393.00,0.0485
3392.00,0.0487
3391.00,0.0488
3390.00,0.0488
3389.00,0.0489
3388.00,0.0489
3387.00,0.0488
3386.00,0.0489
3385.00,0.0489
3384.00,0.0490
3383.00,0.0491
3382.00,0.0491
3381.00,0.0491
3380.00,0.0492
3379.00,0.0493
3378.00,0.0494
3377.00,0.0494
3376.00,0.0494
3375.00,0.0494
3374.00,0.0494
3373.00,0.0494
3372.00,0.0494
3371.00,0.0494
3370.00,0.0494
3369.00,0.0495
3368.00,0.0496
3367.00,0.0496
3366.00,0.0496
3365.00,0.0495
3364.00,0.0495
3363.00,0.0496
3362.00,0.0498
3361.00,0.0499
3360.00,0.0500
3359.00,0.0500
3358.00,0.0500
3357.00,0.0500
3356.00,0.0500
3355.00,0.0501
3354.00,0.0501
3353.00,0.0502
3352.00,0.0502
3351.00,0.0502
3350.00,0.0503
3349.00,0.0503
3348.00,0.0503
3347.00,0.0503
3346.00,0.0503
3345.00,0.0503
3344.00,0.0503
3343.00,0.0503
3342.00,0.0503
3341.00,0.0504
3340.00,0.0504
3339.00,0.0505
3338.00,0.0505
3337.00,0.0505
3336.00,0.0506
3335.00,0.0506
3334.00,0.0507
3333.00,0.0507
3332.00,0.0507
3331.00,0.0506
3330.00,0.0505
3329.00,0.0505
3328.00,0.0505
3327.00,0.0506
3326.00,0.0507
3325.00,0.0508
3324.00,0.0509
3323.00,0.0509
3322.00,0.0509
3321.00,0.0509
3320.00,0.0508
3319.00,0.0508
3318.00,0.0508
3317.00,0.0508
3316.00,0.0508
3315.00,0.0509
3314.00,0.0509
3313.00,0.0509
3312.00,0.0509
3311.00,0.0509
3310.00,0.0510
3309.00,0.0511
3308.00,0.0512
3307.00,0.0512
3306.00,0.0512
3305.00,0.0511
3304.00,0.0511
3303.00,0.0511
3302.00,0.0511
3301.00,0.0511
3300.00,0.0511
3299.00,0.0511
3298.00,0.0512
3297.00,0.0512
3296.00,0.0513
3295.00,0.0513
3294.00,0.0513
3293.00,0.0513
3292.00,0.0513
3291.00,0.0513
3290.00,0.0513
3289.00,0.0513
3288.00,0.0513
3287.00,0.0514
3286.00,0.0514
3285.00,0.0514
3284.00,0.0515
3283.00,0.0515
3282.00,0.0515
3281.00,0.0515
3280.00,0.0515
3279.00,0.0515
3278.00,0.0515
3277.00,0.0515
3276.00,0.0515
3275.00,0.0516
3274.00,0.0516
3273.00,0.0517
3272.00,0.0517
3271.00,0.0517
3270.00,0.0518
3269.00,0.0519
3268.00,0.0519
3267.00,0.0519
3266.00,0.0519
3265.00,0.0518
3264.00,0.0517
3263.00,0.0516
3262.00,0.0516
3261.00,0.0516
3260.00,0.0517
3259.00,0.0518
3258.00,0.0518
3257.00,0.0518
3256.00,0.0518
3255.00,0.0518
3254.00,0.0518
3253.00,0.0519
3252.00,0.0520
3251.00,0.0520
3250.00,0.0520
3249.00,0.0519
3248.00,0.0519
3247.00,0.0519
3246.00,0.0520
3245.00,0.0520
3244.00,0.0521
3243.00,0.0521
3242.00,0.0521
3241.00,0.0521
3240.00,0.0521
3239.00,0.0521
3238.00,0.0521
3237.00,0.0522
3236.00,0.0523
3235.00,0.0524
3234.00,0.0524
3233.00,0.0525
3232.00,0.0524
3231.00,0.0524
3230.00,0.0523
3229.00,0.0523
3228.00,0.0523
3227.00,0.0523
3226.00,0.0523
3225.00,0.0523
3224.00,0.0523
3223.00,0.0523
3222.00,0.0523
3221.00,0.0523
3220.00,0.0523
3219.00,0.0523
3218.00,0.0523
3217.00,0.0524
3216.00,0.0525
3215.00,0.0525
3214.00,0.0526
3213.00,0.0526
3212.00,0.0525
3211.00,0.0524
3210.00,0.0523
3209.00,0.0523
3208.00,0.0523
3207.00,0.0523
3206.00,0.0524
3205.00,0.0525
3204.00,0.0525
3203.00,0.0526
3202.00,0.0526
3201.00,0.0526
3200.00,0.0526
3199.00,0.0526
3198.00,0.0526
3197.00,0.0526
3196.00,0.0526
3195.00,0.0526
3194.00,0.0525
3193.00,0.0525
3192.00,0.0525
3191.00,0.0524
3190.00,0.0524
3189.00,0.0523
3188.00,0.0523
3187.00,0.0522
3186.00,0.0523
3185.00,0.0523
3184.00,0.0524
3183.00,0.0525
3182.00,0.0525
3181.00,0.0525
3180.00,0.0525
3179.00,0.0525
3178.00,0.0524
3177.00,0.0524
3176.00,0.0524
3175.00,0.0523
3174.00,0.0524
3173.00,0.0524
3172.00,0.0524
3171.00,0.0524
3170.00,0.0523
3169.00,0.0523
3168.00,0.0523
3167.00,0.0523
3166.00,0.0524
3165.00,0.0524
3164.00,0.0525
3163.00,0.0525
3162.00,0.0524
3161.00,0.0523
3160.00,0.0522
3159.00,0.0521
3158.00,0.0520
3157.00,0.0520
3156.00,0.0520
3155.00,0.0521
3154.00,0.0521
3153.00,0.0521
3152.00,0.0521
3151.00,0.0521
3150.00,0.0520
3149.00,0.0520
3148.00,0.0520
3147.00,0.0520
3146.00,0.0520
3145.00,0.0520
3144.00,0.0520
3143.00,0.0520
3142.00,0.0519
3141.00,0.0519
3140.00,0.0518
3139.00,0.0518
3138.00,0.0518
3137.00,0.0518
3136.00,0.0518
3135.00,0.0518
3134.00,0.0517
3133.00,0.0517
3132.00,0.0517
3131.00,0.0517
3130.00,0.0517
3129.00,0.0517
3128.00,0.0517
3127.00,0.0517
3126.00,0.0516
3125.00,0.0516
3124.00,0.0516
3123.00,0.0516
3122.00,0.0515
3121.00,0.0515
3120.00,0.0515
3119.00,0.0515
3118.00,0.0515
3117.00,0.0515
3116.00,0.0515
3115.00,0.0515
3114.00,0.0514
3113.00,0.0514
3112.00,0.0514
3111.00,0.0514
3110.00,0.0513
3109.00,0.0513
3108.00,0.0513
3107.00,0.0513
3106.00,0.0514
3105.00,0.0514
3104.00,0.0514
3103.00,0.0513
3102.00,0.0513
3101.00,0.0512
3100.00,0.0511
3099.00,0.0510
3098.00,0.0510
3097.00,0.0510
3096.00,0.0511
3095.00,0.0512
3094.00,0.0513
3093.00,0.0513
3092.00,0.0512
3091.00,0.0511
3090.00,0.0510
3089.00,0.0509
3088.00,0.0508
3087.00,0.0508
3086.00,0.0509
3085.00,0.0510
3084.00,0.0510
3083.00,0.0510
3082.00,0.0509
3081.00,0.0509
3080.00,0.0509
3079.00,0.0509
3078.00,0.0508
3077.00,0.0508
3076.00,0.0507
3075.00,0.0507
3074.00,0.0508
3073.00,0.0508
3072.00,0.0508
3071.00,0.0508
3070.00,0.0507
3069.00,0.0507
3068.00,0.0507
3067.00,0.0507
3066.00,0.0506
3065.00,0.0506
3064.00,0.0505
3063.00,0.0504
3062.00,0.0504
3061.00,0.0504
3060.00,0.0504
3059.00,0.0504
3058.00,0.0504
3057.00,0.0504
3056.00,0.0504
3055.00,0.0503
3054.00,0.0503
3053.00,0.0502
3052.00,0.0502
3051.00,0.0502
3050.00,0.0502
3049.00,0.0502
3048.00,0.0502
3047.00,0.0502
3046.00,0.0501
3045.00,0.0501
3044.00,0.0500
3043.00,0.0499
3042.00,0.0497
3041.00,0.0497
3040.00,0.0496
3039.00,0.0496
3038.00,0.0496
3037.00,0.0497
3036.00,0.0497
3035.00,0.0497
3034.00,0.0496
3033.00,0.0496
3032.00,0.0496
3031.00,0.0495
3030.00,0.0494
3029.00,0.0493
3028.00,0.0492
3027.00,0.0492
3026.00,0.0492
3025.00,0.0492
3024.00,0.0492
3023.00,0.0492
3022.00,0.0491
3021.00,0.0491
3020.00,0.0490
3019.00,0.0489
3018.00,0.0488
3017.00,0.0488
3016.00,0.0488
3015.00,0.0487
3014.00,0.0486
3013.00,0.0486
3012.00,0.0485
3011.00,0.0484
3010.00,0.0483
3009.00,0.0482
3008.00,0.0480
3007.00,0.0479
3006.00,0.0478
3005.00,0.0477
3004.00,0.0477
3003.00,0.0476
3002.00,0.0474
3001.00,0.0473
3000.00,0.0471
2999.00,0.0470
2998.00,0.0468
2997.00,0.0467
2996.00,0.0466
2995.00,0.0465
2994.00,0.0465
2993.00,0.0464
2992.00,0.0463
2991.00,0.0462
2990.00,0.0461
2989.00,0.0461
2988.00,0.0460
2987.00,0.0458
2986.00,0.0456
2985.00,0.0453
2984.00,0.0450
2983.00,0.0447
2982.00,0.0446
2981.00,0.0446
2980.00,0.0447
2979.00,0.0448
2978.00,0.0450
2977.00,0.0451
2976.00,0.0452
2975.00,0.0452
2974.00,0.0452
2973.00,0.0451
2972.00,0.0450
2971.00,0.0450
2970.00,0.0451
2969.00,0.0452
2968.00,0.0453
2967.00,0.0454
2966.00,0.0454
2965.00,0.0454
2964.00,0.0454
2963.00,0.0455
2962.00,0.0456
2961.00,0.0456
2960.00,0.0456
2959.00,0.0456
2958.00,0.0456
2957.00,0.0456
2956.00,0.0457
2955.00,0.0458
2954.00,0.0458
2953.00,0.0459
2952.00,0.0459
2951.00,0.0459
2950.00,0.0459
2949.00,0.0459
2948.00,0.0458
2947.00,0.0458
2946.00,0.0458
2945.00,0.0459
2944.00,0.0459
2943.00,0.0460
2942.00,0.0460
2941.00,0.0460
2940.00,0.0460
2939.00,0.0459
2938.00,0.0459
2937.00,0.0459
2936.00,0.0459
2935.00,0.0459
2934.00,0.0459
2933.00,0.0459
2932.00,0.0458
2931.00,0.0458
2930.00,0.0458
2929.00,0.0458
2928.00,0.0457
2927.00,0.0457
2926.00,0.0457
2925.00,0.0456
2924.00,0.0456
2923.00,0.0456
2922.00,0.0456
2921.00,0.0456
2920.00,0.0455
2919.00,0.0454
2918.00,0.0453
2917.00,0.0452
2916.00,0.0451
2915.00,0.0451
2914.00,0.0451
2913.00,0.0451
2912.00,0.0451
2911.00,0.0451
2910.00,0.0450
2909.00,0.0449
2908.00,0.0449
2907.00,0.0448
2906.00,0.0448
2905.00,0.0447
2904.00,0.0447
2903.00,0.0446
2902.00,0.0446
2901.00,0.0446
2900.00,0.0445
2899.00,0.0445
2898.00,0.0444
2897.00,0.0444
2896.00,0.0444
2895.00,0.0444
2894.00,0.0443
2893.00,0.0443
2892.00,0.0442
2891.00,0.0442
2890.00,0.0442
2889.00,0.0441
2888.00,0.0440
2887.00,0.0440
2886.00,0.0440
2885.00,0.0439
2884.00,0.0439
2883.00,0.0439
2882.00,0.0439
2881.00,0.0439
2880.00,0.0439
2879.00,0.0439
2878.00,0.0440
2877.00,0.0440
2876.00,0.0439
2875.00,0.0439
2874.00,0.0439
2873.00,0.0438
2872.00,0.0438
2871.00,0.0437
2870.00,0.0437
2869.00,0.0437
2868.00,0.0437
2867.00,0.0437
2866.00,0.0437
2865.00,0.0437
2864.00,0.0437
2863.00,0.0437
2862.00,0.0436
2861.00,0.0437
2860.00,0.0437
2859.00,0.0438
2858.00,0.0438
2857.00,0.0439
2856.00,0.0439
2855.00,0.0438
2854.00,0.0437
2853.00,0.0437
2852.00,0.0436
2851.00,0.0436
2850.00,0.0437
2849.00,0.0437
2848.00,0.0437
2847.00,0.0437
2846.00,0.0436
2845.00,0.0436
2844.00,0.0435
2843.00,0.0435
2842.00,0.0434
2841.00,0.0434
2840.00,0.0433
2839.00,0.0432
2838.00,0.0431
2837.00,0.0431
2836.00,0.0432
2835.00,0.0432
2834.00,0.0432
2833.00,0.0431
2832.00,0.0430
2831.00,0.0429
2830.00,0.0429
2829.00,0.0429
2828.00,0.0429
2827.00,0.0429
2826.00,0.0429
2825.00,0.0429
2824.00,0.0429
2823.00,0.0429
2822.00,0.0428
2821.00,0.0427
2820.00,0.0426
2819.00,0.0426
2818.00,0.0425
2817.00,0.0425
2816.00,0.0425
2815.00,0.0424
2814.00,0.0424
2813.00,0.0423
2812.00,0.0423
2811.00,0.0423
2810.00,0.0423
2809.00,0.0423
2808.00,0.0422
2807.00,0.0422
2806.00,0.0422
2805.00,0.0422
2804.00,0.0422
2803.00,0.0422
2802.00,0.0422
2801.00,0.0422
2800.00,0.0422
2799.00,0.0422
2798.00,0.0421
2797.00,0.0421
2796.00,0.0420
2795.00,0.0419
2794.00,0.0419
2793.00,0.0418
2792.00,0.0418
2791.00,0.0418
2790.00,0.0418
2789.00,0.0419
2788.00,0.0418
2787.00,0.0418
2786.00,0.0417
2785.00,0.0417
2784.00,0.0417
2783.00,0.0417
2782.00,0.0416
2781.00,0.0415
2780.00,0.0414
2779.00,0.0413
2778.00,0.0414
2777.00,0.0414
2776.00,0.0414
2775.00,0.0414
2774.00,0.0414
2773.00,0.0413
2772.00,0.0413
2771.00,0.0412
2770.00,0.0411
2769.00,0.0410
2768.00,0.0410
2767.00,0.0410
2766.00,0.0410
2765.00,0.0410
2764.00,0.0410
2763.00,0.0410
2762.00,0.0410
2761.00,0.0410
2760.00,0.0410
2759.00,0.0410
2758.00,0.0409
2757.00,0.0409
2756.00,0.0408
2755.00,0.0408
2754.00,0.0408
2753.00,0.0408
2752.00,0.0408
2751.00,0.0407
2750.00,0.0407
2749.00,0.0407
2748.00,0.0406
2747.00,0.0406
2746.00,0.0406
2745.00,0.0406
2744.00,0.0406
2743.00,0.0406
2742.00,0.0405
2741.00,0.0405
2740.00,0.0405
2739.00,0.0404
2738.00,0.0404
2737.00,0.0403
2736.00,0.0403
2735.00,0.0403
2734.00,0.0403
2733.00,0.0403
2732.00,0.0403
2731.00,0.0403
2730.00,0.0402
2729.00,0.0401
2728.00,0.0401
2727.00,0.0401
2726.00,0.0401
2725.00,0.0401
2724.00,0.0401
2723.00,0.0400
2722.00,0.0400
2721.00,0.0399
2720.00,0.0399
2719.00,0.0399
2718.00,0.0399
2717.00,0.0399
2716.00,0.0399
2715.00,0.0399
2714.00,0.0399
2713.00,0.0398
2712.00,0.0398
2711.00,0.0398
2710.00,0.0397
2709.00,0.0397
2708.00,0.0397
2707.00,0.0396
2706.00,0.0395
2705.00,0.0395
2704.00,0.0395
2703.00,0.0395
2702.00,0.0394
2701.00,0.0394
2700.00,0.0394
2699.00,0.0394
2698.00,0.0394
2697.00,0.0394
2696.00,0.0393
2695.00,0.0393
2694.00,0.0393
2693.00,0.0394
2692.00,0.0394
2691.00,0.0394
2690.00,0.0393
2689.00,0.0393
2688.00,0.0393
2687.00,0.0392
2686.00,0.0392
2685.00,0.0392
2684.00,0.0392
2683.00,0.0392
2682.00,0.0391
2681.00,0.0391
2680.00,0.0390
2679.00,0.0389
2678.00,0.0388
2677.00,0.0388
2676.00,0.0387
2675.00,0.0388
2674.00,0.0388
2673.00,0.0388
2672.00,0.0388
2671.00,0.0387
2670.00,0.0387
2669.00,0.0387
2668.00,0.0387
2667.00,0.0387
2666.00,0.0387
2665.00,0.0387
2664.00,0.0387
2663.00,0.0387
2662.00,0.0387
2661.00,0.0387
2660.00,0.0387
2659.00,0.0387
2658.00,0.0388
2657.00,0.0388
2656.00,0.0388
2655.00,0.0388
2654.00,0.0388
2653.00,0.0388
2652.00,0.0388
2651.00,0.0388
2650.00,0.0388
2649.00,0.0388
2648.00,0.0387
2647.00,0.0387
2646.00,0.0386
2645.00,0.0386
2644.00,0.0386
2643.00,0.0387
2642.00,0.0387
2641.00,0.0387
2640.00,0.0387
2639.00,0.0387
2638.00,0.0387
2637.00,0.0386
2636.00,0.0386
2635.00,0.0385
2634.00,0.0386
2633.00,0.0386
2632.00,0.0386
2631.00,0.0386
2630.00,0.0385
2629.00,0.0384
2628.00,0.0384
2627.00,0.0384
2626.00,0.0384
2625.00,0.0385
2624.00,0.0386
2623.00,0.0386
2622.00,0.0386
2621.00,0.0386
2620.00,0.0387
2619.00,0.0387
2618.00,0.0386
2617.00,0.0386
2616.00,0.0385
2615.00,0.0385
2614.00,0.0384
2613.00,0.0384
2612.00,0.0385
2611.00,0.0385
2610.00,0.0385
2609.00,0.0385
2608.00,0.0384
2607.00,0.0384
2606.00,0.0384
2605.00,0.0384
2604.00,0.0385
2603.00,0.0385
2602.00,0.0385
2601.00,0.0384
2600.00,0.0384
2599.00,0.0384
2598.00,0.0383
2597.00,0.0383
2596.00,0.0382
2595.00,0.0382
2594.00,0.0382
2593.00,0.0383
2592.00,0.0383
2591.00,0.0384
2590.00,0.0384
2589.00,0.0384
2588.00,0.0384
2587.00,0.0384
2586.00,0.0383
2585.00,0.0382
2584.00,0.0382
2583.00,0.0381
2582.00,0.0382
2581.00,0.0382
2580.00,0.0383
2579.00,0.0383
2578.00,0.0383
2577.00,0.0382
2576.00,0.0381
2575.00,0.0381
2574.00,0.0381
2573.00,0.0381
2572.00,0.0381
2571.00,0.0380
2570.00,0.0379
2569.00,0.0379
2568.00,0.0379
2567.00,0.0380
2566.00,0.0381
2565.00,0.0382
2564.00,0.0381
2563.00,0.0381
2562.00,0.0381
2561.00,0.0381
2560.00,0.0381
2559.00,0.0381
2558.00,0.0381
2557.00,0.0382
2556.00,0.0382
2555.00,0.0382
2554.00,0.0381
2553.00,0.0380
2552.00,0.0379
2551.00,0.0378
2550.00,0.0377
2549.00,0.0376
2548.00,0.0375
2547.00,0.0375
2546.00,0.0375
2545.00,0.0376
2544.00,0.0376
2543.00,0.0376
2542.00,0.0375
2541.00,0.0374
2540.00,0.0373
2539.00,0.0372
2538.00,0.0372
2537.00,0.0372
2536.00,0.0372
2535.00,0.0373
2534.00,0.0374
2533.00,0.0375
2532.00,0.0375
2531.00,0.0374
2530.00,0.0373
2529.00,0.0372
2528.00,0.0372
2527.00,0.0372
2526.00,0.0371
2525.00,0.0370
2524.00,0.0370
2523.00,0.0370
2522.00,0.0371
2521.00,0.0372
2520.00,0.0372
2519.00,0.0373
2518.00,0.0373
2517.00,0.0374
2516.00,0.0374
2515.00,0.0374
2514.00,0.0372
2513.00,0.0371
2512.00,0.0371
2511.00,0.0371
2510.00,0.0372
2509.00,0.0373
2508.00,0.0373
2507.00,0.0373
2506.00,0.0372
2505.00,0.0371
2504.00,0.0371
2503.00,0.0370
2502.00,0.0370
2501.00,0.0371
2500.00,0.0371
2499.00,0.0372
2498.00,0.0372
2497.00,0.0371
2496.00,0.0371
2495.00,0.0371
2494.00,0.0372
2493.00,0.0372
2492.00,0.0372
2491.00,0.0372
2490.00,0.0371
2489.00,0.0371
2488.00,0.0372
2487.00,0.0372
2486.00,0.0372
2485.00,0.0371
2484.00,0.0369
2483.00,0.0368
2482.00,0.0368
2481.00,0.0368
2480.00,0.0369
2479.00,0.0369
2478.00,0.0368
2477.00,0.0368
2476.00,0.0367
2475.00,0.0367
2474.00,0.0368
2473.00,0.0368
2472.00,0.0368
2471.00,0.0368
2470.00,0.0368
2469.00,0.0368
2468.00,0.0367
2467.00,0.0366
2466.00,0.0366
2465.00,0.0365
2464.00,0.0365
2463.00,0.0364
2462.00,0.0365
2461.00,0.0365
2460.00,0.0366
2459.00,0.0366
2458.00,0.0367
2457.00,0.0367
2456.00,0.0367
2455.00,0.0367
2454.00,0.0367
2453.00,0.0368
2452.00,0.0369
2451.00,0.0368
2450.00,0.0367
2449.00,0.0366
2448.00,0.0365
2447.00,0.0364
2446.00,0.0364
2445.00,0.0363
2444.00,0.0363
2443.00,0.0362
2442.00,0.0362
2441.00,0.0362
2440.00,0.0363
2439.00,0.0363
2438.00,0.0363
2437.00,0.0363
2436.00,0.0362
2435.00,0.0362
2434.00,0.0361
2433.00,0.0361
2432.00,0.0361
2431.00,0.0361
2430.00,0.0361
2429.00,0.0361
2428.00,0.0361
2427.00,0.0361
2426.00,0.0361
2425.00,0.0361
2424.00,0.0361
2423.00,0.0361
2422.00,0.0360
2421.00,0.0360
2420.00,0.0359
2419.00,0.0359
2418.00,0.0359
2417.00,0.0358
2416.00,0.0358
2415.00,0.0358
2414.00,0.0358
2413.00,0.0359
2412.00,0.0359
2411.00,0.0359
2410.00,0.0359
2409.00,0.0358
2408.00,0.0358
2407.00,0.0357
2406.00,0.0357
2405.00,0.0357
2404.00,0.0357
2403.00,0.0356
2402.00,0.0355
2401.00,0.0355
2400.00,0.0355
2399.00,0.0355
2398.00,0.0354
2397.00,0.0354
2396.00,0.0354
2395.00,0.0353
2394.00,0.0353
2393.00,0.0353
2392.00,0.0352
2391.00,0.0352
2390.00,0.0352
2389.00,0.0352
2388.00,0.0352
2387.00,0.0351
2386.00,0.0351
2385.00,0.0350
2384.00,0.0349
2383.00,0.0348
2382.00,0.0347
2381.00,0.0347
2380.00,0.0348
2379.00,0.0348
2378.00,0.0347
2377.00,0.0347
2376.00,0.0346
2375.00,0.0346
2374.00,0.0346
2373.00,0.0346
2372.00,0.0346
2371.00,0.0345
2370.00,0.0343
2369.00,0.0340
2368.00,0.0338
2367.00,0.0339
2366.00,0.0343
2365.00,0.0347
2364.00,0.0348
2363.00,0.0346
2362.00,0.0344
2361.00,0.0343
2360.00,0.0343
2359.00,0.0344
2358.00,0.0344
2357.00,0.0344
2356.00,0.0344
2355.00,0.0342
2354.00,0.0340
2353.00,0.0339
2352.00,0.0340
2351.00,0.0341
2350.00,0.0341
2349.00,0.0341
2348.00,0.0339
2347.00,0.0337
2346.00,0.0335
2345.00,0.0336
2344.00,0.0339
2343.00,0.0342
2342.00,0.0343
2341.00,0.0344
2340.00,0.0343
2339.00,0.0342
2338.00,0.0340
2337.00,0.0339
2336.00,0.0338
2335.00,0.0338
2334.00,0.0338
2333.00,0.0339
2332.00,0.0339
2331.00,0.0338
2330.00,0.0338
2329.00,0.0338
2328.00,0.0339
2327.00,0.0340
2326.00,0.0341
2325.00,0.0341
2324.00,0.0340
2323.00,0.0340
2322.00,0.0340
2321.00,0.0341
2320.00,0.0341
2319.00,0.0341
2318.00,0.0340
2317.00,0.0340
2316.00,0.0341
2315.00,0.0341
2314.00,0.0341
2313.00,0.0341
2312.00,0.0340
2311.00,0.0340
2310.00,0.0341
2309.00,0.0342
2308.00,0.0343
2307.00,0.0343
2306.00,0.0343
2305.00,0.0342
2304.00,0.0342
2303.00,0.0341
2302.00,0.0341
2301.00,0.0341
2300.00,0.0342
2299.00,0.0343
2298.00,0.0343
2297.00,0.0343
2296.00,0.0343
2295.00,0.0343
2294.00,0.0344
2293.00,0.0346
2292.00,0.0347
2291.00,0.0348
2290.00,0.0348
2289.00,0.0347
2288.00,0.0347
2287.00,0.0347
2286.00,0.0349
2285.00,0.0350
2284.00,0.0351
2283.00,0.0351
2282.00,0.0351
2281.00,0.0350
2280.00,0.0350
2279.00,0.0350
2278.00,0.0350
2277.00,0.0350
2276.00,0.0349
2275.00,0.0348
2274.00,0.0347
2273.00,0.0346
2272.00,0.0346
2271.00,0.0346
2270.00,0.0347
2269.00,0.0347
2268.00,0.0347
2267.00,0.0347
2266.00,0.0346
2265.00,0.0347
2264.00,0.0348
2263.00,0.0349
2262.00,0.0349
2261.00,0.0349
2260.00,0.0348
2259.00,0.0347
2258.00,0.0346
2257.00,0.0343
2256.00,0.0341
2255.00,0.0341
2254.00,0.0342
2253.00,0.0343
2252.00,0.0343
2251.00,0.0344
2250.00,0.0345
2249.00,0.0345
2248.00,0.0345
2247.00,0.0345
2246.00,0.0346
2245.00,0.0347
2244.00,0.0348
2243.00,0.0348
2242.00,0.0347
2241.00,0.0347
2240.00,0.0346
2239.00,0.0346
2238.00,0.0346
2237.00,0.0347
2236.00,0.0346
2235.00,0.0346
2234.00,0.0347
2233.00,0.0348
2232.00,0.0348
2231.00,0.0347
2230.00,0.0346
2229.00,0.0345
2228.00,0.0346
2227.00,0.0347
2226.00,0.0347
2225.00,0.0347
2224.00,0.0346
2223.00,0.0345
2222.00,0.0344
2221.00,0.0343
2220.00,0.0343
2219.00,0.0344
2218.00,0.0344
2217.00,0.0344
2216.00,0.0345
2215.00,0.0346
2214.00,0.0347
2213.00,0.0348
2212.00,0.0347
2211.00,0.0345
2210.00,0.0344
2209.00,0.0344
2208.00,0.0345
2207.00,0.0345
2206.00,0.0346
2205.00,0.0346
2204.00,0.0344
2203.00,0.0343
2202.00,0.0342
2201.00,0.0341
2200.00,0.0341
2199.00,0.0341
2198.00,0.0342
2197.00,0.0342
2196.00,0.0341
2195.00,0.0340
2194.00,0.0340
2193.00,0.0340
2192.00,0.0340
2191.00,0.0338
2190.00,0.0336
2189.00,0.0335
2188.00,0.0336
2187.00,0.0340
2186.00,0.0343
2185.00,0.0344
2184.00,0.0342
2183.00,0.0338
2182.00,0.0335
2181.00,0.0335
2180.00,0.0336
2179.00,0.0339
2178.00,0.0341
2177.00,0.0343
2176.00,0.0343
2175.00,0.0342
2174.00,0.0340
2173.00,0.0339
2172.00,0.0339
2171.00,0.0341
2170.00,0.0344
2169.00,0.0347
2168.00,0.0349
2167.00,0.0349
2166.00,0.0350
2165.00,0.0350
2164.00,0.0350
2163.00,0.0350
2162.00,0.0348
2161.00,0.0344
2160.00,0.0337
2159.00,0.0330
2158.00,0.0325
2157.00,0.0323
2156.00,0.0324
2155.00,0.0326
2154.00,0.0329
2153.00,0.0332
2152.00,0.0333
2151.00,0.0331
2150.00,0.0327
2149.00,0.0325
2148.00,0.0324
2147.00,0.0325
2146.00,0.0326
2145.00,0.0328
2144.00,0.0329
2143.00,0.0330
2142.00,0.0331
2141.00,0.0332
2140.00,0.0332
2139.00,0.0330
2138.00,0.0328
2137.00,0.0326
2136.00,0.0323
2135.00,0.0321
2134.00,0.0320
2133.00,0.0320
2132.00,0.0321
2131.00,0.0322
2130.00,0.0322
2129.00,0.0324
2128.00,0.0325
2127.00,0.0326
2126.00,0.0325
2125.00,0.0325
2124.00,0.0324
2123.00,0.0323
2122.00,0.0322
2121.00,0.0321
2120.00,0.0321
2119.00,0.0320
2118.00,0.0320
2117.00,0.0320
2116.00,0.0319
2115.00,0.0317
2114.00,0.0316
2113.00,0.0316
2112.00,0.0317
2111.00,0.0318
2110.00,0.0320
2109.00,0.0321
2108.00,0.0322
2107.00,0.0324
2106.00,0.0325
2105.00,0.0325
2104.00,0.0324
2103.00,0.0323
2102.00,0.0322
2101.00,0.0321
2100.00,0.0318
2099.00,0.0316
2098.00,0.0314
2097.00,0.0314
2096.00,0.0315
2095.00,0.0316
2094.00,0.0317
2093.00,0.0317
2092.00,0.0316
2091.00,0.0315
2090.00,0.0314
2089.00,0.0314
2088.00,0.0314
2087.00,0.0314
2086.00,0.0315
2085.00,0.0316
2084.00,0.0317
2083.00,0.0318
2082.00,0.0318
2081.00,0.0317
2080.00,0.0317
2079.00,0.0317
2078.00,0.0315
2077.00,0.0314
2076.00,0.0314
2075.00,0.0315
2074.00,0.0316
2073.00,0.0316
2072.00,0.0316
2071.00,0.0317
2070.00,0.0316
2069.00,0.0314
2068.00,0.0311
2067.00,0.0310
2066.00,0.0310
2065.00,0.0311
2064.00,0.0311
2063.00,0.0312
2062.00,0.0312
2061.00,0.0311
2060.00,0.0310
2059.00,0.0309
2058.00,0.0309
2057.00,0.0310
2056.00,0.0310
2055.00,0.0311
2054.00,0.0313
2053.00,0.0316
2052.00,0.0318
2051.00,0.0317
2050.00,0.0314
2049.00,0.0311
2048.00,0.0309
2047.00,0.0309
2046.00,0.0311
2045.00,0.0314
2044.00,0.0317
2043.00,0.0318
2042.00,0.0317
2041.00,0.0315
2040.00,0.0312
2039.00,0.0310
2038.00,0.0311
2037.00,0.0314
2036.00,0.0316
2035.00,0.0315
2034.00,0.0314
2033.00,0.0314
2032.00,0.0316
2031.00,0.0317
2030.00,0.0316
2029.00,0.0312
2028.00,0.0308
2027.00,0.0306
2026.00,0.0305
2025.00,0.0304
2024.00,0.0303
2023.00,0.0300
2022.00,0.0298
2021.00,0.0296
2020.00,0.0295
2019.00,0.0292
2018.00,0.0290
2017.00,0.0289
2016.00,0.0291
2015.00,0.0294
2014.00,0.0297
2013.00,0.0298
2012.00,0.0298
2011.00,0.0297
2010.00,0.0298
2009.00,0.0300
2008.00,0.0301
2007.00,0.0300
2006.00,0.0298
2005.00,0.0297
2004.00,0.0296
2003.00,0.0297
2002.00,0.0299
2001.00,0.0301
2000.00,0.0301
1999.00,0.0299
1998.00,0.0298
1997.00,0.0298
1996.00,0.0300
1995.00,0.0303
1994.00,0.0304
1993.00,0.0304
1992.00,0.0302
1991.00,0.0300
1990.00,0.0298
1989.00,0.0296
1988.00,0.0294
1987.00,0.0294
1986.00,0.0294
1985.00,0.0296
1984.00,0.0297
1983.00,0.0298
1982.00,0.0298
1981.00,0.0296
1980.00,0.0293
1979.00,0.0288
1978.00,0.0283
1977.00,0.0279
1976.00,0.0278
1975.00,0.0281
1974.00,0.0286
1973.00,0.0290
1972.00,0.0289
1971.00,0.0286
1970.00,0.0285
1969.00,0.0285
1968.00,0.0285
1967.00,0.0282
1966.00,0.0279
1965.00,0.0277
1964.00,0.0278
1963.00,0.0280
1962.00,0.0281
1961.00,0.0282
1960.00,0.0282
1959.00,0.0283
1958.00,0.0283
1957.00,0.0282
1956.00,0.0280
1955.00,0.0279
1954.00,0.0279
1953.00,0.0279
1952.00,0.0278
1951.00,0.0277
1950.00,0.0275
1949.00,0.0274
1948.00,0.0274
1947.00,0.0275
1946.00,0.0275
1945.00,0.0274
1944.00,0.0272
1943.00,0.0269
1942.00,0.0266
1941.00,0.0265
1940.00,0.0265
1939.00,0.0265
1938.00,0.0265
1937.00,0.0265
1936.00,0.0265
1935.00,0.0264
1934.00,0.0262
1933.00,0.0261
1932.00,0.0261
1931.00,0.0262
1930.00,0.0263
1929.00,0.0265
1928.00,0.0266
1927.00,0.0268
1926.00,0.0268
1925.00,0.0268
1924.00,0.0266
1923.00,0.0263
1922.00,0.0262
1921.00,0.0262
1920.00,0.0262
1919.00,0.0261
1918.00,0.0258
1917.00,0.0256
1916.00,0.0255
1915.00,0.0256
1914.00,0.0257
1913.00,0.0258
1912.00,0.0257
1911.00,0.0256
1910.00,0.0254
1909.00,0.0252
1908.00,0.0250
1907.00,0.0249
1906.00,0.0249
1905.00,0.0251
1904.00,0.0251
1903.00,0.0251
1902.00,0.0251
1901.00,0.0250
1900.00,0.0249
1899.00,0.0249
1898.00,0.0249
1897.00,0.0249
1896.00,0.0247
1895.00,0.0244
1894.00,0.0243
1893.00,0.0243
1892.00,0.0244
1891.00,0.0244
1890.00,0.0243
1889.00,0.0241
1888.00,0.0240
1887.00,0.0240
1886.00,0.0240
1885.00,0.0240
1884.00,0.0240
1883.00,0.0239
1882.00,0.0239
1881.00,0.0238
1880.00,0.0237
1879.00,0.0236
1878.00,0.0235
1877.00,0.0235
1876.00,0.0234
1875.00,0.0234
1874.00,0.0235
1873.00,0.0237
1872.00,0.0238
1871.00,0.0238
1870.00,0.0236
1869.00,0.0233
1868.00,0.0228
1867.00,0.0226
1866.00,0.0226
1865.00,0.0227
1864.00,0.0227
1863.00,0.0226
1862.00,0.0225
1861.00,0.0224
1860.00,0.0224
1859.00,0.0223
1858.00,0.0222
1857.00,0.0222
1856.00,0.0222
1855.00,0.0222
1854.00,0.0221
1853.00,0.0219
1852.00,0.0219
1851.00,0.0219
1850.00,0.0220
1849.00,0.0220
1848.00,0.0219
1847.00,0.0219
1846.00,0.0220
1845.00,0.0219
1844.00,0.0215
1843.00,0.0211
1842.00,0.0211
1841.00,0.0212
1840.00,0.0213
1839.00,0.0213
1838.00,0.0212
1837.00,0.0211
1836.00,0.0210
1835.00,0.0210
1834.00,0.0210
1833.00,0.0212
1832.00,0.0213
1831.00,0.0213
1830.00,0.0209
1829.00,0.0204
1828.00,0.0203
1827.00,0.0204
1826.00,0.0205
1825.00,0.0203
1824.00,0.0200
1823.00,0.0199
1822.00,0.0199
1821.00,0.0199
1820.00,0.0199
1819.00,0.0198
1818.00,0.0196
1817.00,0.0195
1816.00,0.0194
1815.00,0.0193
1814.00,0.0193
1813.00,0.0193
1812.00,0.0193
1811.00,0.0191
1810.00,0.0189
1809.00,0.0189
1808.00,0.0189
1807.00,0.0189
1806.00,0.0190
1805.00,0.0190
1804.00,0.0191
1803.00,0.0191
1802.00,0.0190
1801.00,0.0188
1800.00,0.0186
1799.00,0.0185
1798.00,0.0185
1797.00,0.0186
1796.00,0.0188
1795.00,0.0189
1794.00,0.0189
1793.00,0.0189
1792.00,0.0187
1791.00,0.0184
1790.00,0.0184
1789.00,0.0185
1788.00,0.0188
1787.00,0.0190
1786.00,0.0191
1785.00,0.0191
1784.00,0.0191
1783.00,0.0191
1782.00,0.0192
1781.00,0.0192
1780.00,0.0191
1779.00,0.0191
1778.00,0.0194
1777.00,0.0197
1776.00,0.0200
1775.00,0.0202
1774.00,0.0204
1773.00,0.0202
1772.00,0.0199
1771.00,0.0197
1770.00,0.0200
1769.00,0.0204
1768.00,0.0207
1767.00,0.0207
1766.00,0.0209
1765.00,0.0213
1764.00,0.0216
1763.00,0.0217
1762.00,0.0216
1761.00,0.0214
1760.00,0.0215
1759.00,0.0218
1758.00,0.0220
1757.00,0.0220
1756.00,0.0220
1755.00,0.0223
1754.00,0.0228
1753.00,0.0231
1752.00,0.0232
1751.00,0.0230
1750.00,0.0229
1749.00,0.0229
1748.00,0.0230
1747.00,0.0233
1746.00,0.0236
1745.00,0.0240
1744.00,0.0243
1743.00,0.0245
1742.00,0.0248
1741.00,0.0252
1740.00,0.0255
1739.00,0.0255
1738.00,0.0258
1737.00,0.0262
1736.00,0.0268
1735.00,0.0271
1734.00,0.0270
1733.00,0.0267
1732.00,0.0269
1731.00,0.0274
1730.00,0.0279
1729.00,0.0282
1728.00,0.0285
1727.00,0.0289
1726.00,0.0293
1725.00,0.0296
1724.00,0.0300
1723.00,0.0302
1722.00,0.0305
1721.00,0.0308
1720.00,0.0311
1719.00,0.0313
1718.00,0.0314
1717.00,0.0314
1716.00,0.0316
1715.00,0.0319
1714.00,0.0324
1713.00,0.0328
1712.00,0.0331
1711.00,0.0333
1710.00,0.0335
1709.00,0.0336
1708.00,0.0338
1707.00,0.0340
1706.00,0.0340
1705.00,0.0340
1704.00,0.0342
1703.00,0.0346
1702.00,0.0350
1701.00,0.0353
1700.00,0.0352
1699.00,0.0349
1698.00,0.0350
1697.00,0.0352
1696.00,0.0351
1695.00,0.0349
1694.00,0.0350
1693.00,0.0356
1692.00,0.0361
1691.00,0.0363
1690.00,0.0364
1689.00,0.0365
1688.00,0.0366
1687.00,0.0366
1686.00,0.0366
1685.00,0.0367
1684.00,0.0367
1683.00,0.0367
1682.00,0.0372
1681.00,0.0377
1680.00,0.0379
1679.00,0.0381
1678.00,0.0385
1677.00,0.0390
1676.00,0.0396
1675.00,0.0399
1674.00,0.0399
1673.00,0.0400
1672.00,0.0402
1671.00,0.0405
1670.00,0.0408
1669.00,0.0410
1668.00,0.0411
1667.00,0.0413
1666.00,0.0416
1665.00,0.0419
1664.00,0.0421
1663.00,0.0424
1662.00,0.0426
1661.00,0.0429
1660.00,0.0432
1659.00,0.0435
1658.00,0.0438
1657.00,0.0439
1656.00,0.0438
1655.00,0.0436
1654.00,0.0439
1653.00,0.0443
1652.00,0.0441
1651.00,0.0445
1650.00,0.0452
1649.00,0.0456
1648.00,0.0459
1647.00,0.0462
1646.00,0.0464
1645.00,0.0467
1644.00,0.0472
1643.00,0.0475
1642.00,0.0477
1641.00,0.0479
1640.00,0.0479
1639.00,0.0480
1638.00,0.0481
1637.00,0.0485
1636.00,0.0492
1635.00,0.0497
1634.00,0.0499
1633.00,0.0502
1632.00,0.0503
1631.00,0.0504
1630.00,0.0505
1629.00,0.0508
1628.00,0.0510
1627.00,0.0513
1626.00,0.0517
1625.00,0.0521
1624.00,0.0526
1623.00,0.0530
1622.00,0.0532
1621.00,0.0534
1620.00,0.0535
1619.00,0.0536
1618.00,0.0538
1617.00,0.0541
1616.00,0.0544
1615.00,0.0547
1614.00,0.0551
1613.00,0.0555
1612.00,0.0557
1611.00,0.0559
1610.00,0.0562
1609.00,0.0565
1608.00,0.0567
1607.00,0.0570
1606.00,0.0573
1605.00,0.0576
1604.00,0.0579
1603.00,0.0581
1602.00,0.0583
1601.00,0.0584
1600.00,0.0586
1599.00,0.0589
1598.00,0.0592
1597.00,0.0595
1596.00,0.0598
1595.00,0.0601
1594.00,0.0604
1593.00,0.0606
1592.00,0.0609
1591.00,0.0611
1590.00,0.0614
1589.00,0.0616
1588.00,0.0619
1587.00,0.0622
1586.00,0.0624
1585.00,0.0626
1584.00,0.0628
1583.00,0.0630
1582.00,0.0632
1581.00,0.0633
1580.00,0.0633
1579.00,0.0634
1578.00,0.0634
1577.00,0.0637
1576.00,0.0641
1575.00,0.0643
1574.00,0.0645
1573.00,0.0646
1572.00,0.0646
1571.00,0.0648
1570.00,0.0652
1569.00,0.0655
1568.00,0.0657
1567.00,0.0658
1566.00,0.0658
1565.00,0.0656
1564.00,0.0655
1563.00,0.0652
1562.00,0.0647
1561.00,0.0640
1560.00,0.0643
1559.00,0.0659
1558.00,0.0663
1557.00,0.0663
1556.00,0.0663
1555.00,0.0663
1554.00,0.0662
1553.00,0.0661
1552.00,0.0660
1551.00,0.0659
1550.00,0.0658
1549.00,0.0656
1548.00,0.0654
1547.00,0.0651
1546.00,0.0648
1545.00,0.0646
1544.00,0.0644
1543.00,0.0640
1542.00,0.0638
1541.00,0.0638
1540.00,0.0640
1539.00,0.0638
1538.00,0.0636
1537.00,0.0636
1536.00,0.0634
1535.00,0.0632
1534.00,0.0630
1533.00,0.0629
1532.00,0.0627
1531.00,0.0624
1530.00,0.0621
1529.00,0.0618
1528.00,0.0616
1527.00,0.0614
1526.00,0.0611
1525.00,0.0608
1524.00,0.0605
1523.00,0.0602
1522.00,0.0600
1521.00,0.0599
1520.00,0.0598
1519.00,0.0598
1518.00,0.0597
1517.00,0.0594
1516.00,0.0592
1515.00,0.0590
1514.00,0.0589
1513.00,0.0587
1512.00,0.0584
1511.00,0.0580
1510.00,0.0575
1509.00,0.0571
1508.00,0.0569
1507.00,0.0570
1506.00,0.0569
1505.00,0.0568
1504.00,0.0569
1503.00,0.0568
1502.00,0.0565
1501.00,0.0562
1500.00,0.0560
1499.00,0.0559
1498.00,0.0558
1497.00,0.0559
1496.00,0.0559
1495.00,0.0558
1494.00,0.0557
1493.00,0.0555
1492.00,0.0553
1491.00,0.0552
1490.00,0.0551
1489.00,0.0551
1488.00,0.0550
1487.00,0.0549
1486.00,0.0548
1485.00,0.0547
1484.00,0.0546
1483.00,0.0545
1482.00,0.0544
1481.00,0.0543
1480.00,0.0542
1479.00,0.0541
1478.00,0.0539
1477.00,0.0539
1476.00,0.0538
1475.00,0.0537
1474.00,0.0537
1473.00,0.0538
1472.00,0.0540
1471.00,0.0541
1470.00,0.0541
1469.00,0.0542
1468.00,0.0541
1467.00,0.0541
1466.00,0.0541
1465.00,0.0541
1464.00,0.0541
1463.00,0.0540
1462.00,0.0538
1461.00,0.0536
1460.00,0.0533
1459.00,0.0532
1458.00,0.0534
1457.00,0.0538
1456.00,0.0540
1455.00,0.0541
1454.00,0.0541
1453.00,0.0542
1452.00,0.0542
1451.00,0.0543
1450.00,0.0545
1449.00,0.0547
1448.00,0.0549
1447.00,0.0551
1446.00,0.0552
1445.00,0.0551
1444.00,0.0552
1443.00,0.0552
1442.00,0.0551
1441.00,0.0551
1440.00,0.0552
1439.00,0.0554
1438.00,0.0556
1437.00,0.0560
1436.00,0.0563
1435.00,0.0563
1434.00,0.0562
1433.00,0.0561
1432.00,0.0561
1431.00,0.0562
1430.00,0.0563
1429.00,0.0564
1428.00,0.0565
1427.00,0.0565
1426.00,0.0566
1425.00,0.0567
1424.00,0.0568
1423.00,0.0569
1422.00,0.0569
1421.00,0.0570
1420.00,0.0572
1419.00,0.0576
1418.00,0.0579
1417.00,0.0581
1416.00,0.0583
1415.00,0.0584
1414.00,0.0584
1413.00,0.0583
1412.00,0.0584
1411.00,0.0585
1410.00,0.0585
1409.00,0.0586
1408.00,0.0587
1407.00,0.0588
1406.00,0.0589
1405.00,0.0590
1404.00,0.0592
1403.00,0.0592
1402.00,0.0593
1401.00,0.0593
1400.00,0.0595
1399.00,0.0597
1398.00,0.0598
1397.00,0.0599
1396.00,0.0601
1395.00,0.0603
1394.00,0.0604
1393.00,0.0606
1392.00,0.0608
1391.00,0.0609
1390.00,0.0609
1389.00,0.0610
1388.00,0.0612
1387.00,0.0613
1386.00,0.0614
1385.00,0.0615
1384.00,0.0615
1383.00,0.0616
1382.00,0.0617
1381.00,0.0619
1380.00,0.0621
1379.00,0.0622
1378.00,0.0623
1377.00,0.0623
1376.00,0.0624
1375.00,0.0626
1374.00,0.0628
1373.00,0.0630
1372.00,0.0631
1371.00,0.0632
1370.00,0.0632
1369.00,0.0632
1368.00,0.0632
1367.00,0.0632
1366.00,0.0632
1365.00,0.0631
1364.00,0.0631
1363.00,0.0632
1362.00,0.0634
1361.00,0.0635
1360.00,0.0636
1359.00,0.0636
1358.00,0.0636
1357.00,0.0636
1356.00,0.0637
1355.00,0.0637
1354.00,0.0637
1353.00,0.0637
1352.00,0.0636
1351.00,0.0635
1350.00,0.0634
1349.00,0.0633
1348.00,0.0633
1347.00,0.0632
1346.00,0.0632
1345.00,0.0632
1344.00,0.0631
1343.00,0.0629
1342.00,0.0628
1341.00,0.0628
1340.00,0.0628
1339.00,0.0629
1338.00,0.0629
1337.00,0.0629
1336.00,0.0629
1335.00,0.0629
1334.00,0.0628
1333.00,0.0628
1332.00,0.0627
1331.00,0.0627
1330.00,0.0627
1329.00,0.0626
1328.00,0.0626
1327.00,0.0625
1326.00,0.0624
1325.00,0.0624
1324.00,0.0624
1323.00,0.0625
1322.00,0.0625
1321.00,0.0626
1320.00,0.0626
1319.00,0.0625
1318.00,0.0624
1317.00,0.0622
1316.00,0.0621
1315.00,0.0621
1314.00,0.0620
1313.00,0.0621
1312.00,0.0622
1311.00,0.0622
1310.00,0.0622
1309.00,0.0622
1308.00,0.0622
1307.00,0.0622
1306.00,0.0621
1305.00,0.0621
1304.00,0.0622
1303.00,0.0623
1302.00,0.0623
1301.00,0.0623
1300.00,0.0622
1299.00,0.0621
1298.00,0.0620
1297.00,0.0619
1296.00,0.0619
1295.00,0.0619
1294.00,0.0620
1293.00,0.0621
1292.00,0.0622
1291.00,0.0622
1290.00,0.0622
1289.00,0.0622
1288.00,0.0622
1287.00,0.0621
1286.00,0.0621
1285.00,0.0622
1284.00,0.0623
1283.00,0.0624
1282.00,0.0624
1281.00,0.0623
1280.00,0.0623
1279.00,0.0622
1278.00,0.0622
1277.00,0.0622
1276.00,0.0622
1275.00,0.0623
1274.00,0.0623
1273.00,0.0623
1272.00,0.0623
1271.00,0.0623
1270.00,0.0624
1269.00,0.0624
1268.00,0.0624
1267.00,0.0625
1266.00,0.0626
1265.00,0.0626
1264.00,0.0626
1263.00,0.0626
1262.00,0.0625
1261.00,0.0625
1260.00,0.0625
1259.00,0.0626
1258.00,0.0626
1257.00,0.0626
1256.00,0.0626
1255.00,0.0626
1254.00,0.0627
1253.00,0.0628
1252.00,0.0628
1251.00,0.0628
1250.00,0.0627
1249.00,0.0627
1248.00,0.0627
1247.00,0.0628
1246.00,0.0629
1245.00,0.0629
1244.00,0.0630
1243.00,0.0630
1242.00,0.0629
1241.00,0.0628
1240.00,0.0628
1239.00,0.0628
1238.00,0.0629
1237.00,0.0630
1236.00,0.0630
1235.00,0.0630
1234.00,0.0630
1233.00,0.0629
1232.00,0.0629
1231.00,0.0629
1230.00,0.0629
1229.00,0.0629
1228.00,0.0629
1227.00,0.0629
1226.00,0.0628
1225.00,0.0628
1224.00,0.0627
1223.00,0.0627
1222.00,0.0626
1221.00,0.0626
1220.00,0.0626
1219.00,0.0626
1218.00,0.0625
1217.00,0.0625
1216.00,0.0625
1215.00,0.0625
1214.00,0.0624
1213.00,0.0623
1212.00,0.0623
1211.00,0.0623
1210.00,0.0623
1209.00,0.0624
1208.00,0.0623
1207.00,0.0623
1206.00,0.0622
1205.00,0.0620
1204.00,0.0619
1203.00,0.0619
1202.00,0.0619
1201.00,0.0618
1200.00,0.0618
1199.00,0.0618
1198.00,0.0617
1197.00,0.0616
1196.00,0.0615
1195.00,0.0614
1194.00,0.0614
1193.00,0.0613
1192.00,0.0613
1191.00,0.0612
1190.00,0.0611
1189.00,0.0609
1188.00,0.0609
1187.00,0.0608
1186.00,0.0608
1185.00,0.0607
1184.00,0.0606
1183.00,0.0604
1182.00,0.0602
1181.00,0.0600
1180.00,0.0599
1179.00,0.0598
1178.00,0.0598
1177.00,0.0598
1176.00,0.0597
1175.00,0.0597
1174.00,0.0597
1173.00,0.0597
1172.00,0.0596
1171.00,0.0594
1170.00,0.0592
1169.00,0.0591
1168.00,0.0590
1167.00,0.0590
1166.00,0.0589
1165.00,0.0589
1164.00,0.0588
1163.00,0.0588
1162.00,0.0587
1161.00,0.0585
1160.00,0.0584
1159.00,0.0583
1158.00,0.0582
1157.00,0.0582
1156.00,0.0583
1155.00,0.0584
1154.00,0.0584
1153.00,0.0583
1152.00,0.0580
1151.00,0.0578
1150.00,0.0576
1149.00,0.0575
1148.00,0.0574
1147.00,0.0574
1146.00,0.0574
1145.00,0.0575
1144.00,0.0576
1143.00,0.0576
1142.00,0.0577
1141.00,0.0577
1140.00,0.0576
1139.00,0.0575
1138.00,0.0575
1137.00,0.0575
1136.00,0.0576
1135.00,0.0577
1134.00,0.0578
1133.00,0.0579
1132.00,0.0578
1131.00,0.0577
1130.00,0.0576
1129.00,0.0577
1128.00,0.0577
1127.00,0.0576
1126.00,0.0574
1125.00,0.0571
1124.00,0.0571
1123.00,0.0573
1122.00,0.0577
1121.00,0.0580
1120.00,0.0582
1119.00,0.0582
1118.00,0.0581
1117.00,0.0581
1116.00,0.0582
1115.00,0.0583
1114.00,0.0583
1113.00,0.0583
1112.00,0.0581
1111.00,0.0581
1110.00,0.0581
1109.00,0.0581
1108.00,0.0581
1107.00,0.0580
1106.00,0.0579
1105.00,0.0578
1104.00,0.0579
1103.00,0.0580
1102.00,0.0581
1101.00,0.0581
1100.00,0.0581
1099.00,0.0581
1098.00,0.0581
1097.00,0.0581
1096.00,0.0581
1095.00,0.0580
1094.00,0.0579
1093.00,0.0579
1092.00,0.0579
1091.00,0.0580
1090.00,0.0579
1089.00,0.0577
1088.00,0.0575
1087.00,0.0575
1086.00,0.0576
1085.00,0.0577
1084.00,0.0578
1083.00,0.0578
1082.00,0.0579
1081.00,0.0580
1080.00,0.0580
1079.00,0.0582
1078.00,0.0584
1077.00,0.0586
1076.00,0.0585
1075.00,0.0582
1074.00,0.0579
1073.00,0.0577
1072.00,0.0577
1071.00,0.0577
1070.00,0.0575
1069.00,0.0573
1068.00,0.0572
1067.00,0.0573
1066.00,0.0575
1065.00,0.0578
1064.00,0.0580
1063.00,0.0580
1062.00,0.0579
1061.00,0.0577
1060.00,0.0575
1059.00,0.0573
1058.00,0.0574
1057.00,0.0575
1056.00,0.0577
1055.00,0.0578
1054.00,0.0579
1053.00,0.0581
1052.00,0.0582
1051.00,0.0582
1050.00,0.0582
1049.00,0.0583
1048.00,0.0584
1047.00,0.0586
1046.00,0.0587
1045.00,0.0587
1044.00,0.0587
1043.00,0.0586
1042.00,0.0584
1041.00,0.0581
1040.00,0.0580
1039.00,0.0580
1038.00,0.0582
1037.00,0.0583
1036.00,0.0582
1035.00,0.0581
1034.00,0.0580
1033.00,0.0578
1032.00,0.0577
1031.00,0.0576
1030.00,0.0574
1029.00,0.0571
1028.00,0.0569
1027.00,0.0568
1026.00,0.0567
1025.00,0.0568
1024.00,0.0569
1023.00,0.0568
1022.00,0.0566
1021.00,0.0564
1020.00,0.0562
1019.00,0.0561
1018.00,0.0561
1017.00,0.0561
1016.00,0.0561
1015.00,0.0562
1014.00,0.0562
1013.00,0.0561
1012.00,0.0559
1011.00,0.0558
1010.00,0.0557
1009.00,0.0557
1008.00,0.0555
1007.00,0.0554
1006.00,0.0552
1005.00,0.0552
1004.00,0.0553
1003.00,0.0553
1002.00,0.0553
1001.00,0.0552
1000.00,0.0549
999.00,0.0546
998.00,0.0543
997.00,0.0541
996.00,0.0542
995.00,0.0543
994.00,0.0542
993.00,0.0539
992.00,0.0536
991.00,0.0534
990.00,0.0532
989.00,0.0532
988.00,0.0532
987.00,0.0533
986.00,0.0533
985.00,0.0533
984.00,0.0531
983.00,0.0529
982.00,0.0527
981.00,0.0525
980.00,0.0525
979.00,0.0524
978.00,0.0523
977.00,0.0520
976.00,0.0518
975.00,0.0516
974.00,0.0516
973.00,0.0516
972.00,0.0516
971.00,0.0516
970.00,0.0514
969.00,0.0512
968.00,0.0510
967.00,0.0509
966.00,0.0507
965.00,0.0505
964.00,0.0504
963.00,0.0504
962.00,0.0505
961.00,0.0504
960.00,0.0503
959.00,0.0501
958.00,0.0500
957.00,0.0500
956.00,0.0499
955.00,0.0498
954.00,0.0497
953.00,0.0496
952.00,0.0497
951.00,0.0499
950.00,0.0500
949.00,0.0500
948.00,0.0499
947.00,0.0498
946.00,0.0496
945.00,0.0495
944.00,0.0495
943.00,0.0494
942.00,0.0493
941.00,0.0493
940.00,0.0495
939.00,0.0497
938.00,0.0499
937.00,0.0499
936.00,0.0497
935.00,0.0495
934.00,0.0495
933.00,0.0498
932.00,0.0501
931.00,0.0504
930.00,0.0506
929.00,0.0506
928.00,0.0506
927.00,0.0507
926.00,0.0507
925.00,0.0507
924.00,0.0507
923.00,0.0508
922.00,0.0508
921.00,0.0509
920.00,0.0509
919.00,0.0509
918.00,0.0510
917.00,0.0510
916.00,0.0512
915.00,0.0513
914.00,0.0513
913.00,0.0512
912.00,0.0511
911.00,0.0510
910.00,0.0509
909.00,0.0507
908.00,0.0506
907.00,0.0506
906.00,0.0507
905.00,0.0510
904.00,0.0514
903.00,0.0517
902.00,0.0519
901.00,0.0518
900.00,0.0516
899.00,0.0515
898.00,0.0515
897.00,0.0517
896.00,0.0518
895.00,0.0518
894.00,0.0517
893.00,0.0516
892.00,0.0514
891.00,0.0513
890.00,0.0513
889.00,0.0514
888.00,0.0515
887.00,0.0515
886.00,0.0512
885.00,0.0510
884.00,0.0509
883.00,0.0511
882.00,0.0513
881.00,0.0514
880.00,0.0514
879.00,0.0514
878.00,0.0513
877.00,0.0511
876.00,0.0509
875.00,0.0508
874.00,0.0507
873.00,0.0507
872.00,0.0508
871.00,0.0508
870.00,0.0509
869.00,0.0509
868.00,0.0508
867.00,0.0508
866.00,0.0508
865.00,0.0510
864.00,0.0512
863.00,0.0514
862.00,0.0515
861.00,0.0516
860.00,0.0515
859.00,0.0514
858.00,0.0512
857.00,0.0510
856.00,0.0511
855.00,0.0514
854.00,0.0517
853.00,0.0519
852.00,0.0519
851.00,0.0520
850.00,0.0523
849.00,0.0526
848.00,0.0530
847.00,0.0533
846.00,0.0535
845.00,0.0538
844.00,0.0540
843.00,0.0540
842.00,0.0539
841.00,0.0538
840.00,0.0537
839.00,0.0536
838.00,0.0537
837.00,0.0538
836.00,0.0541
835.00,0.0542
834.00,0.0542
833.00,0.0541
832.00,0.0542
831.00,0.0544
830.00,0.0547
829.00,0.0549
828.00,0.0551
827.00,0.0553
826.00,0.0555
825.00,0.0558
824.00,0.0560
823.00,0.0562
822.00,0.0563
821.00,0.0563
820.00,0.0564
819.00,0.0565
818.00,0.0565
817.00,0.0564
816.00,0.0563
815.00,0.0564
814.00,0.0569
813.00,0.0575
812.00,0.0579
811.00,0.0580
810.00,0.0579
809.00,0.0578
808.00,0.0578
807.00,0.0579
806.00,0.0578
805.00,0.0578
804.00,0.0579
803.00,0.0580
802.00,0.0582
801.00,0.0585
800.00,0.0588
799.00,0.0591
798.00,0.0592
797.00,0.0591
796.00,0.0591
795.00,0.0591
794.00,0.0592
793.00,0.0594
792.00,0.0596
791.00,0.0599
790.00,0.0602
789.00,0.0602
788.00,0.0601
787.00,0.0601
786.00,0.0602
785.00,0.0606
784.00,0.0610
783.00,0.0613
782.00,0.0613
781.00,0.0613
780.00,0.0612
779.00,0.0612
778.00,0.0612
777.00,0.0614
776.00,0.0617
775.00,0.0619
774.00,0.0619
773.00,0.0618
772.00,0.0617
771.00,0.0617
770.00,0.0619
769.00,0.0621
768.00,0.0622
767.00,0.0621
766.00,0.0619
765.00,0.0618
764.00,0.0617
763.00,0.0617
762.00,0.0616
761.00,0.0616
760.00,0.0618
759.00,0.0621
758.00,0.0625
757.00,0.0628
756.00,0.0629
755.00,0.0628
754.00,0.0626
753.00,0.0625
752.00,0.0626
751.00,0.0630
750.00,0.0634
749.00,0.0637
748.00,0.0638
747.00,0.0639
746.00,0.0640
745.00,0.0640
744.00,0.0638
743.00,0.0637
742.00,0.0637
741.00,0.0636
740.00,0.0634
739.00,0.0632
738.00,0.0630
737.00,0.0630
736.00,0.0631
735.00,0.0631
734.00,0.0633
733.00,0.0635
732.00,0.0637
731.00,0.0638
730.00,0.0640
729.00,0.0644
728.00,0.0649
727.00,0.0653
726.00,0.0656
725.00,0.0657
724.00,0.0656
723.00,0.0655
722.00,0.0654
721.00,0.0654
720.00,0.0656
719.00,0.0658
718.00,0.0660
717.00,0.0660
716.00,0.0659
715.00,0.0658
714.00,0.0656
713.00,0.0655
712.00,0.0656
711.00,0.0657
710.00,0.0658
709.00,0.0659
708.00,0.0660
707.00,0.0662
706.00,0.0664
705.00,0.0667
704.00,0.0671
703.00,0.0674
702.00,0.0676
701.00,0.0676
700.00,0.0675
699.00,0.0675
698.00,0.0676
697.00,0.0678
696.00,0.0680
695.00,0.0682
694.00,0.0684
693.00,0.0686
692.00,0.0687
691.00,0.0688
690.00,0.0688
689.00,0.0690
688.00,0.0691
687.00,0.0691
686.00,0.0690
685.00,0.0689
684.00,0.0687
683.00,0.0686
682.00,0.0685
681.00,0.0685
680.00,0.0687
679.00,0.0689
678.00,0.0691
677.00,0.0693
676.00,0.0695
675.00,0.0696
674.00,0.0699
673.00,0.0702
672.00,0.0705
671.00,0.0704
670.00,0.0701
669.00,0.0701
668.00,0.0708
667.00,0.0715
666.00,0.0717
665.00,0.0717
664.00,0.0716
663.00,0.0714
662.00,0.0710
661.00,0.0704
660.00,0.0699
659.00,0.0696
658.00,0.0697
657.00,0.0701
656.00,0.0708
655.00,0.0712
654.00,0.0714
653.00,0.0702
652.00,0.0694
651.00,0.0696
650.00,0.0698
