Created as New Dataset,Monday, April 03 2023
cm-1,A
4000.00,0.0195
3999.00,0.0195
3998.00,0.0195
3997.00,0.0195
3996.00,0.0194
3995.00,0.0194
3994.00,0.0194
3993.00,0.0194
3992.00,0.0194
3991.00,0.0194
3990.00,0.0193
3989.00,0.0193
3988.00,0.0193
3987.00,0.0193
3986.00,0.0193
3985.00,0.0193
3984.00,0.0194
3983.00,0.0194
3982.00,0.0194
3981.00,0.0194
3980.00,0.0193
3979.00,0.0193
3978.00,0.0193
3977.00,0.0193
3976.00,0.0193
3975.00,0.0193
3974.00,0.0193
3973.00,0.0193
3972.00,0.0194
3971.00,0.0194
3970.00,0.0194
3969.00,0.0194
3968.00,0.0193
3967.00,0.0193
3966.00,0.0192
3965.00,0.0192
3964.00,0.0192
3963.00,0.0193
3962.00,0.0194
3961.00,0.0194
3960.00,0.0193
3959.00,0.0193
3958.00,0.0192
3957.00,0.0192
3956.00,0.0192
3955.00,0.0192
3954.00,0.0191
3953.00,0.0191
3952.00,0.0191
3951.00,0.0191
3950.00,0.0192
3949.00,0.0193
3948.00,0.0193
3947.00,0.0193
3946.00,0.0192
3945.00,0.0192
3944.00,0.0192
3943.00,0.0192
3942.00,0.0191
3941.00,0.0191
3940.00,0.0191
3939.00,0.0192
3938.00,0.0192
3937.00,0.0192
3936.00,0.0191
3935.00,0.0191
3934.00,0.0190
3933.00,0.0190
3932.00,0.0191
3931.00,0.0191
3930.00,0.0190
3929.00,0.0190
3928.00,0.0190
3927.00,0.0190
3926.00,0.0191
3925.00,0.0192
3924.00,0.0192
3923.00,0.0191
3922.00,0.0190
3921.00,0.0189
3920.00,0.0188
3919.00,0.0189
3918.00,0.0190
3917.00,0.0191
3916.00,0.0191
3915.00,0.0191
3914.00,0.0191
3913.00,0.0192
3912.00,0.0192
3911.00,0.0192
3910.00,0.0192
3909.00,0.0190
3908.00,0.0189
3907.00,0.0187
3906.00,0.0185
3905.00,0.0184
3904.00,0.0183
3903.00,0.0183
3902.00,0.0183
3901.00,0.0184
3900.00,0.0185
3899.00,0.0186
3898.00,0.0186
3897.00,0.0186
3896.00,0.0187
3895.00,0.0188
3894.00,0.0188
3893.00,0.0188
3892.00,0.0189
3891.00,0.0188
3890.00,0.0185
3889.00,0.0183
3888.00,0.0182
3887.00,0.0183
3886.00,0.0185
3885.00,0.0184
3884.00,0.0183
3883.00,0.0182
3882.00,0.0183
3881.00,0.0184
3880.00,0.0185
3879.00,0.0184
3878.00,0.0184
3877.00,0.0186
3876.00,0.0188
3875.00,0.0188
3874.00,0.0187
3873.00,0.0184
3872.00,0.0183
3871.00,0.0184
3870.00,0.0184
3869.00,0.0183
3868.00,0.0181
3867.00,0.0181
3866.00,0.0183
3865.00,0.0185
3864.00,0.0187
3863.00,0.0188
3862.00,0.0188
3861.00,0.0188
3860.00,0.0187
3859.00,0.0186
3858.00,0.0182
3857.00,0.0177
3856.00,0.0171
3855.00,0.0169
3854.00,0.0172
3853.00,0.0175
3852.00,0.0175
3851.00,0.0176
3850.00,0.0180
3849.00,0.0185
3848.00,0.0187
3847.00,0.0188
3846.00,0.0188
3845.00,0.0187
3844.00,0.0187
3843.00,0.0185
3842.00,0.0184
3841.00,0.0183
3840.00,0.0183
3839.00,0.0184
3838.00,0.0183
3837.00,0.0182
3836.00,0.0181
3835.00,0.0181
3834.00,0.0183
3833.00,0.0185
3832.00,0.0187
3831.00,0.0188
3830.00,0.0188
3829.00,0.0188
3828.00,0.0189
3827.00,0.0189
3826.00,0.0188
3825.00,0.0186
3824.00,0.0184
3823.00,0.0184
3822.00,0.0185
3821.00,0.0185
3820.00,0.0183
3819.00,0.0180
3818.00,0.0180
3817.00,0.0183
3816.00,0.0186
3815.00,0.0187
3814.00,0.0187
3813.00,0.0188
3812.00,0.0189
3811.00,0.0188
3810.00,0.0186
3809.00,0.0185
3808.00,0.0186
3807.00,0.0187
3806.00,0.0186
3805.00,0.0184
3804.00,0.0184
3803.00,0.0185
3802.00,0.0188
3801.00,0.0188
3800.00,0.0186
3799.00,0.0185
3798.00,0.0186
3797.00,0.0188
3796.00,0.0189
3795.00,0.0189
3794.00,0.0189
3793.00,0.0189
3792.00,0.0191
3791.00,0.0191
3790.00,0.0192
3789.00,0.0192
3788.00,0.0192
3787.00,0.0192
3786.00,0.0193
3785.00,0.0193
3784.00,0.0192
3783.00,0.0191
3782.00,0.0189
3781.00,0.0189
3780.00,0.0189
3779.00,0.0189
3778.00,0.0189
3777.00,0.0189
3776.00,0.0190
3775.00,0.0190
3774.00,0.0189
3773.00,0.0188
3772.00,0.0187
3771.00,0.0187
3770.00,0.0187
3769.00,0.0186
3768.00,0.0185
3767.00,0.0185
3766.00,0.0187
3765.00,0.0188
3764.00,0.0188
3763.00,0.0188
3762.00,0.0188
3761.00,0.0188
3760.00,0.0189
3759.00,0.0188
3758.00,0.0187
3757.00,0.0185
3756.00,0.0182
3755.00,0.0180
3754.00,0.0177
3753.00,0.0175
3752.00,0.0176
3751.00,0.0178
3750.00,0.0178
3749.00,0.0177
3748.00,0.0175
3747.00,0.0175
3746.00,0.0177
3745.00,0.0179
3744.00,0.0178
3743.00,0.0176
3742.00,0.0176
3741.00,0.0179
3740.00,0.0182
3739.00,0.0183
3738.00,0.0182
3737.00,0.0182
3736.00,0.0181
3735.00,0.0180
3734.00,0.0178
3733.00,0.0177
3732.00,0.0177
3731.00,0.0179
3730.00,0.0180
3729.00,0.0182
3728.00,0.0184
3727.00,0.0186
3726.00,0.0186
3725.00,0.0186
3724.00,0.0185
3723.00,0.0186
3722.00,0.0187
3721.00,0.0188
3720.00,0.0189
3719.00,0.0190
3718.00,0.0189
3717.00,0.0188
3716.00,0.0186
3715.00,0.0184
3714.00,0.0182
3713.00,0.0183
3712.00,0.0184
3711.00,0.0184
3710.00,0.0183
3709.00,0.0183
3708.00,0.0184
3707.00,0.0187
3706.00,0.0189
3705.00,0.0191
3704.00,0.0191
3703.00,0.0191
3702.00,0.0191
3701.00,0.0191
3700.00,0.0191
3699.00,0.0191
3698.00,0.0192
3697.00,0.0193
3696.00,0.0193
3695.00,0.0192
3694.00,0.0190
3693.00,0.0188
3692.00,0.0187
3691.00,0.0187
3690.00,0.0189
3689.00,0.0190
3688.00,0.0189
3687.00,0.0188
3686.00,0.0188
3685.00,0.0190
3684.00,0.0192
3683.00,0.0192
3682.00,0.0191
3681.00,0.0189
3680.00,0.0186
3679.00,0.0182
3678.00,0.0178
3677.00,0.0177
3676.00,0.0178
3675.00,0.0178
3674.00,0.0174
3673.00,0.0173
3672.00,0.0175
3671.00,0.0181
3670.00,0.0186
3669.00,0.0188
3668.00,0.0187
3667.00,0.0188
3666.00,0.0189
3665.00,0.0191
3664.00,0.0193
3663.00,0.0194
3662.00,0.0194
3661.00,0.0194
3660.00,0.0194
3659.00,0.0194
3658.00,0.0194
3657.00,0.0195
3656.00,0.0195
3655.00,0.0194
3654.00,0.0191
3653.00,0.0189
3652.00,0.0187
3651.00,0.0186
3650.00,0.0187
3649.00,0.0189
3648.00,0.0189
3647.00,0.0188
3646.00,0.0190
3645.00,0.0193
3644.00,0.0197
3643.00,0.0200
3642.00,0.0202
3641.00,0.0203
3640.00,0.0203
3639.00,0.0204
3638.00,0.0203
3637.00,0.0203
3636.00,0.0203
3635.00,0.0202
3634.00,0.0201
3633.00,0.0199
3632.00,0.0196
3631.00,0.0194
3630.00,0.0195
3629.00,0.0199
3628.00,0.0199
3627.00,0.0198
3626.00,0.0199
3625.00,0.0201
3624.00,0.0203
3623.00,0.0204
3622.00,0.0203
3621.00,0.0203
3620.00,0.0204
3619.00,0.0205
3618.00,0.0205
3617.00,0.0204
3616.00,0.0204
3615.00,0.0205
3614.00,0.0206
3613.00,0.0205
3612.00,0.0204
3611.00,0.0203
3610.00,0.0204
3609.00,0.0206
3608.00,0.0208
3607.00,0.0209
3606.00,0.0209
3605.00,0.0208
3604.00,0.0208
3603.00,0.0209
3602.00,0.0211
3601.00,0.0212
3600.00,0.0212
3599.00,0.0212
3598.00,0.0210
3597.00,0.0210
3596.00,0.0210
3595.00,0.0211
3594.00,0.0210
3593.00,0.0209
3592.00,0.0208
3591.00,0.0206
3590.00,0.0206
3589.00,0.0207
3588.00,0.0209
3587.00,0.0210
3586.00,0.0210
3585.00,0.0210
3584.00,0.0210
3583.00,0.0212
3582.00,0.0213
3581.00,0.0214
3580.00,0.0215
3579.00,0.0214
3578.00,0.0214
3577.00,0.0214
3576.00,0.0215
3575.00,0.0215
3574.00,0.0216
3573.00,0.0216
3572.00,0.0215
3571.00,0.0212
3570.00,0.0210
3569.00,0.0209
3568.00,0.0211
3567.00,0.0213
3566.00,0.0214
3565.00,0.0213
3564.00,0.0213
3563.00,0.0214
3562.00,0.0215
3561.00,0.0217
3560.00,0.0218
3559.00,0.0219
3558.00,0.0219
3557.00,0.0220
3556.00,0.0220
3555.00,0.0221
3554.00,0.0221
3553.00,0.0222
3552.00,0.0222
3551.00,0.0222
3550.00,0.0221
3549.00,0.0221
3548.00,0.0222
3547.00,0.0223
3546.00,0.0224
3545.00,0.0224
3544.00,0.0224
3543.00,0.0223
3542.00,0.0223
3541.00,0.0223
3540.00,0.0223
3539.00,0.0222
3538.00,0.0221
3537.00,0.0221
3536.00,0.0221
3535.00,0.0222
3534.00,0.0223
3533.00,0.0224
3532.00,0.0224
3531.00,0.0224
3530.00,0.0223
3529.00,0.0222
3528.00,0.0221
3527.00,0.0221
3526.00,0.0221
3525.00,0.0223
3524.00,0.0225
3523.00,0.0226
3522.00,0.0226
3521.00,0.0225
3520.00,0.0224
3519.00,0.0224
3518.00,0.0223
3517.00,0.0223
3516.00,0.0223
3515.00,0.0223
3514.00,0.0224
3513.00,0.0226
3512.00,0.0227
3511.00,0.0228
3510.00,0.0228
3509.00,0.0227
3508.00,0.0226
3507.00,0.0225
3506.00,0.0225
3505.00,0.0226
3504.00,0.0227
3503.00,0.0228
3502.00,0.0228
3501.00,0.0228
3500.00,0.0228
3499.00,0.0228
3498.00,0.0229
3497.00,0.0230
3496.00,0.0230
3495.00,0.0229
3494.00,0.0229
3493.00,0.0228
3492.00,0.0228
3491.00,0.0228
3490.00,0.0228
3489.00,0.0228
3488.00,0.0229
3487.00,0.0229
3486.00,0.0230
3485.00,0.0229
3484.00,0.0230
3483.00,0.0230
3482.00,0.0230
3481.00,0.0230
3480.00,0.0230
3479.00,0.0229
3478.00,0.0229
3477.00,0.0230
3476.00,0.0231
3475.00,0.0232
3474.00,0.0232
3473.00,0.0232
3472.00,0.0231
3471.00,0.0232
3470.00,0.0232
3469.00,0.0232
3468.00,0.0233
3467.00,0.0233
3466.00,0.0234
3465.00,0.0235
3464.00,0.0235
3463.00,0.0234
3462.00,0.0233
3461.00,0.0232
3460.00,0.0232
3459.00,0.0233
3458.00,0.0234
3457.00,0.0234
3456.00,0.0233
3455.00,0.0233
3454.00,0.0233
3453.00,0.0234
3452.00,0.0234
3451.00,0.0234
3450.00,0.0234
3449.00,0.0235
3448.00,0.0235
3447.00,0.0235
3446.00,0.0235
3445.00,0.0235
3444.00,0.0236
3443.00,0.0235
3442.00,0.0235
3441.00,0.0234
3440.00,0.0234
3439.00,0.0234
3438.00,0.0234
3437.00,0.0234
3436.00,0.0234
3435.00,0.0234
3434.00,0.0234
3433.00,0.0234
3432.00,0.0235
3431.00,0.0235
3430.00,0.0235
3429.00,0.0235
3428.00,0.0234
3427.00,0.0234
3426.00,0.0235
3425.00,0.0235
3424.00,0.0237
3423.00,0.0238
3422.00,0.0238
3421.00,0.0238
3420.00,0.0238
3419.00,0.0238
3418.00,0.0238
3417.00,0.0238
3416.00,0.0238
3415.00,0.0237
3414.00,0.0237
3413.00,0.0237
3412.00,0.0238
3411.00,0.0238
3410.00,0.0239
3409.00,0.0239
3408.00,0.0239
3407.00,0.0239
3406.00,0.0239
3405.00,0.0238
3404.00,0.0238
3403.00,0.0238
3402.00,0.0238
3401.00,0.0238
3400.00,0.0239
3399.00,0.0239
3398.00,0.0239
3397.00,0.0239
3396.00,0.0238
3395.00,0.0238
3394.00,0.0239
3393.00,0.0239
3392.00,0.0240
3391.00,0.0240
3390.00,0.0240
3389.00,0.0240
3388.00,0.0240
3387.00,0.0240
3386.00,0.0240
3385.00,0.0240
3384.00,0.0241
3383.00,0.0241
3382.00,0.0241
3381.00,0.0241
3380.00,0.0241
3379.00,0.0242
3378.00,0.0243
3377.00,0.0243
3376.00,0.0242
3375.00,0.0242
3374.00,0.0241
3373.00,0.0241
3372.00,0.0241
3371.00,0.0241
3370.00,0.0241
3369.00,0.0241
3368.00,0.0241
3367.00,0.0241
3366.00,0.0240
3365.00,0.0240
3364.00,0.0240
3363.00,0.0241
3362.00,0.0242
3361.00,0.0243
3360.00,0.0243
3359.00,0.0244
3358.00,0.0243
3357.00,0.0243
3356.00,0.0243
3355.00,0.0243
3354.00,0.0243
3353.00,0.0243
3352.00,0.0243
3351.00,0.0243
3350.00,0.0243
3349.00,0.0243
3348.00,0.0243
3347.00,0.0243
3346.00,0.0242
3345.00,0.0241
3344.00,0.0241
3343.00,0.0241
3342.00,0.0241
3341.00,0.0242
3340.00,0.0243
3339.00,0.0243
3338.00,0.0243
3337.00,0.0243
3336.00,0.0243
3335.00,0.0243
3334.00,0.0243
3333.00,0.0243
3332.00,0.0242
3331.00,0.0242
3330.00,0.0241
3329.00,0.0241
3328.00,0.0242
3327.00,0.0242
3326.00,0.0243
3325.00,0.0244
3324.00,0.0244
3323.00,0.0244
3322.00,0.0244
3321.00,0.0243
3320.00,0.0243
3319.00,0.0243
3318.00,0.0244
3317.00,0.0243
3316.00,0.0243
3315.00,0.0243
3314.00,0.0243
3313.00,0.0242
3312.00,0.0242
3311.00,0.0242
3310.00,0.0242
3309.00,0.0243
3308.00,0.0244
3307.00,0.0245
3306.00,0.0245
3305.00,0.0244
3304.00,0.0244
3303.00,0.0243
3302.00,0.0243
3301.00,0.0243
3300.00,0.0243
3299.00,0.0243
3298.00,0.0243
3297.00,0.0244
3296.00,0.0244
3295.00,0.0245
3294.00,0.0245
3293.00,0.0244
3292.00,0.0244
3291.00,0.0243
3290.00,0.0243
3289.00,0.0243
3288.00,0.0244
3287.00,0.0244
3286.00,0.0244
3285.00,0.0244
3284.00,0.0244
3283.00,0.0244
3282.00,0.0244
3281.00,0.0243
3280.00,0.0243
3279.00,0.0243
3278.00,0.0243
3277.00,0.0243
3276.00,0.0243
3275.00,0.0244
3274.00,0.0245
3273.00,0.0246
3272.00,0.0246
3271.00,0.0246
3270.00,0.0246
3269.00,0.0247
3268.00,0.0247
3267.00,0.0247
3266.00,0.0246
3265.00,0.0245
3264.00,0.0244
3263.00,0.0243
3262.00,0.0243
3261.00,0.0244
3260.00,0.0245
3259.00,0.0245
3258.00,0.0245
3257.00,0.0245
3256.00,0.0244
3255.00,0.0244
3254.00,0.0244
3253.00,0.0245
3252.00,0.0245
3251.00,0.0245
3250.00,0.0245
3249.00,0.0244
3248.00,0.0243
3247.00,0.0243
3246.00,0.0244
3245.00,0.0245
3244.00,0.0245
3243.00,0.0245
3242.00,0.0245
3241.00,0.0245
3240.00,0.0245
3239.00,0.0245
3238.00,0.0245
3237.00,0.0246
3236.00,0.0247
3235.00,0.0248
3234.00,0.0248
3233.00,0.0248
3232.00,0.0247
3231.00,0.0247
3230.00,0.0246
3229.00,0.0246
3228.00,0.0245
3227.00,0.0245
3226.00,0.0245
3225.00,0.0245
3224.00,0.0245
3223.00,0.0245
3222.00,0.0246
3221.00,0.0246
3220.00,0.0245
3219.00,0.0245
3218.00,0.0244
3217.00,0.0245
3216.00,0.0246
3215.00,0.0247
3214.00,0.0247
3213.00,0.0246
3212.00,0.0245
3211.00,0.0244
3210.00,0.0244
3209.00,0.0244
3208.00,0.0244
3207.00,0.0245
3206.00,0.0245
3205.00,0.0245
3204.00,0.0246
3203.00,0.0246
3202.00,0.0246
3201.00,0.0246
3200.00,0.0246
3199.00,0.0247
3198.00,0.0247
3197.00,0.0247
3196.00,0.0247
3195.00,0.0247
3194.00,0.0246
3193.00,0.0246
3192.00,0.0246
3191.00,0.0245
3190.00,0.0244
3189.00,0.0243
3188.00,0.0243
3187.00,0.0242
3186.00,0.0243
3185.00,0.0243
3184.00,0.0244
3183.00,0.0245
3182.00,0.0246
3181.00,0.0246
3180.00,0.0246
3179.00,0.0245
3178.00,0.0244
3177.00,0.0244
3176.00,0.0243
3175.00,0.0243
3174.00,0.0243
3173.00,0.0244
3172.00,0.0244
3171.00,0.0244
3170.00,0.0244
3169.00,0.0243
3168.00,0.0243
3167.00,0.0243
3166.00,0.0244
3165.00,0.0244
3164.00,0.0245
3163.00,0.0245
3162.00,0.0245
3161.00,0.0244
3160.00,0.0243
3159.00,0.0242
3158.00,0.0241
3157.00,0.0241
3156.00,0.0241
3155.00,0.0242
3154.00,0.0243
3153.00,0.0243
3152.00,0.0243
3151.00,0.0243
3150.00,0.0243
3149.00,0.0242
3148.00,0.0242
3147.00,0.0242
3146.00,0.0242
3145.00,0.0241
3144.00,0.0241
3143.00,0.0241
3142.00,0.0241
3141.00,0.0241
3140.00,0.0241
3139.00,0.0242
3138.00,0.0242
3137.00,0.0242
3136.00,0.0242
3135.00,0.0242
3134.00,0.0242
3133.00,0.0242
3132.00,0.0242
3131.00,0.0242
3130.00,0.0242
3129.00,0.0242
3128.00,0.0241
3127.00,0.0241
3126.00,0.0241
3125.00,0.0242
3124.00,0.0242
3123.00,0.0242
3122.00,0.0241
3121.00,0.0241
3120.00,0.0241
3119.00,0.0241
3118.00,0.0241
3117.00,0.0241
3116.00,0.0240
3115.00,0.0240
3114.00,0.0240
3113.00,0.0240
3112.00,0.0240
3111.00,0.0240
3110.00,0.0240
3109.00,0.0240
3108.00,0.0240
3107.00,0.0241
3106.00,0.0241
3105.00,0.0241
3104.00,0.0241
3103.00,0.0240
3102.00,0.0240
3101.00,0.0239
3100.00,0.0239
3099.00,0.0238
3098.00,0.0238
3097.00,0.0239
3096.00,0.0240
3095.00,0.0241
3094.00,0.0242
3093.00,0.0242
3092.00,0.0242
3091.00,0.0241
3090.00,0.0239
3089.00,0.0238
3088.00,0.0237
3087.00,0.0237
3086.00,0.0237
3085.00,0.0239
3084.00,0.0239
3083.00,0.0240
3082.00,0.0240
3081.00,0.0241
3080.00,0.0241
3079.00,0.0241
3078.00,0.0241
3077.00,0.0240
3076.00,0.0239
3075.00,0.0239
3074.00,0.0239
3073.00,0.0239
3072.00,0.0240
3071.00,0.0240
3070.00,0.0241
3069.00,0.0241
3068.00,0.0241
3067.00,0.0241
3066.00,0.0241
3065.00,0.0240
3064.00,0.0239
3063.00,0.0238
3062.00,0.0237
3061.00,0.0238
3060.00,0.0238
3059.00,0.0238
3058.00,0.0238
3057.00,0.0239
3056.00,0.0239
3055.00,0.0239
3054.00,0.0238
3053.00,0.0238
3052.00,0.0239
3051.00,0.0240
3050.00,0.0240
3049.00,0.0241
3048.00,0.0241
3047.00,0.0240
3046.00,0.0239
3045.00,0.0239
3044.00,0.0238
3043.00,0.0238
3042.00,0.0237
3041.00,0.0237
3040.00,0.0236
3039.00,0.0236
3038.00,0.0236
3037.00,0.0237
3036.00,0.0238
3035.00,0.0238
3034.00,0.0238
3033.00,0.0238
3032.00,0.0237
3031.00,0.0237
3030.00,0.0236
3029.00,0.0235
3028.00,0.0235
3027.00,0.0235
3026.00,0.0235
3025.00,0.0235
3024.00,0.0235
3023.00,0.0235
3022.00,0.0235
3021.00,0.0235
3020.00,0.0235
3019.00,0.0235
3018.00,0.0233
3017.00,0.0233
3016.00,0.0232
3015.00,0.0232
3014.00,0.0231
3013.00,0.0231
3012.00,0.0231
3011.00,0.0230
3010.00,0.0229
3009.00,0.0228
3008.00,0.0226
3007.00,0.0224
3006.00,0.0224
3005.00,0.0223
3004.00,0.0222
3003.00,0.0220
3002.00,0.0218
3001.00,0.0216
3000.00,0.0215
2999.00,0.0214
2998.00,0.0213
2997.00,0.0212
2996.00,0.0211
2995.00,0.0210
2994.00,0.0210
2993.00,0.0209
2992.00,0.0208
2991.00,0.0207
2990.00,0.0207
2989.00,0.0206
2988.00,0.0205
2987.00,0.0203
2986.00,0.0200
2985.00,0.0197
2984.00,0.0193
2983.00,0.0190
2982.00,0.0189
2981.00,0.0189
2980.00,0.0190
2979.00,0.0192
2978.00,0.0194
2977.00,0.0196
2976.00,0.0198
2975.00,0.0199
2974.00,0.0199
2973.00,0.0197
2972.00,0.0197
2971.00,0.0197
2970.00,0.0198
2969.00,0.0200
2968.00,0.0202
2967.00,0.0204
2966.00,0.0204
2965.00,0.0205
2964.00,0.0206
2963.00,0.0207
2962.00,0.0209
2961.00,0.0210
2960.00,0.0210
2959.00,0.0210
2958.00,0.0210
2957.00,0.0211
2956.00,0.0211
2955.00,0.0212
2954.00,0.0214
2953.00,0.0215
2952.00,0.0216
2951.00,0.0216
2950.00,0.0217
2949.00,0.0217
2948.00,0.0218
2947.00,0.0218
2946.00,0.0219
2945.00,0.0219
2944.00,0.0220
2943.00,0.0221
2942.00,0.0222
2941.00,0.0222
2940.00,0.0222
2939.00,0.0222
2938.00,0.0222
2937.00,0.0223
2936.00,0.0223
2935.00,0.0224
2934.00,0.0224
2933.00,0.0224
2932.00,0.0224
2931.00,0.0225
2930.00,0.0225
2929.00,0.0225
2928.00,0.0225
2927.00,0.0225
2926.00,0.0224
2925.00,0.0224
2924.00,0.0224
2923.00,0.0224
2922.00,0.0224
2921.00,0.0224
2920.00,0.0223
2919.00,0.0221
2918.00,0.0221
2917.00,0.0220
2916.00,0.0220
2915.00,0.0220
2914.00,0.0220
2913.00,0.0219
2912.00,0.0219
2911.00,0.0219
2910.00,0.0219
2909.00,0.0219
2908.00,0.0218
2907.00,0.0218
2906.00,0.0218
2905.00,0.0218
2904.00,0.0218
2903.00,0.0218
2902.00,0.0218
2901.00,0.0218
2900.00,0.0217
2899.00,0.0217
2898.00,0.0216
2897.00,0.0215
2896.00,0.0215
2895.00,0.0215
2894.00,0.0215
2893.00,0.0215
2892.00,0.0215
2891.00,0.0215
2890.00,0.0215
2889.00,0.0215
2888.00,0.0215
2887.00,0.0215
2886.00,0.0215
2885.00,0.0214
2884.00,0.0214
2883.00,0.0213
2882.00,0.0213
2881.00,0.0214
2880.00,0.0214
2879.00,0.0215
2878.00,0.0216
2877.00,0.0216
2876.00,0.0217
2875.00,0.0217
2874.00,0.0217
2873.00,0.0217
2872.00,0.0217
2871.00,0.0217
2870.00,0.0217
2869.00,0.0217
2868.00,0.0217
2867.00,0.0217
2866.00,0.0217
2865.00,0.0218
2864.00,0.0219
2863.00,0.0219
2862.00,0.0220
2861.00,0.0220
2860.00,0.0221
2859.00,0.0222
2858.00,0.0223
2857.00,0.0224
2856.00,0.0224
2855.00,0.0224
2854.00,0.0223
2853.00,0.0222
2852.00,0.0222
2851.00,0.0223
2850.00,0.0223
2849.00,0.0224
2848.00,0.0223
2847.00,0.0223
2846.00,0.0223
2845.00,0.0222
2844.00,0.0222
2843.00,0.0222
2842.00,0.0221
2841.00,0.0221
2840.00,0.0220
2839.00,0.0220
2838.00,0.0219
2837.00,0.0220
2836.00,0.0220
2835.00,0.0221
2834.00,0.0222
2833.00,0.0222
2832.00,0.0221
2831.00,0.0221
2830.00,0.0220
2829.00,0.0220
2828.00,0.0220
2827.00,0.0221
2826.00,0.0221
2825.00,0.0221
2824.00,0.0221
2823.00,0.0220
2822.00,0.0220
2821.00,0.0219
2820.00,0.0218
2819.00,0.0218
2818.00,0.0218
2817.00,0.0219
2816.00,0.0219
2815.00,0.0218
2814.00,0.0218
2813.00,0.0218
2812.00,0.0218
2811.00,0.0218
2810.00,0.0218
2809.00,0.0217
2808.00,0.0217
2807.00,0.0217
2806.00,0.0217
2805.00,0.0218
2804.00,0.0218
2803.00,0.0218
2802.00,0.0219
2801.00,0.0219
2800.00,0.0219
2799.00,0.0219
2798.00,0.0219
2797.00,0.0219
2796.00,0.0219
2795.00,0.0218
2794.00,0.0218
2793.00,0.0217
2792.00,0.0217
2791.00,0.0217
2790.00,0.0218
2789.00,0.0218
2788.00,0.0218
2787.00,0.0218
2786.00,0.0217
2785.00,0.0217
2784.00,0.0216
2783.00,0.0216
2782.00,0.0215
2781.00,0.0215
2780.00,0.0214
2779.00,0.0214
2778.00,0.0214
2777.00,0.0215
2776.00,0.0215
2775.00,0.0216
2774.00,0.0216
2773.00,0.0216
2772.00,0.0216
2771.00,0.0215
2770.00,0.0215
2769.00,0.0214
2768.00,0.0214
2767.00,0.0214
2766.00,0.0214
2765.00,0.0215
2764.00,0.0214
2763.00,0.0214
2762.00,0.0214
2761.00,0.0215
2760.00,0.0215
2759.00,0.0215
2758.00,0.0216
2757.00,0.0215
2756.00,0.0215
2755.00,0.0215
2754.00,0.0214
2753.00,0.0214
2752.00,0.0215
2751.00,0.0215
2750.00,0.0215
2749.00,0.0214
2748.00,0.0214
2747.00,0.0214
2746.00,0.0214
2745.00,0.0214
2744.00,0.0214
2743.00,0.0214
2742.00,0.0214
2741.00,0.0214
2740.00,0.0214
2739.00,0.0213
2738.00,0.0213
2737.00,0.0213
2736.00,0.0212
2735.00,0.0213
2734.00,0.0213
2733.00,0.0213
2732.00,0.0213
2731.00,0.0213
2730.00,0.0213
2729.00,0.0213
2728.00,0.0213
2727.00,0.0213
2726.00,0.0213
2725.00,0.0213
2724.00,0.0213
2723.00,0.0213
2722.00,0.0213
2721.00,0.0212
2720.00,0.0212
2719.00,0.0212
2718.00,0.0212
2717.00,0.0212
2716.00,0.0212
2715.00,0.0212
2714.00,0.0212
2713.00,0.0212
2712.00,0.0212
2711.00,0.0212
2710.00,0.0212
2709.00,0.0212
2708.00,0.0212
2707.00,0.0212
2706.00,0.0211
2705.00,0.0211
2704.00,0.0211
2703.00,0.0211
2702.00,0.0211
2701.00,0.0211
2700.00,0.0211
2699.00,0.0212
2698.00,0.0212
2697.00,0.0211
2696.00,0.0211
2695.00,0.0211
2694.00,0.0212
2693.00,0.0212
2692.00,0.0212
2691.00,0.0212
2690.00,0.0212
2689.00,0.0211
2688.00,0.0211
2687.00,0.0211
2686.00,0.0211
2685.00,0.0211
2684.00,0.0211
2683.00,0.0212
2682.00,0.0212
2681.00,0.0211
2680.00,0.0211
2679.00,0.0211
2678.00,0.0210
2677.00,0.0210
2676.00,0.0209
2675.00,0.0209
2674.00,0.0209
2673.00,0.0209
2672.00,0.0209
2671.00,0.0209
2670.00,0.0209
2669.00,0.0209
2668.00,0.0209
2667.00,0.0209
2666.00,0.0209
2665.00,0.0210
2664.00,0.0210
2663.00,0.0210
2662.00,0.0211
2661.00,0.0211
2660.00,0.0210
2659.00,0.0210
2658.00,0.0210
2657.00,0.0210
2656.00,0.0210
2655.00,0.0211
2654.00,0.0211
2653.00,0.0211
2652.00,0.0212
2651.00,0.0212
2650.00,0.0212
2649.00,0.0212
2648.00,0.0212
2647.00,0.0211
2646.00,0.0210
2645.00,0.0210
2644.00,0.0210
2643.00,0.0210
2642.00,0.0211
2641.00,0.0211
2640.00,0.0212
2639.00,0.0212
2638.00,0.0212
2637.00,0.0211
2636.00,0.0211
2635.00,0.0211
2634.00,0.0211
2633.00,0.0212
2632.00,0.0212
2631.00,0.0212
2630.00,0.0211
2629.00,0.0210
2628.00,0.0209
2627.00,0.0209
2626.00,0.0210
2625.00,0.0211
2624.00,0.0212
2623.00,0.0213
2622.00,0.0213
2621.00,0.0213
2620.00,0.0213
2619.00,0.0212
2618.00,0.0212
2617.00,0.0212
2616.00,0.0211
2615.00,0.0211
2614.00,0.0210
2613.00,0.0211
2612.00,0.0212
2611.00,0.0213
2610.00,0.0213
2609.00,0.0213
2608.00,0.0212
2607.00,0.0211
2606.00,0.0211
2605.00,0.0212
2604.00,0.0213
2603.00,0.0213
2602.00,0.0214
2601.00,0.0214
2600.00,0.0213
2599.00,0.0212
2598.00,0.0212
2597.00,0.0212
2596.00,0.0211
2595.00,0.0211
2594.00,0.0211
2593.00,0.0212
2592.00,0.0212
2591.00,0.0212
2590.00,0.0212
2589.00,0.0212
2588.00,0.0212
2587.00,0.0212
2586.00,0.0211
2585.00,0.0210
2584.00,0.0210
2583.00,0.0210
2582.00,0.0211
2581.00,0.0212
2580.00,0.0213
2579.00,0.0214
2578.00,0.0214
2577.00,0.0213
2576.00,0.0211
2575.00,0.0210
2574.00,0.0210
2573.00,0.0211
2572.00,0.0212
2571.00,0.0211
2570.00,0.0210
2569.00,0.0210
2568.00,0.0210
2567.00,0.0211
2566.00,0.0212
2565.00,0.0213
2564.00,0.0213
2563.00,0.0212
2562.00,0.0212
2561.00,0.0212
2560.00,0.0212
2559.00,0.0212
2558.00,0.0212
2557.00,0.0212
2556.00,0.0213
2555.00,0.0212
2554.00,0.0212
2553.00,0.0211
2552.00,0.0210
2551.00,0.0210
2550.00,0.0210
2549.00,0.0209
2548.00,0.0208
2547.00,0.0207
2546.00,0.0207
2545.00,0.0207
2544.00,0.0208
2543.00,0.0208
2542.00,0.0208
2541.00,0.0207
2540.00,0.0206
2539.00,0.0206
2538.00,0.0205
2537.00,0.0206
2536.00,0.0206
2535.00,0.0206
2534.00,0.0207
2533.00,0.0208
2532.00,0.0208
2531.00,0.0207
2530.00,0.0207
2529.00,0.0206
2528.00,0.0206
2527.00,0.0206
2526.00,0.0206
2525.00,0.0205
2524.00,0.0205
2523.00,0.0205
2522.00,0.0206
2521.00,0.0206
2520.00,0.0207
2519.00,0.0207
2518.00,0.0208
2517.00,0.0209
2516.00,0.0209
2515.00,0.0209
2514.00,0.0208
2513.00,0.0207
2512.00,0.0207
2511.00,0.0208
2510.00,0.0208
2509.00,0.0208
2508.00,0.0208
2507.00,0.0208
2506.00,0.0208
2505.00,0.0208
2504.00,0.0207
2503.00,0.0207
2502.00,0.0207
2501.00,0.0208
2500.00,0.0208
2499.00,0.0209
2498.00,0.0209
2497.00,0.0209
2496.00,0.0209
2495.00,0.0209
2494.00,0.0210
2493.00,0.0210
2492.00,0.0210
2491.00,0.0210
2490.00,0.0210
2489.00,0.0210
2488.00,0.0209
2487.00,0.0208
2486.00,0.0207
2485.00,0.0206
2484.00,0.0205
2483.00,0.0205
2482.00,0.0206
2481.00,0.0207
2480.00,0.0208
2479.00,0.0208
2478.00,0.0207
2477.00,0.0207
2476.00,0.0208
2475.00,0.0208
2474.00,0.0208
2473.00,0.0207
2472.00,0.0207
2471.00,0.0207
2470.00,0.0207
2469.00,0.0207
2468.00,0.0207
2467.00,0.0207
2466.00,0.0206
2465.00,0.0205
2464.00,0.0205
2463.00,0.0205
2462.00,0.0205
2461.00,0.0206
2460.00,0.0207
2459.00,0.0208
2458.00,0.0208
2457.00,0.0207
2456.00,0.0206
2455.00,0.0207
2454.00,0.0207
2453.00,0.0209
2452.00,0.0209
2451.00,0.0209
2450.00,0.0208
2449.00,0.0208
2448.00,0.0207
2447.00,0.0207
2446.00,0.0207
2445.00,0.0207
2444.00,0.0206
2443.00,0.0205
2442.00,0.0205
2441.00,0.0205
2440.00,0.0205
2439.00,0.0206
2438.00,0.0206
2437.00,0.0206
2436.00,0.0206
2435.00,0.0205
2434.00,0.0205
2433.00,0.0204
2432.00,0.0205
2431.00,0.0205
2430.00,0.0206
2429.00,0.0207
2428.00,0.0207
2427.00,0.0206
2426.00,0.0205
2425.00,0.0204
2424.00,0.0204
2423.00,0.0204
2422.00,0.0204
2421.00,0.0204
2420.00,0.0204
2419.00,0.0203
2418.00,0.0203
2417.00,0.0203
2416.00,0.0203
2415.00,0.0203
2414.00,0.0203
2413.00,0.0203
2412.00,0.0203
2411.00,0.0202
2410.00,0.0203
2409.00,0.0203
2408.00,0.0203
2407.00,0.0203
2406.00,0.0203
2405.00,0.0203
2404.00,0.0203
2403.00,0.0202
2402.00,0.0202
2401.00,0.0202
2400.00,0.0202
2399.00,0.0202
2398.00,0.0202
2397.00,0.0201
2396.00,0.0200
2395.00,0.0200
2394.00,0.0200
2393.00,0.0200
2392.00,0.0200
2391.00,0.0199
2390.00,0.0199
2389.00,0.0199
2388.00,0.0199
2387.00,0.0199
2386.00,0.0200
2385.00,0.0200
2384.00,0.0199
2383.00,0.0198
2382.00,0.0197
2381.00,0.0196
2380.00,0.0197
2379.00,0.0197
2378.00,0.0196
2377.00,0.0195
2376.00,0.0194
2375.00,0.0193
2374.00,0.0193
2373.00,0.0194
2372.00,0.0195
2371.00,0.0195
2370.00,0.0193
2369.00,0.0189
2368.00,0.0186
2367.00,0.0185
2366.00,0.0187
2365.00,0.0191
2364.00,0.0192
2363.00,0.0192
2362.00,0.0191
2361.00,0.0191
2360.00,0.0192
2359.00,0.0191
2358.00,0.0191
2357.00,0.0192
2356.00,0.0192
2355.00,0.0191
2354.00,0.0190
2353.00,0.0190
2352.00,0.0191
2351.00,0.0191
2350.00,0.0191
2349.00,0.0188
2348.00,0.0185
2347.00,0.0181
2346.00,0.0180
2345.00,0.0181
2344.00,0.0185
2343.00,0.0189
2342.00,0.0193
2341.00,0.0196
2340.00,0.0196
2339.00,0.0193
2338.00,0.0190
2337.00,0.0188
2336.00,0.0188
2335.00,0.0190
2334.00,0.0192
2333.00,0.0194
2332.00,0.0195
2331.00,0.0195
2330.00,0.0194
2329.00,0.0194
2328.00,0.0196
2327.00,0.0198
2326.00,0.0200
2325.00,0.0200
2324.00,0.0199
2323.00,0.0197
2322.00,0.0197
2321.00,0.0198
2320.00,0.0199
2319.00,0.0199
2318.00,0.0199
2317.00,0.0199
2316.00,0.0198
2315.00,0.0198
2314.00,0.0198
2313.00,0.0198
2312.00,0.0199
2311.00,0.0200
2310.00,0.0201
2309.00,0.0202
2308.00,0.0202
2307.00,0.0201
2306.00,0.0200
2305.00,0.0200
2304.00,0.0199
2303.00,0.0198
2302.00,0.0197
2301.00,0.0196
2300.00,0.0196
2299.00,0.0197
2298.00,0.0197
2297.00,0.0198
2296.00,0.0198
2295.00,0.0198
2294.00,0.0199
2293.00,0.0200
2292.00,0.0201
2291.00,0.0202
2290.00,0.0201
2289.00,0.0201
2288.00,0.0201
2287.00,0.0201
2286.00,0.0202
2285.00,0.0203
2284.00,0.0203
2283.00,0.0204
2282.00,0.0204
2281.00,0.0203
2280.00,0.0203
2279.00,0.0203
2278.00,0.0203
2277.00,0.0203
2276.00,0.0203
2275.00,0.0202
2274.00,0.0201
2273.00,0.0200
2272.00,0.0199
2271.00,0.0199
2270.00,0.0198
2269.00,0.0198
2268.00,0.0198
2267.00,0.0198
2266.00,0.0199
2265.00,0.0200
2264.00,0.0200
2263.00,0.0200
2262.00,0.0200
2261.00,0.0201
2260.00,0.0201
2259.00,0.0202
2258.00,0.0200
2257.00,0.0197
2256.00,0.0194
2255.00,0.0194
2254.00,0.0195
2253.00,0.0197
2252.00,0.0199
2251.00,0.0200
2250.00,0.0201
2249.00,0.0201
2248.00,0.0199
2247.00,0.0199
2246.00,0.0199
2245.00,0.0201
2244.00,0.0202
2243.00,0.0202
2242.00,0.0201
2241.00,0.0199
2240.00,0.0198
2239.00,0.0197
2238.00,0.0198
2237.00,0.0198
2236.00,0.0199
2235.00,0.0199
2234.00,0.0200
2233.00,0.0200
2232.00,0.0199
2231.00,0.0197
2230.00,0.0196
2229.00,0.0196
2228.00,0.0196
2227.00,0.0196
2226.00,0.0196
2225.00,0.0196
2224.00,0.0195
2223.00,0.0195
2222.00,0.0195
2221.00,0.0195
2220.00,0.0196
2219.00,0.0197
2218.00,0.0197
2217.00,0.0198
2216.00,0.0199
2215.00,0.0200
2214.00,0.0201
2213.00,0.0200
2212.00,0.0198
2211.00,0.0195
2210.00,0.0193
2209.00,0.0193
2208.00,0.0195
2207.00,0.0196
2206.00,0.0197
2205.00,0.0197
2204.00,0.0196
2203.00,0.0195
2202.00,0.0195
2201.00,0.0194
2200.00,0.0193
2199.00,0.0192
2198.00,0.0192
2197.00,0.0192
2196.00,0.0192
2195.00,0.0192
2194.00,0.0191
2193.00,0.0191
2192.00,0.0191
2191.00,0.0191
2190.00,0.0189
2189.00,0.0187
2188.00,0.0189
2187.00,0.0193
2186.00,0.0198
2185.00,0.0200
2184.00,0.0199
2183.00,0.0196
2182.00,0.0194
2181.00,0.0194
2180.00,0.0195
2179.00,0.0196
2178.00,0.0197
2177.00,0.0198
2176.00,0.0197
2175.00,0.0196
2174.00,0.0194
2173.00,0.0192
2172.00,0.0192
2171.00,0.0193
2170.00,0.0194
2169.00,0.0195
2168.00,0.0196
2167.00,0.0196
2166.00,0.0197
2165.00,0.0199
2164.00,0.0202
2163.00,0.0204
2162.00,0.0204
2161.00,0.0201
2160.00,0.0194
2159.00,0.0187
2158.00,0.0181
2157.00,0.0179
2156.00,0.0180
2155.00,0.0182
2154.00,0.0186
2153.00,0.0189
2152.00,0.0190
2151.00,0.0188
2150.00,0.0186
2149.00,0.0185
2148.00,0.0187
2147.00,0.0191
2146.00,0.0194
2145.00,0.0195
2144.00,0.0195
2143.00,0.0194
2142.00,0.0194
2141.00,0.0194
2140.00,0.0192
2139.00,0.0190
2138.00,0.0187
2137.00,0.0184
2136.00,0.0182
2135.00,0.0181
2134.00,0.0182
2133.00,0.0184
2132.00,0.0186
2131.00,0.0187
2130.00,0.0188
2129.00,0.0189
2128.00,0.0191
2127.00,0.0192
2126.00,0.0192
2125.00,0.0192
2124.00,0.0192
2123.00,0.0191
2122.00,0.0191
2121.00,0.0190
2120.00,0.0189
2119.00,0.0188
2118.00,0.0187
2117.00,0.0187
2116.00,0.0187
2115.00,0.0185
2114.00,0.0183
2113.00,0.0183
2112.00,0.0184
2111.00,0.0186
2110.00,0.0190
2109.00,0.0192
2108.00,0.0194
2107.00,0.0194
2106.00,0.0194
2105.00,0.0193
2104.00,0.0193
2103.00,0.0193
2102.00,0.0194
2101.00,0.0193
2100.00,0.0192
2099.00,0.0189
2098.00,0.0186
2097.00,0.0185
2096.00,0.0186
2095.00,0.0188
2094.00,0.0189
2093.00,0.0190
2092.00,0.0189
2091.00,0.0189
2090.00,0.0188
2089.00,0.0189
2088.00,0.0190
2087.00,0.0191
2086.00,0.0191
2085.00,0.0192
2084.00,0.0192
2083.00,0.0192
2082.00,0.0192
2081.00,0.0191
2080.00,0.0191
2079.00,0.0192
2078.00,0.0192
2077.00,0.0191
2076.00,0.0191
2075.00,0.0191
2074.00,0.0191
2073.00,0.0192
2072.00,0.0192
2071.00,0.0193
2070.00,0.0193
2069.00,0.0191
2068.00,0.0188
2067.00,0.0186
2066.00,0.0186
2065.00,0.0188
2064.00,0.0190
2063.00,0.0192
2062.00,0.0192
2061.00,0.0192
2060.00,0.0190
2059.00,0.0189
2058.00,0.0189
2057.00,0.0190
2056.00,0.0191
2055.00,0.0191
2054.00,0.0191
2053.00,0.0192
2052.00,0.0192
2051.00,0.0191
2050.00,0.0189
2049.00,0.0187
2048.00,0.0185
2047.00,0.0185
2046.00,0.0186
2045.00,0.0188
2044.00,0.0191
2043.00,0.0194
2042.00,0.0195
2041.00,0.0194
2040.00,0.0192
2039.00,0.0190
2038.00,0.0190
2037.00,0.0192
2036.00,0.0195
2035.00,0.0195
2034.00,0.0194
2033.00,0.0194
2032.00,0.0195
2031.00,0.0196
2030.00,0.0196
2029.00,0.0195
2028.00,0.0193
2027.00,0.0191
2026.00,0.0189
2025.00,0.0186
2024.00,0.0183
2023.00,0.0180
2022.00,0.0178
2021.00,0.0179
2020.00,0.0179
2019.00,0.0179
2018.00,0.0178
2017.00,0.0177
2016.00,0.0177
2015.00,0.0179
2014.00,0.0182
2013.00,0.0184
2012.00,0.0186
2011.00,0.0186
2010.00,0.0185
2009.00,0.0184
2008.00,0.0184
2007.00,0.0184
2006.00,0.0184
2005.00,0.0183
2004.00,0.0183
2003.00,0.0184
2002.00,0.0186
2001.00,0.0188
2000.00,0.0190
1999.00,0.0190
1998.00,0.0190
1997.00,0.0191
1996.00,0.0192
1995.00,0.0193
1994.00,0.0194
1993.00,0.0193
1992.00,0.0191
1991.00,0.0188
1990.00,0.0185
1989.00,0.0183
1988.00,0.0182
1987.00,0.0181
1986.00,0.0181
1985.00,0.0181
1984.00,0.0182
1983.00,0.0183
1982.00,0.0185
1981.00,0.0185
1980.00,0.0183
1979.00,0.0180
1978.00,0.0176
1977.00,0.0175
1976.00,0.0177
1975.00,0.0181
1974.00,0.0185
1973.00,0.0186
1972.00,0.0185
1971.00,0.0183
1970.00,0.0183
1969.00,0.0186
1968.00,0.0189
1967.00,0.0189
1966.00,0.0186
1965.00,0.0182
1964.00,0.0180
1963.00,0.0178
1962.00,0.0178
1961.00,0.0178
1960.00,0.0179
1959.00,0.0181
1958.00,0.0181
1957.00,0.0180
1956.00,0.0178
1955.00,0.0177
1954.00,0.0177
1953.00,0.0179
1952.00,0.0180
1951.00,0.0179
1950.00,0.0178
1949.00,0.0176
1948.00,0.0176
1947.00,0.0177
1946.00,0.0178
1945.00,0.0178
1944.00,0.0177
1943.00,0.0175
1942.00,0.0174
1941.00,0.0173
1940.00,0.0172
1939.00,0.0171
1938.00,0.0171
1937.00,0.0172
1936.00,0.0172
1935.00,0.0170
1934.00,0.0169
1933.00,0.0168
1932.00,0.0170
1931.00,0.0173
1930.00,0.0176
1929.00,0.0179
1928.00,0.0180
1927.00,0.0180
1926.00,0.0178
1925.00,0.0177
1924.00,0.0176
1923.00,0.0176
1922.00,0.0176
1921.00,0.0176
1920.00,0.0175
1919.00,0.0173
1918.00,0.0171
1917.00,0.0170
1916.00,0.0171
1915.00,0.0173
1914.00,0.0174
1913.00,0.0175
1912.00,0.0175
1911.00,0.0175
1910.00,0.0174
1909.00,0.0173
1908.00,0.0172
1907.00,0.0171
1906.00,0.0171
1905.00,0.0171
1904.00,0.0171
1903.00,0.0172
1902.00,0.0172
1901.00,0.0172
1900.00,0.0172
1899.00,0.0171
1898.00,0.0171
1897.00,0.0170
1896.00,0.0168
1895.00,0.0166
1894.00,0.0166
1893.00,0.0167
1892.00,0.0169
1891.00,0.0169
1890.00,0.0169
1889.00,0.0168
1888.00,0.0168
1887.00,0.0168
1886.00,0.0169
1885.00,0.0170
1884.00,0.0170
1883.00,0.0170
1882.00,0.0169
1881.00,0.0168
1880.00,0.0167
1879.00,0.0166
1878.00,0.0165
1877.00,0.0164
1876.00,0.0163
1875.00,0.0164
1874.00,0.0165
1873.00,0.0167
1872.00,0.0168
1871.00,0.0169
1870.00,0.0169
1869.00,0.0168
1868.00,0.0166
1867.00,0.0164
1866.00,0.0164
1865.00,0.0164
1864.00,0.0164
1863.00,0.0163
1862.00,0.0162
1861.00,0.0161
1860.00,0.0160
1859.00,0.0159
1858.00,0.0160
1857.00,0.0161
1856.00,0.0162
1855.00,0.0162
1854.00,0.0162
1853.00,0.0161
1852.00,0.0161
1851.00,0.0161
1850.00,0.0162
1849.00,0.0163
1848.00,0.0163
1847.00,0.0163
1846.00,0.0163
1845.00,0.0163
1844.00,0.0162
1843.00,0.0160
1842.00,0.0159
1841.00,0.0160
1840.00,0.0160
1839.00,0.0160
1838.00,0.0159
1837.00,0.0158
1836.00,0.0157
1835.00,0.0157
1834.00,0.0157
1833.00,0.0158
1832.00,0.0159
1831.00,0.0159
1830.00,0.0159
1829.00,0.0157
1828.00,0.0156
1827.00,0.0157
1826.00,0.0157
1825.00,0.0157
1824.00,0.0156
1823.00,0.0156
1822.00,0.0155
1821.00,0.0155
1820.00,0.0155
1819.00,0.0154
1818.00,0.0154
1817.00,0.0153
1816.00,0.0153
1815.00,0.0153
1814.00,0.0153
1813.00,0.0153
1812.00,0.0153
1811.00,0.0152
1810.00,0.0152
1809.00,0.0152
1808.00,0.0152
1807.00,0.0152
1806.00,0.0152
1805.00,0.0152
1804.00,0.0153
1803.00,0.0153
1802.00,0.0153
1801.00,0.0152
1800.00,0.0151
1799.00,0.0150
1798.00,0.0151
1797.00,0.0152
1796.00,0.0152
1795.00,0.0153
1794.00,0.0153
1793.00,0.0154
1792.00,0.0154
1791.00,0.0153
1790.00,0.0152
1789.00,0.0153
1788.00,0.0153
1787.00,0.0154
1786.00,0.0154
1785.00,0.0154
1784.00,0.0154
1783.00,0.0154
1782.00,0.0155
1781.00,0.0155
1780.00,0.0155
1779.00,0.0155
1778.00,0.0156
1777.00,0.0157
1776.00,0.0158
1775.00,0.0159
1774.00,0.0160
1773.00,0.0159
1772.00,0.0157
1771.00,0.0155
1770.00,0.0155
1769.00,0.0156
1768.00,0.0157
1767.00,0.0157
1766.00,0.0157
1765.00,0.0158
1764.00,0.0159
1763.00,0.0159
1762.00,0.0159
1761.00,0.0158
1760.00,0.0159
1759.00,0.0160
1758.00,0.0161
1757.00,0.0161
1756.00,0.0161
1755.00,0.0162
1754.00,0.0163
1753.00,0.0164
1752.00,0.0164
1751.00,0.0163
1750.00,0.0162
1749.00,0.0162
1748.00,0.0162
1747.00,0.0163
1746.00,0.0163
1745.00,0.0164
1744.00,0.0165
1743.00,0.0165
1742.00,0.0166
1741.00,0.0167
1740.00,0.0167
1739.00,0.0167
1738.00,0.0167
1737.00,0.0169
1736.00,0.0171
1735.00,0.0173
1734.00,0.0174
1733.00,0.0172
1732.00,0.0171
1731.00,0.0172
1730.00,0.0172
1729.00,0.0172
1728.00,0.0173
1727.00,0.0174
1726.00,0.0175
1725.00,0.0176
1724.00,0.0177
1723.00,0.0178
1722.00,0.0179
1721.00,0.0180
1720.00,0.0181
1719.00,0.0183
1718.00,0.0185
1717.00,0.0187
1716.00,0.0188
1715.00,0.0189
1714.00,0.0190
1713.00,0.0191
1712.00,0.0191
1711.00,0.0192
1710.00,0.0191
1709.00,0.0191
1708.00,0.0191
1707.00,0.0192
1706.00,0.0193
1705.00,0.0193
1704.00,0.0194
1703.00,0.0195
1702.00,0.0197
1701.00,0.0199
1700.00,0.0199
1699.00,0.0198
1698.00,0.0199
1697.00,0.0200
1696.00,0.0199
1695.00,0.0197
1694.00,0.0196
1693.00,0.0198
1692.00,0.0198
1691.00,0.0199
1690.00,0.0199
1689.00,0.0199
1688.00,0.0199
1687.00,0.0199
1686.00,0.0199
1685.00,0.0200
1684.00,0.0199
1683.00,0.0197
1682.00,0.0197
1681.00,0.0198
1680.00,0.0198
1679.00,0.0198
1678.00,0.0200
1677.00,0.0202
1676.00,0.0203
1675.00,0.0204
1674.00,0.0203
1673.00,0.0202
1672.00,0.0202
1671.00,0.0202
1670.00,0.0202
1669.00,0.0202
1668.00,0.0202
1667.00,0.0203
1666.00,0.0203
1665.00,0.0203
1664.00,0.0203
1663.00,0.0203
1662.00,0.0203
1661.00,0.0204
1660.00,0.0205
1659.00,0.0207
1658.00,0.0208
1657.00,0.0209
1656.00,0.0208
1655.00,0.0207
1654.00,0.0209
1653.00,0.0212
1652.00,0.0211
1651.00,0.0212
1650.00,0.0213
1649.00,0.0213
1648.00,0.0213
1647.00,0.0214
1646.00,0.0215
1645.00,0.0217
1644.00,0.0219
1643.00,0.0220
1642.00,0.0220
1641.00,0.0219
1640.00,0.0219
1639.00,0.0219
1638.00,0.0220
1637.00,0.0221
1636.00,0.0223
1635.00,0.0224
1634.00,0.0224
1633.00,0.0224
1632.00,0.0224
1631.00,0.0224
1630.00,0.0225
1629.00,0.0226
1628.00,0.0227
1627.00,0.0228
1626.00,0.0230
1625.00,0.0232
1624.00,0.0234
1623.00,0.0235
1622.00,0.0235
1621.00,0.0235
1620.00,0.0234
1619.00,0.0234
1618.00,0.0234
1617.00,0.0236
1616.00,0.0238
1615.00,0.0240
1614.00,0.0241
1613.00,0.0242
1612.00,0.0242
1611.00,0.0243
1610.00,0.0244
1609.00,0.0245
1608.00,0.0245
1607.00,0.0245
1606.00,0.0245
1605.00,0.0245
1604.00,0.0246
1603.00,0.0245
1602.00,0.0245
1601.00,0.0244
1600.00,0.0244
1599.00,0.0244
1598.00,0.0245
1597.00,0.0246
1596.00,0.0247
1595.00,0.0249
1594.00,0.0249
1593.00,0.0250
1592.00,0.0250
1591.00,0.0250
1590.00,0.0250
1589.00,0.0251
1588.00,0.0252
1587.00,0.0253
1586.00,0.0254
1585.00,0.0254
1584.00,0.0254
1583.00,0.0254
1582.00,0.0254
1581.00,0.0254
1580.00,0.0254
1579.00,0.0254
1578.00,0.0255
1577.00,0.0257
1576.00,0.0257
1575.00,0.0256
1574.00,0.0255
1573.00,0.0255
1572.00,0.0254
1571.00,0.0254
1570.00,0.0255
1569.00,0.0256
1568.00,0.0256
1567.00,0.0257
1566.00,0.0257
1565.00,0.0256
1564.00,0.0255
1563.00,0.0254
1562.00,0.0253
1561.00,0.0249
1560.00,0.0249
1559.00,0.0255
1558.00,0.0255
1557.00,0.0254
1556.00,0.0255
1555.00,0.0255
1554.00,0.0255
1553.00,0.0255
1552.00,0.0255
1551.00,0.0255
1550.00,0.0254
1549.00,0.0252
1548.00,0.0251
1547.00,0.0250
1546.00,0.0248
1545.00,0.0246
1544.00,0.0244
1543.00,0.0242
1542.00,0.0240
1541.00,0.0241
1540.00,0.0243
1539.00,0.0243
1538.00,0.0243
1537.00,0.0244
1536.00,0.0243
1535.00,0.0243
1534.00,0.0243
1533.00,0.0243
1532.00,0.0242
1531.00,0.0241
1530.00,0.0240
1529.00,0.0240
1528.00,0.0239
1527.00,0.0239
1526.00,0.0238
1525.00,0.0237
1524.00,0.0236
1523.00,0.0236
1522.00,0.0236
1521.00,0.0236
1520.00,0.0237
1519.00,0.0237
1518.00,0.0237
1517.00,0.0235
1516.00,0.0234
1515.00,0.0232
1514.00,0.0232
1513.00,0.0231
1512.00,0.0230
1511.00,0.0229
1510.00,0.0228
1509.00,0.0227
1508.00,0.0228
1507.00,0.0230
1506.00,0.0230
1505.00,0.0230
1504.00,0.0231
1503.00,0.0230
1502.00,0.0229
1501.00,0.0227
1500.00,0.0227
1499.00,0.0228
1498.00,0.0231
1497.00,0.0233
1496.00,0.0233
1495.00,0.0231
1494.00,0.0228
1493.00,0.0226
1492.00,0.0224
1491.00,0.0224
1490.00,0.0224
1489.00,0.0224
1488.00,0.0223
1487.00,0.0222
1486.00,0.0222
1485.00,0.0222
1484.00,0.0221
1483.00,0.0221
1482.00,0.0222
1481.00,0.0222
1480.00,0.0222
1479.00,0.0222
1478.00,0.0222
1477.00,0.0223
1476.00,0.0223
1475.00,0.0223
1474.00,0.0223
1473.00,0.0224
1472.00,0.0224
1471.00,0.0224
1470.00,0.0225
1469.00,0.0227
1468.00,0.0227
1467.00,0.0227
1466.00,0.0226
1465.00,0.0226
1464.00,0.0225
1463.00,0.0225
1462.00,0.0225
1461.00,0.0224
1460.00,0.0223
1459.00,0.0223
1458.00,0.0225
1457.00,0.0227
1456.00,0.0226
1455.00,0.0225
1454.00,0.0225
1453.00,0.0225
1452.00,0.0225
1451.00,0.0226
1450.00,0.0226
1449.00,0.0228
1448.00,0.0229
1447.00,0.0229
1446.00,0.0230
1445.00,0.0230
1444.00,0.0230
1443.00,0.0230
1442.00,0.0229
1441.00,0.0229
1440.00,0.0229
1439.00,0.0230
1438.00,0.0232
1437.00,0.0234
1436.00,0.0235
1435.00,0.0235
1434.00,0.0234
1433.00,0.0233
1432.00,0.0233
1431.00,0.0232
1430.00,0.0232
1429.00,0.0232
1428.00,0.0232
1427.00,0.0232
1426.00,0.0232
1425.00,0.0231
1424.00,0.0232
1423.00,0.0232
1422.00,0.0232
1421.00,0.0233
1420.00,0.0233
1419.00,0.0235
1418.00,0.0235
1417.00,0.0236
1416.00,0.0237
1415.00,0.0236
1414.00,0.0235
1413.00,0.0234
1412.00,0.0233
1411.00,0.0233
1410.00,0.0233
1409.00,0.0233
1408.00,0.0233
1407.00,0.0233
1406.00,0.0232
1405.00,0.0231
1404.00,0.0230
1403.00,0.0229
1402.00,0.0228
1401.00,0.0227
1400.00,0.0227
1399.00,0.0226
1398.00,0.0226
1397.00,0.0226
1396.00,0.0225
1395.00,0.0225
1394.00,0.0226
1393.00,0.0226
1392.00,0.0227
1391.00,0.0228
1390.00,0.0228
1389.00,0.0227
1388.00,0.0227
1387.00,0.0228
1386.00,0.0228
1385.00,0.0227
1384.00,0.0226
1383.00,0.0225
1382.00,0.0226
1381.00,0.0226
1380.00,0.0228
1379.00,0.0229
1378.00,0.0230
1377.00,0.0230
1376.00,0.0231
1375.00,0.0231
1374.00,0.0232
1373.00,0.0233
1372.00,0.0234
1371.00,0.0235
1370.00,0.0236
1369.00,0.0236
1368.00,0.0236
1367.00,0.0236
1366.00,0.0236
1365.00,0.0235
1364.00,0.0235
1363.00,0.0236
1362.00,0.0237
1361.00,0.0237
1360.00,0.0238
1359.00,0.0239
1358.00,0.0239
1357.00,0.0240
1356.00,0.0241
1355.00,0.0242
1354.00,0.0243
1353.00,0.0243
1352.00,0.0242
1351.00,0.0242
1350.00,0.0241
1349.00,0.0241
1348.00,0.0241
1347.00,0.0242
1346.00,0.0242
1345.00,0.0242
1344.00,0.0241
1343.00,0.0240
1342.00,0.0240
1341.00,0.0240
1340.00,0.0240
1339.00,0.0241
1338.00,0.0241
1337.00,0.0240
1336.00,0.0240
1335.00,0.0240
1334.00,0.0241
1333.00,0.0241
1332.00,0.0241
1331.00,0.0242
1330.00,0.0243
1329.00,0.0243
1328.00,0.0243
1327.00,0.0243
1326.00,0.0242
1325.00,0.0242
1324.00,0.0243
1323.00,0.0244
1322.00,0.0244
1321.00,0.0244
1320.00,0.0244
1319.00,0.0244
1318.00,0.0243
1317.00,0.0242
1316.00,0.0241
1315.00,0.0241
1314.00,0.0242
1313.00,0.0243
1312.00,0.0244
1311.00,0.0245
1310.00,0.0245
1309.00,0.0245
1308.00,0.0245
1307.00,0.0244
1306.00,0.0244
1305.00,0.0244
1304.00,0.0244
1303.00,0.0246
1302.00,0.0246
1301.00,0.0246
1300.00,0.0246
1299.00,0.0245
1298.00,0.0245
1297.00,0.0245
1296.00,0.0245
1295.00,0.0245
1294.00,0.0246
1293.00,0.0247
1292.00,0.0248
1291.00,0.0248
1290.00,0.0249
1289.00,0.0250
1288.00,0.0250
1287.00,0.0250
1286.00,0.0250
1285.00,0.0250
1284.00,0.0250
1283.00,0.0251
1282.00,0.0251
1281.00,0.0251
1280.00,0.0250
1279.00,0.0249
1278.00,0.0248
1277.00,0.0247
1276.00,0.0246
1275.00,0.0247
1274.00,0.0247
1273.00,0.0247
1272.00,0.0247
1271.00,0.0247
1270.00,0.0246
1269.00,0.0246
1268.00,0.0245
1267.00,0.0246
1266.00,0.0247
1265.00,0.0247
1264.00,0.0247
1263.00,0.0247
1262.00,0.0246
1261.00,0.0246
1260.00,0.0247
1259.00,0.0249
1258.00,0.0250
1257.00,0.0250
1256.00,0.0249
1255.00,0.0248
1254.00,0.0248
1253.00,0.0249
1252.00,0.0249
1251.00,0.0249
1250.00,0.0248
1249.00,0.0247
1248.00,0.0247
1247.00,0.0248
1246.00,0.0249
1245.00,0.0250
1244.00,0.0252
1243.00,0.0252
1242.00,0.0253
1241.00,0.0253
1240.00,0.0253
1239.00,0.0254
1238.00,0.0254
1237.00,0.0255
1236.00,0.0255
1235.00,0.0255
1234.00,0.0254
1233.00,0.0253
1232.00,0.0253
1231.00,0.0252
1230.00,0.0252
1229.00,0.0253
1228.00,0.0254
1227.00,0.0256
1226.00,0.0257
1225.00,0.0257
1224.00,0.0257
1223.00,0.0257
1222.00,0.0258
1221.00,0.0259
1220.00,0.0260
1219.00,0.0261
1218.00,0.0260
1217.00,0.0260
1216.00,0.0260
1215.00,0.0259
1214.00,0.0259
1213.00,0.0259
1212.00,0.0259
1211.00,0.0259
1210.00,0.0259
1209.00,0.0259
1208.00,0.0260
1207.00,0.0260
1206.00,0.0260
1205.00,0.0260
1204.00,0.0259
1203.00,0.0259
1202.00,0.0259
1201.00,0.0260
1200.00,0.0261
1199.00,0.0262
1198.00,0.0263
1197.00,0.0262
1196.00,0.0261
1195.00,0.0260
1194.00,0.0259
1193.00,0.0259
1192.00,0.0258
1191.00,0.0258
1190.00,0.0257
1189.00,0.0256
1188.00,0.0255
1187.00,0.0255
1186.00,0.0256
1185.00,0.0256
1184.00,0.0257
1183.00,0.0257
1182.00,0.0256
1181.00,0.0256
1180.00,0.0255
1179.00,0.0255
1178.00,0.0255
1177.00,0.0255
1176.00,0.0254
1175.00,0.0254
1174.00,0.0253
1173.00,0.0252
1172.00,0.0251
1171.00,0.0250
1170.00,0.0249
1169.00,0.0249
1168.00,0.0250
1167.00,0.0251
1166.00,0.0253
1165.00,0.0253
1164.00,0.0253
1163.00,0.0252
1162.00,0.0252
1161.00,0.0252
1160.00,0.0251
1159.00,0.0251
1158.00,0.0249
1157.00,0.0248
1156.00,0.0249
1155.00,0.0250
1154.00,0.0251
1153.00,0.0252
1152.00,0.0251
1151.00,0.0249
1150.00,0.0248
1149.00,0.0247
1148.00,0.0247
1147.00,0.0247
1146.00,0.0247
1145.00,0.0247
1144.00,0.0247
1143.00,0.0248
1142.00,0.0249
1141.00,0.0249
1140.00,0.0249
1139.00,0.0248
1138.00,0.0249
1137.00,0.0249
1136.00,0.0250
1135.00,0.0252
1134.00,0.0254
1133.00,0.0255
1132.00,0.0255
1131.00,0.0255
1130.00,0.0255
1129.00,0.0256
1128.00,0.0257
1127.00,0.0257
1126.00,0.0255
1125.00,0.0254
1124.00,0.0254
1123.00,0.0257
1122.00,0.0261
1121.00,0.0264
1120.00,0.0266
1119.00,0.0266
1118.00,0.0265
1117.00,0.0265
1116.00,0.0267
1115.00,0.0269
1114.00,0.0271
1113.00,0.0272
1112.00,0.0271
1111.00,0.0271
1110.00,0.0272
1109.00,0.0274
1108.00,0.0274
1107.00,0.0274
1106.00,0.0272
1105.00,0.0270
1104.00,0.0269
1103.00,0.0269
1102.00,0.0269
1101.00,0.0270
1100.00,0.0269
1099.00,0.0268
1098.00,0.0268
1097.00,0.0268
1096.00,0.0269
1095.00,0.0271
1094.00,0.0273
1093.00,0.0275
1092.00,0.0277
1091.00,0.0277
1090.00,0.0276
1089.00,0.0274
1088.00,0.0272
1087.00,0.0271
1086.00,0.0271
1085.00,0.0270
1084.00,0.0270
1083.00,0.0269
1082.00,0.0268
1081.00,0.0268
1080.00,0.0269
1079.00,0.0271
1078.00,0.0275
1077.00,0.0278
1076.00,0.0278
1075.00,0.0277
1074.00,0.0275
1073.00,0.0274
1072.00,0.0275
1071.00,0.0275
1070.00,0.0274
1069.00,0.0273
1068.00,0.0272
1067.00,0.0272
1066.00,0.0273
1065.00,0.0275
1064.00,0.0277
1063.00,0.0278
1062.00,0.0277
1061.00,0.0274
1060.00,0.0271
1059.00,0.0270
1058.00,0.0272
1057.00,0.0274
1056.00,0.0276
1055.00,0.0277
1054.00,0.0279
1053.00,0.0281
1052.00,0.0284
1051.00,0.0287
1050.00,0.0289
1049.00,0.0292
1048.00,0.0294
1047.00,0.0295
1046.00,0.0294
1045.00,0.0293
1044.00,0.0293
1043.00,0.0292
1042.00,0.0291
1041.00,0.0288
1040.00,0.0287
1039.00,0.0288
1038.00,0.0290
1037.00,0.0292
1036.00,0.0294
1035.00,0.0296
1034.00,0.0297
1033.00,0.0297
1032.00,0.0297
1031.00,0.0296
1030.00,0.0293
1029.00,0.0290
1028.00,0.0287
1027.00,0.0285
1026.00,0.0284
1025.00,0.0283
1024.00,0.0283
1023.00,0.0282
1022.00,0.0281
1021.00,0.0280
1020.00,0.0279
1019.00,0.0278
1018.00,0.0277
1017.00,0.0277
1016.00,0.0278
1015.00,0.0280
1014.00,0.0281
1013.00,0.0282
1012.00,0.0282
1011.00,0.0283
1010.00,0.0284
1009.00,0.0284
1008.00,0.0284
1007.00,0.0284
1006.00,0.0283
1005.00,0.0284
1004.00,0.0285
1003.00,0.0285
1002.00,0.0285
1001.00,0.0283
1000.00,0.0280
999.00,0.0277
998.00,0.0273
997.00,0.0271
996.00,0.0270
995.00,0.0269
994.00,0.0266
993.00,0.0264
992.00,0.0261
991.00,0.0260
990.00,0.0259
989.00,0.0259
988.00,0.0259
987.00,0.0260
986.00,0.0261
985.00,0.0261
984.00,0.0261
983.00,0.0260
982.00,0.0259
981.00,0.0259
980.00,0.0260
979.00,0.0259
978.00,0.0258
977.00,0.0255
976.00,0.0252
975.00,0.0250
974.00,0.0249
973.00,0.0248
972.00,0.0246
971.00,0.0244
970.00,0.0240
969.00,0.0238
968.00,0.0237
967.00,0.0237
966.00,0.0237
965.00,0.0236
964.00,0.0236
963.00,0.0237
962.00,0.0238
961.00,0.0239
960.00,0.0239
959.00,0.0238
958.00,0.0237
957.00,0.0235
956.00,0.0234
955.00,0.0231
954.00,0.0229
953.00,0.0227
952.00,0.0227
951.00,0.0228
950.00,0.0229
949.00,0.0230
948.00,0.0231
947.00,0.0232
946.00,0.0233
945.00,0.0235
944.00,0.0237
943.00,0.0238
942.00,0.0238
941.00,0.0238
940.00,0.0238
939.00,0.0239
938.00,0.0238
937.00,0.0236
936.00,0.0233
935.00,0.0230
934.00,0.0228
933.00,0.0228
932.00,0.0229
931.00,0.0231
930.00,0.0234
929.00,0.0236
928.00,0.0239
927.00,0.0241
926.00,0.0243
925.00,0.0244
924.00,0.0246
923.00,0.0248
922.00,0.0250
921.00,0.0251
920.00,0.0252
919.00,0.0252
918.00,0.0251
917.00,0.0252
916.00,0.0253
915.00,0.0254
914.00,0.0254
913.00,0.0252
912.00,0.0250
911.00,0.0247
910.00,0.0245
909.00,0.0242
908.00,0.0240
907.00,0.0240
906.00,0.0241
905.00,0.0243
904.00,0.0248
903.00,0.0252
902.00,0.0255
901.00,0.0255
900.00,0.0255
899.00,0.0254
898.00,0.0253
897.00,0.0252
896.00,0.0250
895.00,0.0248
894.00,0.0246
893.00,0.0244
892.00,0.0243
891.00,0.0242
890.00,0.0242
889.00,0.0243
888.00,0.0245
887.00,0.0245
886.00,0.0244
885.00,0.0244
884.00,0.0246
883.00,0.0249
882.00,0.0253
881.00,0.0254
880.00,0.0252
879.00,0.0251
878.00,0.0249
877.00,0.0247
876.00,0.0246
875.00,0.0245
874.00,0.0245
873.00,0.0244
872.00,0.0243
871.00,0.0243
870.00,0.0243
869.00,0.0242
868.00,0.0240
867.00,0.0237
866.00,0.0235
865.00,0.0235
864.00,0.0235
863.00,0.0236
862.00,0.0237
861.00,0.0238
860.00,0.0237
859.00,0.0235
858.00,0.0232
857.00,0.0231
856.00,0.0233
855.00,0.0237
854.00,0.0242
853.00,0.0245
852.00,0.0246
851.00,0.0247
850.00,0.0247
849.00,0.0249
848.00,0.0250
847.00,0.0250
846.00,0.0250
845.00,0.0249
844.00,0.0247
843.00,0.0244
842.00,0.0240
841.00,0.0237
840.00,0.0235
839.00,0.0234
838.00,0.0236
837.00,0.0238
836.00,0.0240
835.00,0.0242
834.00,0.0243
833.00,0.0244
832.00,0.0246
831.00,0.0247
830.00,0.0246
829.00,0.0243
828.00,0.0239
827.00,0.0236
826.00,0.0234
825.00,0.0233
824.00,0.0234
823.00,0.0235
822.00,0.0236
821.00,0.0238
820.00,0.0240
819.00,0.0243
818.00,0.0247
817.00,0.0249
816.00,0.0250
815.00,0.0251
814.00,0.0253
813.00,0.0257
812.00,0.0261
811.00,0.0264
810.00,0.0265
809.00,0.0264
808.00,0.0261
807.00,0.0256
806.00,0.0251
805.00,0.0247
804.00,0.0243
803.00,0.0241
802.00,0.0239
801.00,0.0239
800.00,0.0241
799.00,0.0244
798.00,0.0245
797.00,0.0246
796.00,0.0248
795.00,0.0250
794.00,0.0251
793.00,0.0252
792.00,0.0254
791.00,0.0257
790.00,0.0259
789.00,0.0260
788.00,0.0258
787.00,0.0256
786.00,0.0256
785.00,0.0258
784.00,0.0259
783.00,0.0259
782.00,0.0257
781.00,0.0256
780.00,0.0254
779.00,0.0254
778.00,0.0255
777.00,0.0258
776.00,0.0262
775.00,0.0265
774.00,0.0265
773.00,0.0264
772.00,0.0263
771.00,0.0263
770.00,0.0262
769.00,0.0260
768.00,0.0258
767.00,0.0254
766.00,0.0251
765.00,0.0248
764.00,0.0247
763.00,0.0245
762.00,0.0243
761.00,0.0241
760.00,0.0241
759.00,0.0246
758.00,0.0252
757.00,0.0258
756.00,0.0262
755.00,0.0262
754.00,0.0262
753.00,0.0263
752.00,0.0266
751.00,0.0270
750.00,0.0274
749.00,0.0275
748.00,0.0274
747.00,0.0271
746.00,0.0268
745.00,0.0265
744.00,0.0262
743.00,0.0261
742.00,0.0260
741.00,0.0257
740.00,0.0253
739.00,0.0248
738.00,0.0245
737.00,0.0243
736.00,0.0242
735.00,0.0241
734.00,0.0240
733.00,0.0240
732.00,0.0239
731.00,0.0239
730.00,0.0241
729.00,0.0246
728.00,0.0252
727.00,0.0258
726.00,0.0262
725.00,0.0265
724.00,0.0264
723.00,0.0262
722.00,0.0261
721.00,0.0262
720.00,0.0263
719.00,0.0261
718.00,0.0257
717.00,0.0252
716.00,0.0248
715.00,0.0244
714.00,0.0241
713.00,0.0239
712.00,0.0238
711.00,0.0237
710.00,0.0236
709.00,0.0237
708.00,0.0240
707.00,0.0245
706.00,0.0250
705.00,0.0256
704.00,0.0263
703.00,0.0268
702.00,0.0268
701.00,0.0267
700.00,0.0265
699.00,0.0265
698.00,0.0266
697.00,0.0265
696.00,0.0262
695.00,0.0259
694.00,0.0258
693.00,0.0258
692.00,0.0260
691.00,0.0263
690.00,0.0267
689.00,0.0271
688.00,0.0273
687.00,0.0274
686.00,0.0274
685.00,0.0276
684.00,0.0276
683.00,0.0275
682.00,0.0271
681.00,0.0267
680.00,0.0263
679.00,0.0258
678.00,0.0254
677.00,0.0250
676.00,0.0244
675.00,0.0237
674.00,0.0229
673.00,0.0224
672.00,0.0221
671.00,0.0218
670.00,0.0212
669.00,0.0209
668.00,0.0222
667.00,0.0249
666.00,0.0271
665.00,0.0285
664.00,0.0294
663.00,0.0296
662.00,0.0292
661.00,0.0283
660.00,0.0274
659.00,0.0269
658.00,0.0268
657.00,0.0270
656.00,0.0260
655.00,0.0246
654.00,0.0230
653.00,0.0215
652.00,0.0206
651.00,0.0205
650.00,0.0209
