Created as New Dataset,Monday, April 03 2023
cm-1,A
4000.00,0.0105
3999.00,0.0104
3998.00,0.0104
3997.00,0.0104
3996.00,0.0104
3995.00,0.0103
3994.00,0.0103
3993.00,0.0103
3992.00,0.0103
3991.00,0.0103
3990.00,0.0103
3989.00,0.0103
3988.00,0.0103
3987.00,0.0103
3986.00,0.0103
3985.00,0.0103
3984.00,0.0104
3983.00,0.0104
3982.00,0.0103
3981.00,0.0103
3980.00,0.0103
3979.00,0.0103
3978.00,0.0102
3977.00,0.0102
3976.00,0.0102
3975.00,0.0101
3974.00,0.0101
3973.00,0.0101
3972.00,0.0102
3971.00,0.0102
3970.00,0.0102
3969.00,0.0102
3968.00,0.0102
3967.00,0.0101
3966.00,0.0101
3965.00,0.0102
3964.00,0.0102
3963.00,0.0103
3962.00,0.0103
3961.00,0.0103
3960.00,0.0102
3959.00,0.0101
3958.00,0.0101
3957.00,0.0101
3956.00,0.0101
3955.00,0.0100
3954.00,0.0100
3953.00,0.0100
3952.00,0.0100
3951.00,0.0101
3950.00,0.0102
3949.00,0.0102
3948.00,0.0103
3947.00,0.0103
3946.00,0.0103
3945.00,0.0102
3944.00,0.0101
3943.00,0.0100
3942.00,0.0099
3941.00,0.0099
3940.00,0.0099
3939.00,0.0100
3938.00,0.0100
3937.00,0.0101
3936.00,0.0101
3935.00,0.0101
3934.00,0.0100
3933.00,0.0100
3932.00,0.0100
3931.00,0.0099
3930.00,0.0099
3929.00,0.0099
3928.00,0.0099
3927.00,0.0100
3926.00,0.0100
3925.00,0.0099
3924.00,0.0099
3923.00,0.0099
3922.00,0.0099
3921.00,0.0099
3920.00,0.0099
3919.00,0.0099
3918.00,0.0100
3917.00,0.0100
3916.00,0.0100
3915.00,0.0100
3914.00,0.0100
3913.00,0.0100
3912.00,0.0099
3911.00,0.0099
3910.00,0.0099
3909.00,0.0099
3908.00,0.0099
3907.00,0.0098
3906.00,0.0098
3905.00,0.0098
3904.00,0.0098
3903.00,0.0099
3902.00,0.0099
3901.00,0.0099
3900.00,0.0099
3899.00,0.0098
3898.00,0.0098
3897.00,0.0099
3896.00,0.0099
3895.00,0.0099
3894.00,0.0098
3893.00,0.0098
3892.00,0.0097
3891.00,0.0096
3890.00,0.0095
3889.00,0.0096
3888.00,0.0096
3887.00,0.0096
3886.00,0.0096
3885.00,0.0096
3884.00,0.0097
3883.00,0.0097
3882.00,0.0096
3881.00,0.0095
3880.00,0.0094
3879.00,0.0095
3878.00,0.0097
3877.00,0.0099
3876.00,0.0100
3875.00,0.0099
3874.00,0.0098
3873.00,0.0097
3872.00,0.0096
3871.00,0.0096
3870.00,0.0096
3869.00,0.0096
3868.00,0.0096
3867.00,0.0097
3866.00,0.0098
3865.00,0.0098
3864.00,0.0098
3863.00,0.0098
3862.00,0.0098
3861.00,0.0098
3860.00,0.0098
3859.00,0.0098
3858.00,0.0096
3857.00,0.0093
3856.00,0.0090
3855.00,0.0090
3854.00,0.0092
3853.00,0.0093
3852.00,0.0093
3851.00,0.0094
3850.00,0.0095
3849.00,0.0095
3848.00,0.0095
3847.00,0.0096
3846.00,0.0096
3845.00,0.0096
3844.00,0.0096
3843.00,0.0095
3842.00,0.0095
3841.00,0.0095
3840.00,0.0096
3839.00,0.0095
3838.00,0.0094
3837.00,0.0093
3836.00,0.0093
3835.00,0.0094
3834.00,0.0095
3833.00,0.0095
3832.00,0.0096
3831.00,0.0096
3830.00,0.0097
3829.00,0.0097
3828.00,0.0097
3827.00,0.0096
3826.00,0.0095
3825.00,0.0095
3824.00,0.0095
3823.00,0.0097
3822.00,0.0097
3821.00,0.0096
3820.00,0.0095
3819.00,0.0094
3818.00,0.0094
3817.00,0.0093
3816.00,0.0093
3815.00,0.0094
3814.00,0.0095
3813.00,0.0096
3812.00,0.0096
3811.00,0.0095
3810.00,0.0094
3809.00,0.0093
3808.00,0.0094
3807.00,0.0095
3806.00,0.0095
3805.00,0.0096
3804.00,0.0097
3803.00,0.0097
3802.00,0.0096
3801.00,0.0095
3800.00,0.0094
3799.00,0.0094
3798.00,0.0093
3797.00,0.0093
3796.00,0.0092
3795.00,0.0093
3794.00,0.0094
3793.00,0.0095
3792.00,0.0095
3791.00,0.0096
3790.00,0.0096
3789.00,0.0096
3788.00,0.0096
3787.00,0.0096
3786.00,0.0096
3785.00,0.0096
3784.00,0.0096
3783.00,0.0095
3782.00,0.0095
3781.00,0.0095
3780.00,0.0094
3779.00,0.0094
3778.00,0.0093
3777.00,0.0094
3776.00,0.0094
3775.00,0.0094
3774.00,0.0093
3773.00,0.0093
3772.00,0.0093
3771.00,0.0093
3770.00,0.0092
3769.00,0.0092
3768.00,0.0092
3767.00,0.0092
3766.00,0.0092
3765.00,0.0093
3764.00,0.0093
3763.00,0.0094
3762.00,0.0095
3761.00,0.0095
3760.00,0.0095
3759.00,0.0094
3758.00,0.0093
3757.00,0.0092
3756.00,0.0091
3755.00,0.0090
3754.00,0.0089
3753.00,0.0089
3752.00,0.0090
3751.00,0.0091
3750.00,0.0091
3749.00,0.0092
3748.00,0.0092
3747.00,0.0093
3746.00,0.0092
3745.00,0.0092
3744.00,0.0091
3743.00,0.0091
3742.00,0.0092
3741.00,0.0093
3740.00,0.0093
3739.00,0.0094
3738.00,0.0094
3737.00,0.0095
3736.00,0.0094
3735.00,0.0092
3734.00,0.0090
3733.00,0.0089
3732.00,0.0090
3731.00,0.0090
3730.00,0.0091
3729.00,0.0092
3728.00,0.0093
3727.00,0.0093
3726.00,0.0093
3725.00,0.0093
3724.00,0.0092
3723.00,0.0091
3722.00,0.0091
3721.00,0.0092
3720.00,0.0093
3719.00,0.0093
3718.00,0.0093
3717.00,0.0093
3716.00,0.0093
3715.00,0.0093
3714.00,0.0094
3713.00,0.0096
3712.00,0.0098
3711.00,0.0098
3710.00,0.0097
3709.00,0.0096
3708.00,0.0098
3707.00,0.0100
3706.00,0.0102
3705.00,0.0103
3704.00,0.0104
3703.00,0.0104
3702.00,0.0104
3701.00,0.0104
3700.00,0.0105
3699.00,0.0106
3698.00,0.0107
3697.00,0.0107
3696.00,0.0107
3695.00,0.0107
3694.00,0.0106
3693.00,0.0106
3692.00,0.0106
3691.00,0.0107
3690.00,0.0107
3689.00,0.0106
3688.00,0.0105
3687.00,0.0105
3686.00,0.0105
3685.00,0.0105
3684.00,0.0105
3683.00,0.0105
3682.00,0.0104
3681.00,0.0103
3680.00,0.0102
3679.00,0.0099
3678.00,0.0098
3677.00,0.0098
3676.00,0.0098
3675.00,0.0097
3674.00,0.0097
3673.00,0.0100
3672.00,0.0102
3671.00,0.0104
3670.00,0.0105
3669.00,0.0105
3668.00,0.0105
3667.00,0.0106
3666.00,0.0107
3665.00,0.0108
3664.00,0.0109
3663.00,0.0110
3662.00,0.0111
3661.00,0.0113
3660.00,0.0114
3659.00,0.0116
3658.00,0.0117
3657.00,0.0119
3656.00,0.0120
3655.00,0.0120
3654.00,0.0121
3653.00,0.0122
3652.00,0.0122
3651.00,0.0123
3650.00,0.0124
3649.00,0.0124
3648.00,0.0123
3647.00,0.0123
3646.00,0.0125
3645.00,0.0127
3644.00,0.0128
3643.00,0.0129
3642.00,0.0130
3641.00,0.0130
3640.00,0.0130
3639.00,0.0131
3638.00,0.0131
3637.00,0.0132
3636.00,0.0132
3635.00,0.0133
3634.00,0.0133
3633.00,0.0132
3632.00,0.0132
3631.00,0.0132
3630.00,0.0135
3629.00,0.0139
3628.00,0.0142
3627.00,0.0143
3626.00,0.0144
3625.00,0.0145
3624.00,0.0146
3623.00,0.0147
3622.00,0.0148
3621.00,0.0150
3620.00,0.0152
3619.00,0.0152
3618.00,0.0152
3617.00,0.0151
3616.00,0.0151
3615.00,0.0151
3614.00,0.0150
3613.00,0.0149
3612.00,0.0149
3611.00,0.0151
3610.00,0.0153
3609.00,0.0155
3608.00,0.0156
3607.00,0.0156
3606.00,0.0155
3605.00,0.0154
3604.00,0.0154
3603.00,0.0154
3602.00,0.0156
3601.00,0.0158
3600.00,0.0159
3599.00,0.0159
3598.00,0.0158
3597.00,0.0158
3596.00,0.0158
3595.00,0.0158
3594.00,0.0158
3593.00,0.0158
3592.00,0.0158
3591.00,0.0158
3590.00,0.0159
3589.00,0.0160
3588.00,0.0162
3587.00,0.0163
3586.00,0.0164
3585.00,0.0165
3584.00,0.0166
3583.00,0.0167
3582.00,0.0167
3581.00,0.0167
3580.00,0.0167
3579.00,0.0168
3578.00,0.0168
3577.00,0.0169
3576.00,0.0170
3575.00,0.0171
3574.00,0.0171
3573.00,0.0172
3572.00,0.0172
3571.00,0.0171
3570.00,0.0171
3569.00,0.0172
3568.00,0.0174
3567.00,0.0176
3566.00,0.0177
3565.00,0.0176
3564.00,0.0176
3563.00,0.0176
3562.00,0.0177
3561.00,0.0178
3560.00,0.0180
3559.00,0.0181
3558.00,0.0182
3557.00,0.0183
3556.00,0.0184
3555.00,0.0184
3554.00,0.0185
3553.00,0.0185
3552.00,0.0186
3551.00,0.0187
3550.00,0.0188
3549.00,0.0189
3548.00,0.0190
3547.00,0.0191
3546.00,0.0192
3545.00,0.0192
3544.00,0.0193
3543.00,0.0193
3542.00,0.0193
3541.00,0.0193
3540.00,0.0193
3539.00,0.0193
3538.00,0.0192
3537.00,0.0193
3536.00,0.0194
3535.00,0.0195
3534.00,0.0196
3533.00,0.0198
3532.00,0.0199
3531.00,0.0200
3530.00,0.0200
3529.00,0.0200
3528.00,0.0199
3527.00,0.0199
3526.00,0.0200
3525.00,0.0202
3524.00,0.0204
3523.00,0.0205
3522.00,0.0206
3521.00,0.0205
3520.00,0.0205
3519.00,0.0204
3518.00,0.0204
3517.00,0.0203
3516.00,0.0204
3515.00,0.0204
3514.00,0.0205
3513.00,0.0207
3512.00,0.0208
3511.00,0.0209
3510.00,0.0210
3509.00,0.0210
3508.00,0.0210
3507.00,0.0210
3506.00,0.0211
3505.00,0.0213
3504.00,0.0214
3503.00,0.0215
3502.00,0.0215
3501.00,0.0215
3500.00,0.0215
3499.00,0.0216
3498.00,0.0217
3497.00,0.0218
3496.00,0.0218
3495.00,0.0218
3494.00,0.0218
3493.00,0.0218
3492.00,0.0218
3491.00,0.0218
3490.00,0.0218
3489.00,0.0218
3488.00,0.0219
3487.00,0.0219
3486.00,0.0220
3485.00,0.0221
3484.00,0.0221
3483.00,0.0222
3482.00,0.0222
3481.00,0.0223
3480.00,0.0224
3479.00,0.0224
3478.00,0.0225
3477.00,0.0225
3476.00,0.0226
3475.00,0.0227
3474.00,0.0228
3473.00,0.0228
3472.00,0.0229
3471.00,0.0230
3470.00,0.0231
3469.00,0.0231
3468.00,0.0231
3467.00,0.0232
3466.00,0.0232
3465.00,0.0233
3464.00,0.0234
3463.00,0.0234
3462.00,0.0233
3461.00,0.0233
3460.00,0.0234
3459.00,0.0235
3458.00,0.0236
3457.00,0.0236
3456.00,0.0236
3455.00,0.0236
3454.00,0.0236
3453.00,0.0236
3452.00,0.0237
3451.00,0.0238
3450.00,0.0238
3449.00,0.0239
3448.00,0.0239
3447.00,0.0240
3446.00,0.0240
3445.00,0.0241
3444.00,0.0241
3443.00,0.0241
3442.00,0.0241
3441.00,0.0240
3440.00,0.0240
3439.00,0.0240
3438.00,0.0241
3437.00,0.0241
3436.00,0.0241
3435.00,0.0241
3434.00,0.0241
3433.00,0.0242
3432.00,0.0243
3431.00,0.0244
3430.00,0.0244
3429.00,0.0245
3428.00,0.0245
3427.00,0.0245
3426.00,0.0246
3425.00,0.0247
3424.00,0.0248
3423.00,0.0249
3422.00,0.0250
3421.00,0.0250
3420.00,0.0250
3419.00,0.0250
3418.00,0.0250
3417.00,0.0250
3416.00,0.0250
3415.00,0.0249
3414.00,0.0250
3413.00,0.0251
3412.00,0.0251
3411.00,0.0252
3410.00,0.0252
3409.00,0.0253
3408.00,0.0253
3407.00,0.0254
3406.00,0.0254
3405.00,0.0254
3404.00,0.0254
3403.00,0.0253
3402.00,0.0253
3401.00,0.0254
3400.00,0.0255
3399.00,0.0255
3398.00,0.0256
3397.00,0.0256
3396.00,0.0256
3395.00,0.0256
3394.00,0.0256
3393.00,0.0257
3392.00,0.0257
3391.00,0.0258
3390.00,0.0258
3389.00,0.0258
3388.00,0.0258
3387.00,0.0258
3386.00,0.0258
3385.00,0.0258
3384.00,0.0259
3383.00,0.0259
3382.00,0.0260
3381.00,0.0260
3380.00,0.0260
3379.00,0.0261
3378.00,0.0261
3377.00,0.0261
3376.00,0.0261
3375.00,0.0261
3374.00,0.0260
3373.00,0.0260
3372.00,0.0260
3371.00,0.0259
3370.00,0.0259
3369.00,0.0260
3368.00,0.0261
3367.00,0.0261
3366.00,0.0260
3365.00,0.0260
3364.00,0.0260
3363.00,0.0261
3362.00,0.0262
3361.00,0.0263
3360.00,0.0264
3359.00,0.0264
3358.00,0.0264
3357.00,0.0263
3356.00,0.0263
3355.00,0.0264
3354.00,0.0265
3353.00,0.0265
3352.00,0.0265
3351.00,0.0265
3350.00,0.0265
3349.00,0.0265
3348.00,0.0264
3347.00,0.0264
3346.00,0.0264
3345.00,0.0264
3344.00,0.0263
3343.00,0.0263
3342.00,0.0263
3341.00,0.0264
3340.00,0.0264
3339.00,0.0265
3338.00,0.0266
3337.00,0.0266
3336.00,0.0265
3335.00,0.0264
3334.00,0.0264
3333.00,0.0264
3332.00,0.0264
3331.00,0.0264
3330.00,0.0263
3329.00,0.0262
3328.00,0.0262
3327.00,0.0263
3326.00,0.0264
3325.00,0.0265
3324.00,0.0265
3323.00,0.0266
3322.00,0.0265
3321.00,0.0265
3320.00,0.0264
3319.00,0.0264
3318.00,0.0264
3317.00,0.0264
3316.00,0.0264
3315.00,0.0264
3314.00,0.0264
3313.00,0.0264
3312.00,0.0264
3311.00,0.0264
3310.00,0.0264
3309.00,0.0265
3308.00,0.0266
3307.00,0.0266
3306.00,0.0266
3305.00,0.0266
3304.00,0.0265
3303.00,0.0265
3302.00,0.0265
3301.00,0.0265
3300.00,0.0265
3299.00,0.0265
3298.00,0.0265
3297.00,0.0265
3296.00,0.0266
3295.00,0.0266
3294.00,0.0266
3293.00,0.0265
3292.00,0.0265
3291.00,0.0264
3290.00,0.0264
3289.00,0.0264
3288.00,0.0264
3287.00,0.0264
3286.00,0.0265
3285.00,0.0265
3284.00,0.0266
3283.00,0.0266
3282.00,0.0266
3281.00,0.0266
3280.00,0.0266
3279.00,0.0266
3278.00,0.0266
3277.00,0.0266
3276.00,0.0266
3275.00,0.0266
3274.00,0.0266
3273.00,0.0266
3272.00,0.0266
3271.00,0.0266
3270.00,0.0267
3269.00,0.0267
3268.00,0.0268
3267.00,0.0267
3266.00,0.0267
3265.00,0.0266
3264.00,0.0265
3263.00,0.0264
3262.00,0.0264
3261.00,0.0264
3260.00,0.0265
3259.00,0.0265
3258.00,0.0265
3257.00,0.0265
3256.00,0.0264
3255.00,0.0264
3254.00,0.0264
3253.00,0.0265
3252.00,0.0265
3251.00,0.0265
3250.00,0.0265
3249.00,0.0264
3248.00,0.0264
3247.00,0.0264
3246.00,0.0264
3245.00,0.0265
3244.00,0.0265
3243.00,0.0265
3242.00,0.0265
3241.00,0.0265
3240.00,0.0264
3239.00,0.0264
3238.00,0.0264
3237.00,0.0265
3236.00,0.0265
3235.00,0.0266
3234.00,0.0267
3233.00,0.0266
3232.00,0.0266
3231.00,0.0266
3230.00,0.0265
3229.00,0.0265
3228.00,0.0265
3227.00,0.0264
3226.00,0.0264
3225.00,0.0264
3224.00,0.0264
3223.00,0.0264
3222.00,0.0264
3221.00,0.0264
3220.00,0.0264
3219.00,0.0263
3218.00,0.0263
3217.00,0.0263
3216.00,0.0264
3215.00,0.0265
3214.00,0.0265
3213.00,0.0265
3212.00,0.0264
3211.00,0.0263
3210.00,0.0263
3209.00,0.0263
3208.00,0.0263
3207.00,0.0263
3206.00,0.0263
3205.00,0.0264
3204.00,0.0264
3203.00,0.0265
3202.00,0.0265
3201.00,0.0265
3200.00,0.0264
3199.00,0.0264
3198.00,0.0264
3197.00,0.0264
3196.00,0.0263
3195.00,0.0263
3194.00,0.0263
3193.00,0.0263
3192.00,0.0263
3191.00,0.0262
3190.00,0.0261
3189.00,0.0261
3188.00,0.0260
3187.00,0.0260
3186.00,0.0260
3185.00,0.0260
3184.00,0.0261
3183.00,0.0261
3182.00,0.0262
3181.00,0.0262
3180.00,0.0261
3179.00,0.0260
3178.00,0.0259
3177.00,0.0258
3176.00,0.0257
3175.00,0.0258
3174.00,0.0258
3173.00,0.0258
3172.00,0.0258
3171.00,0.0258
3170.00,0.0257
3169.00,0.0257
3168.00,0.0257
3167.00,0.0257
3166.00,0.0257
3165.00,0.0258
3164.00,0.0258
3163.00,0.0258
3162.00,0.0258
3161.00,0.0257
3160.00,0.0256
3159.00,0.0255
3158.00,0.0254
3157.00,0.0254
3156.00,0.0254
3155.00,0.0254
3154.00,0.0255
3153.00,0.0255
3152.00,0.0255
3151.00,0.0254
3150.00,0.0254
3149.00,0.0253
3148.00,0.0253
3147.00,0.0253
3146.00,0.0253
3145.00,0.0253
3144.00,0.0253
3143.00,0.0253
3142.00,0.0253
3141.00,0.0252
3140.00,0.0252
3139.00,0.0252
3138.00,0.0252
3137.00,0.0252
3136.00,0.0252
3135.00,0.0252
3134.00,0.0251
3133.00,0.0251
3132.00,0.0251
3131.00,0.0251
3130.00,0.0250
3129.00,0.0250
3128.00,0.0249
3127.00,0.0249
3126.00,0.0249
3125.00,0.0249
3124.00,0.0249
3123.00,0.0248
3122.00,0.0248
3121.00,0.0248
3120.00,0.0248
3119.00,0.0248
3118.00,0.0247
3117.00,0.0247
3116.00,0.0247
3115.00,0.0247
3114.00,0.0246
3113.00,0.0246
3112.00,0.0246
3111.00,0.0246
3110.00,0.0246
3109.00,0.0245
3108.00,0.0245
3107.00,0.0246
3106.00,0.0246
3105.00,0.0246
3104.00,0.0246
3103.00,0.0245
3102.00,0.0244
3101.00,0.0244
3100.00,0.0243
3099.00,0.0242
3098.00,0.0242
3097.00,0.0242
3096.00,0.0243
3095.00,0.0244
3094.00,0.0245
3093.00,0.0245
3092.00,0.0245
3091.00,0.0244
3090.00,0.0242
3089.00,0.0241
3088.00,0.0240
3087.00,0.0240
3086.00,0.0240
3085.00,0.0241
3084.00,0.0241
3083.00,0.0241
3082.00,0.0241
3081.00,0.0240
3080.00,0.0240
3079.00,0.0240
3078.00,0.0240
3077.00,0.0240
3076.00,0.0240
3075.00,0.0240
3074.00,0.0240
3073.00,0.0240
3072.00,0.0240
3071.00,0.0240
3070.00,0.0240
3069.00,0.0240
3068.00,0.0240
3067.00,0.0240
3066.00,0.0239
3065.00,0.0238
3064.00,0.0237
3063.00,0.0236
3062.00,0.0236
3061.00,0.0236
3060.00,0.0236
3059.00,0.0236
3058.00,0.0236
3057.00,0.0236
3056.00,0.0235
3055.00,0.0235
3054.00,0.0234
3053.00,0.0234
3052.00,0.0234
3051.00,0.0234
3050.00,0.0235
3049.00,0.0235
3048.00,0.0234
3047.00,0.0234
3046.00,0.0233
3045.00,0.0233
3044.00,0.0232
3043.00,0.0231
3042.00,0.0230
3041.00,0.0230
3040.00,0.0230
3039.00,0.0230
3038.00,0.0230
3037.00,0.0229
3036.00,0.0230
3035.00,0.0230
3034.00,0.0230
3033.00,0.0230
3032.00,0.0229
3031.00,0.0228
3030.00,0.0228
3029.00,0.0227
3028.00,0.0226
3027.00,0.0226
3026.00,0.0226
3025.00,0.0226
3024.00,0.0226
3023.00,0.0226
3022.00,0.0226
3021.00,0.0225
3020.00,0.0225
3019.00,0.0224
3018.00,0.0223
3017.00,0.0223
3016.00,0.0223
3015.00,0.0223
3014.00,0.0222
3013.00,0.0221
3012.00,0.0220
3011.00,0.0220
3010.00,0.0219
3009.00,0.0218
3008.00,0.0217
3007.00,0.0216
3006.00,0.0215
3005.00,0.0215
3004.00,0.0214
3003.00,0.0213
3002.00,0.0212
3001.00,0.0210
3000.00,0.0210
2999.00,0.0209
2998.00,0.0208
2997.00,0.0207
2996.00,0.0206
2995.00,0.0205
2994.00,0.0205
2993.00,0.0204
2992.00,0.0204
2991.00,0.0203
2990.00,0.0202
2989.00,0.0201
2988.00,0.0201
2987.00,0.0200
2986.00,0.0198
2985.00,0.0195
2984.00,0.0193
2983.00,0.0191
2982.00,0.0190
2981.00,0.0190
2980.00,0.0191
2979.00,0.0193
2978.00,0.0194
2977.00,0.0196
2976.00,0.0197
2975.00,0.0198
2974.00,0.0197
2973.00,0.0197
2972.00,0.0197
2971.00,0.0197
2970.00,0.0198
2969.00,0.0200
2968.00,0.0202
2967.00,0.0203
2966.00,0.0203
2965.00,0.0204
2964.00,0.0204
2963.00,0.0206
2962.00,0.0207
2961.00,0.0207
2960.00,0.0208
2959.00,0.0208
2958.00,0.0208
2957.00,0.0208
2956.00,0.0209
2955.00,0.0210
2954.00,0.0211
2953.00,0.0212
2952.00,0.0212
2951.00,0.0213
2950.00,0.0213
2949.00,0.0213
2948.00,0.0213
2947.00,0.0213
2946.00,0.0213
2945.00,0.0214
2944.00,0.0215
2943.00,0.0217
2942.00,0.0218
2941.00,0.0219
2940.00,0.0220
2939.00,0.0220
2938.00,0.0221
2937.00,0.0222
2936.00,0.0223
2935.00,0.0224
2934.00,0.0225
2933.00,0.0226
2932.00,0.0227
2931.00,0.0228
2930.00,0.0229
2929.00,0.0230
2928.00,0.0231
2927.00,0.0231
2926.00,0.0232
2925.00,0.0232
2924.00,0.0231
2923.00,0.0231
2922.00,0.0231
2921.00,0.0230
2920.00,0.0229
2919.00,0.0227
2918.00,0.0226
2917.00,0.0224
2916.00,0.0222
2915.00,0.0221
2914.00,0.0219
2913.00,0.0218
2912.00,0.0217
2911.00,0.0216
2910.00,0.0215
2909.00,0.0214
2908.00,0.0213
2907.00,0.0212
2906.00,0.0211
2905.00,0.0210
2904.00,0.0209
2903.00,0.0208
2902.00,0.0208
2901.00,0.0207
2900.00,0.0207
2899.00,0.0206
2898.00,0.0205
2897.00,0.0205
2896.00,0.0205
2895.00,0.0204
2894.00,0.0203
2893.00,0.0202
2892.00,0.0202
2891.00,0.0201
2890.00,0.0201
2889.00,0.0200
2888.00,0.0200
2887.00,0.0200
2886.00,0.0200
2885.00,0.0199
2884.00,0.0198
2883.00,0.0198
2882.00,0.0198
2881.00,0.0198
2880.00,0.0198
2879.00,0.0198
2878.00,0.0199
2877.00,0.0199
2876.00,0.0199
2875.00,0.0199
2874.00,0.0199
2873.00,0.0198
2872.00,0.0198
2871.00,0.0198
2870.00,0.0198
2869.00,0.0198
2868.00,0.0198
2867.00,0.0198
2866.00,0.0199
2865.00,0.0199
2864.00,0.0200
2863.00,0.0200
2862.00,0.0201
2861.00,0.0201
2860.00,0.0203
2859.00,0.0204
2858.00,0.0206
2857.00,0.0207
2856.00,0.0207
2855.00,0.0207
2854.00,0.0206
2853.00,0.0206
2852.00,0.0206
2851.00,0.0206
2850.00,0.0205
2849.00,0.0204
2848.00,0.0203
2847.00,0.0201
2846.00,0.0200
2845.00,0.0198
2844.00,0.0197
2843.00,0.0196
2842.00,0.0195
2841.00,0.0194
2840.00,0.0193
2839.00,0.0191
2838.00,0.0191
2837.00,0.0191
2836.00,0.0191
2835.00,0.0191
2834.00,0.0191
2833.00,0.0190
2832.00,0.0189
2831.00,0.0188
2830.00,0.0187
2829.00,0.0187
2828.00,0.0187
2827.00,0.0187
2826.00,0.0187
2825.00,0.0187
2824.00,0.0186
2823.00,0.0186
2822.00,0.0186
2821.00,0.0185
2820.00,0.0184
2819.00,0.0183
2818.00,0.0183
2817.00,0.0183
2816.00,0.0182
2815.00,0.0182
2814.00,0.0182
2813.00,0.0182
2812.00,0.0182
2811.00,0.0181
2810.00,0.0181
2809.00,0.0181
2808.00,0.0180
2807.00,0.0180
2806.00,0.0180
2805.00,0.0180
2804.00,0.0180
2803.00,0.0180
2802.00,0.0179
2801.00,0.0179
2800.00,0.0179
2799.00,0.0179
2798.00,0.0179
2797.00,0.0179
2796.00,0.0179
2795.00,0.0178
2794.00,0.0178
2793.00,0.0178
2792.00,0.0177
2791.00,0.0177
2790.00,0.0177
2789.00,0.0177
2788.00,0.0177
2787.00,0.0177
2786.00,0.0176
2785.00,0.0176
2784.00,0.0175
2783.00,0.0175
2782.00,0.0174
2781.00,0.0174
2780.00,0.0173
2779.00,0.0173
2778.00,0.0173
2777.00,0.0173
2776.00,0.0173
2775.00,0.0173
2774.00,0.0173
2773.00,0.0173
2772.00,0.0173
2771.00,0.0173
2770.00,0.0172
2769.00,0.0171
2768.00,0.0170
2767.00,0.0170
2766.00,0.0170
2765.00,0.0170
2764.00,0.0171
2763.00,0.0171
2762.00,0.0171
2761.00,0.0171
2760.00,0.0171
2759.00,0.0170
2758.00,0.0170
2757.00,0.0170
2756.00,0.0169
2755.00,0.0169
2754.00,0.0169
2753.00,0.0169
2752.00,0.0169
2751.00,0.0169
2750.00,0.0169
2749.00,0.0169
2748.00,0.0169
2747.00,0.0169
2746.00,0.0169
2745.00,0.0169
2744.00,0.0169
2743.00,0.0169
2742.00,0.0169
2741.00,0.0168
2740.00,0.0168
2739.00,0.0167
2738.00,0.0166
2737.00,0.0166
2736.00,0.0165
2735.00,0.0165
2734.00,0.0166
2733.00,0.0166
2732.00,0.0166
2731.00,0.0166
2730.00,0.0165
2729.00,0.0165
2728.00,0.0165
2727.00,0.0165
2726.00,0.0165
2725.00,0.0164
2724.00,0.0164
2723.00,0.0163
2722.00,0.0163
2721.00,0.0163
2720.00,0.0163
2719.00,0.0163
2718.00,0.0163
2717.00,0.0163
2716.00,0.0163
2715.00,0.0163
2714.00,0.0163
2713.00,0.0163
2712.00,0.0163
2711.00,0.0163
2710.00,0.0163
2709.00,0.0162
2708.00,0.0162
2707.00,0.0161
2706.00,0.0161
2705.00,0.0161
2704.00,0.0161
2703.00,0.0161
2702.00,0.0160
2701.00,0.0160
2700.00,0.0160
2699.00,0.0160
2698.00,0.0161
2697.00,0.0160
2696.00,0.0160
2695.00,0.0160
2694.00,0.0160
2693.00,0.0160
2692.00,0.0160
2691.00,0.0160
2690.00,0.0159
2689.00,0.0159
2688.00,0.0159
2687.00,0.0159
2686.00,0.0159
2685.00,0.0159
2684.00,0.0159
2683.00,0.0159
2682.00,0.0158
2681.00,0.0158
2680.00,0.0158
2679.00,0.0157
2678.00,0.0157
2677.00,0.0156
2676.00,0.0156
2675.00,0.0156
2674.00,0.0156
2673.00,0.0156
2672.00,0.0156
2671.00,0.0155
2670.00,0.0155
2669.00,0.0155
2668.00,0.0155
2667.00,0.0156
2666.00,0.0156
2665.00,0.0156
2664.00,0.0157
2663.00,0.0157
2662.00,0.0157
2661.00,0.0157
2660.00,0.0156
2659.00,0.0156
2658.00,0.0156
2657.00,0.0156
2656.00,0.0156
2655.00,0.0156
2654.00,0.0156
2653.00,0.0157
2652.00,0.0157
2651.00,0.0157
2650.00,0.0157
2649.00,0.0157
2648.00,0.0157
2647.00,0.0156
2646.00,0.0156
2645.00,0.0156
2644.00,0.0156
2643.00,0.0157
2642.00,0.0157
2641.00,0.0157
2640.00,0.0157
2639.00,0.0157
2638.00,0.0157
2637.00,0.0156
2636.00,0.0156
2635.00,0.0156
2634.00,0.0156
2633.00,0.0156
2632.00,0.0157
2631.00,0.0156
2630.00,0.0156
2629.00,0.0155
2628.00,0.0154
2627.00,0.0154
2626.00,0.0154
2625.00,0.0155
2624.00,0.0156
2623.00,0.0156
2622.00,0.0156
2621.00,0.0156
2620.00,0.0156
2619.00,0.0156
2618.00,0.0156
2617.00,0.0155
2616.00,0.0155
2615.00,0.0154
2614.00,0.0154
2613.00,0.0154
2612.00,0.0155
2611.00,0.0155
2610.00,0.0155
2609.00,0.0154
2608.00,0.0154
2607.00,0.0154
2606.00,0.0154
2605.00,0.0155
2604.00,0.0155
2603.00,0.0155
2602.00,0.0155
2601.00,0.0154
2600.00,0.0154
2599.00,0.0154
2598.00,0.0153
2597.00,0.0153
2596.00,0.0152
2595.00,0.0152
2594.00,0.0152
2593.00,0.0152
2592.00,0.0153
2591.00,0.0153
2590.00,0.0153
2589.00,0.0153
2588.00,0.0153
2587.00,0.0152
2586.00,0.0152
2585.00,0.0151
2584.00,0.0151
2583.00,0.0151
2582.00,0.0152
2581.00,0.0153
2580.00,0.0154
2579.00,0.0154
2578.00,0.0154
2577.00,0.0153
2576.00,0.0152
2575.00,0.0152
2574.00,0.0152
2573.00,0.0152
2572.00,0.0152
2571.00,0.0152
2570.00,0.0152
2569.00,0.0151
2568.00,0.0152
2567.00,0.0153
2566.00,0.0154
2565.00,0.0154
2564.00,0.0154
2563.00,0.0154
2562.00,0.0154
2561.00,0.0155
2560.00,0.0155
2559.00,0.0154
2558.00,0.0153
2557.00,0.0153
2556.00,0.0154
2555.00,0.0154
2554.00,0.0153
2553.00,0.0152
2552.00,0.0151
2551.00,0.0150
2550.00,0.0149
2549.00,0.0148
2548.00,0.0147
2547.00,0.0147
2546.00,0.0147
2545.00,0.0148
2544.00,0.0148
2543.00,0.0149
2542.00,0.0148
2541.00,0.0147
2540.00,0.0146
2539.00,0.0146
2538.00,0.0145
2537.00,0.0145
2536.00,0.0145
2535.00,0.0145
2534.00,0.0146
2533.00,0.0147
2532.00,0.0148
2531.00,0.0148
2530.00,0.0147
2529.00,0.0146
2528.00,0.0146
2527.00,0.0146
2526.00,0.0145
2525.00,0.0145
2524.00,0.0144
2523.00,0.0144
2522.00,0.0145
2521.00,0.0145
2520.00,0.0145
2519.00,0.0146
2518.00,0.0147
2517.00,0.0148
2516.00,0.0149
2515.00,0.0149
2514.00,0.0148
2513.00,0.0147
2512.00,0.0146
2511.00,0.0147
2510.00,0.0147
2509.00,0.0148
2508.00,0.0148
2507.00,0.0148
2506.00,0.0148
2505.00,0.0147
2504.00,0.0146
2503.00,0.0146
2502.00,0.0146
2501.00,0.0147
2500.00,0.0147
2499.00,0.0147
2498.00,0.0147
2497.00,0.0147
2496.00,0.0147
2495.00,0.0147
2494.00,0.0147
2493.00,0.0148
2492.00,0.0148
2491.00,0.0148
2490.00,0.0148
2489.00,0.0148
2488.00,0.0148
2487.00,0.0148
2486.00,0.0147
2485.00,0.0146
2484.00,0.0146
2483.00,0.0145
2482.00,0.0146
2481.00,0.0146
2480.00,0.0146
2479.00,0.0146
2478.00,0.0146
2477.00,0.0145
2476.00,0.0144
2475.00,0.0144
2474.00,0.0144
2473.00,0.0144
2472.00,0.0144
2471.00,0.0144
2470.00,0.0144
2469.00,0.0144
2468.00,0.0143
2467.00,0.0143
2466.00,0.0143
2465.00,0.0142
2464.00,0.0142
2463.00,0.0142
2462.00,0.0142
2461.00,0.0142
2460.00,0.0142
2459.00,0.0143
2458.00,0.0144
2457.00,0.0144
2456.00,0.0144
2455.00,0.0145
2454.00,0.0146
2453.00,0.0146
2452.00,0.0147
2451.00,0.0146
2450.00,0.0146
2449.00,0.0145
2448.00,0.0144
2447.00,0.0144
2446.00,0.0143
2445.00,0.0143
2444.00,0.0142
2443.00,0.0141
2442.00,0.0141
2441.00,0.0142
2440.00,0.0142
2439.00,0.0142
2438.00,0.0142
2437.00,0.0142
2436.00,0.0142
2435.00,0.0141
2434.00,0.0141
2433.00,0.0141
2432.00,0.0141
2431.00,0.0141
2430.00,0.0141
2429.00,0.0142
2428.00,0.0141
2427.00,0.0141
2426.00,0.0141
2425.00,0.0141
2424.00,0.0141
2423.00,0.0141
2422.00,0.0141
2421.00,0.0141
2420.00,0.0141
2419.00,0.0141
2418.00,0.0140
2417.00,0.0140
2416.00,0.0139
2415.00,0.0139
2414.00,0.0139
2413.00,0.0139
2412.00,0.0139
2411.00,0.0139
2410.00,0.0139
2409.00,0.0139
2408.00,0.0139
2407.00,0.0138
2406.00,0.0138
2405.00,0.0138
2404.00,0.0138
2403.00,0.0138
2402.00,0.0137
2401.00,0.0136
2400.00,0.0136
2399.00,0.0136
2398.00,0.0136
2397.00,0.0136
2396.00,0.0136
2395.00,0.0135
2394.00,0.0135
2393.00,0.0135
2392.00,0.0135
2391.00,0.0135
2390.00,0.0135
2389.00,0.0135
2388.00,0.0135
2387.00,0.0135
2386.00,0.0135
2385.00,0.0134
2384.00,0.0134
2383.00,0.0133
2382.00,0.0133
2381.00,0.0134
2380.00,0.0134
2379.00,0.0135
2378.00,0.0134
2377.00,0.0133
2376.00,0.0133
2375.00,0.0132
2374.00,0.0132
2373.00,0.0132
2372.00,0.0132
2371.00,0.0132
2370.00,0.0132
2369.00,0.0130
2368.00,0.0129
2367.00,0.0130
2366.00,0.0132
2365.00,0.0135
2364.00,0.0135
2363.00,0.0132
2362.00,0.0129
2361.00,0.0128
2360.00,0.0129
2359.00,0.0131
2358.00,0.0132
2357.00,0.0133
2356.00,0.0131
2355.00,0.0129
2354.00,0.0128
2353.00,0.0128
2352.00,0.0128
2351.00,0.0129
2350.00,0.0129
2349.00,0.0128
2348.00,0.0127
2347.00,0.0126
2346.00,0.0126
2345.00,0.0128
2344.00,0.0130
2343.00,0.0132
2342.00,0.0133
2341.00,0.0133
2340.00,0.0132
2339.00,0.0130
2338.00,0.0128
2337.00,0.0127
2336.00,0.0128
2335.00,0.0129
2334.00,0.0130
2333.00,0.0131
2332.00,0.0131
2331.00,0.0130
2330.00,0.0129
2329.00,0.0128
2328.00,0.0129
2327.00,0.0130
2326.00,0.0132
2325.00,0.0132
2324.00,0.0132
2323.00,0.0131
2322.00,0.0130
2321.00,0.0130
2320.00,0.0130
2319.00,0.0129
2318.00,0.0128
2317.00,0.0128
2316.00,0.0128
2315.00,0.0128
2314.00,0.0128
2313.00,0.0128
2312.00,0.0129
2311.00,0.0130
2310.00,0.0131
2309.00,0.0132
2308.00,0.0133
2307.00,0.0132
2306.00,0.0132
2305.00,0.0132
2304.00,0.0131
2303.00,0.0129
2302.00,0.0128
2301.00,0.0128
2300.00,0.0128
2299.00,0.0129
2298.00,0.0130
2297.00,0.0130
2296.00,0.0130
2295.00,0.0130
2294.00,0.0131
2293.00,0.0133
2292.00,0.0134
2291.00,0.0135
2290.00,0.0135
2289.00,0.0134
2288.00,0.0134
2287.00,0.0135
2286.00,0.0137
2285.00,0.0138
2284.00,0.0139
2283.00,0.0139
2282.00,0.0138
2281.00,0.0137
2280.00,0.0136
2279.00,0.0136
2278.00,0.0137
2277.00,0.0137
2276.00,0.0136
2275.00,0.0135
2274.00,0.0133
2273.00,0.0132
2272.00,0.0131
2271.00,0.0132
2270.00,0.0133
2269.00,0.0134
2268.00,0.0134
2267.00,0.0134
2266.00,0.0134
2265.00,0.0134
2264.00,0.0135
2263.00,0.0136
2262.00,0.0136
2261.00,0.0136
2260.00,0.0137
2259.00,0.0136
2258.00,0.0134
2257.00,0.0131
2256.00,0.0129
2255.00,0.0129
2254.00,0.0131
2253.00,0.0132
2252.00,0.0133
2251.00,0.0134
2250.00,0.0134
2249.00,0.0133
2248.00,0.0132
2247.00,0.0132
2246.00,0.0133
2245.00,0.0135
2244.00,0.0135
2243.00,0.0135
2242.00,0.0134
2241.00,0.0133
2240.00,0.0132
2239.00,0.0132
2238.00,0.0131
2237.00,0.0131
2236.00,0.0131
2235.00,0.0132
2234.00,0.0133
2233.00,0.0134
2232.00,0.0134
2231.00,0.0133
2230.00,0.0131
2229.00,0.0129
2228.00,0.0130
2227.00,0.0131
2226.00,0.0132
2225.00,0.0133
2224.00,0.0133
2223.00,0.0132
2222.00,0.0131
2221.00,0.0131
2220.00,0.0132
2219.00,0.0132
2218.00,0.0133
2217.00,0.0132
2216.00,0.0132
2215.00,0.0133
2214.00,0.0134
2213.00,0.0134
2212.00,0.0132
2211.00,0.0129
2210.00,0.0128
2209.00,0.0128
2208.00,0.0130
2207.00,0.0131
2206.00,0.0132
2205.00,0.0132
2204.00,0.0131
2203.00,0.0131
2202.00,0.0132
2201.00,0.0132
2200.00,0.0132
2199.00,0.0131
2198.00,0.0130
2197.00,0.0130
2196.00,0.0130
2195.00,0.0128
2194.00,0.0127
2193.00,0.0126
2192.00,0.0125
2191.00,0.0123
2190.00,0.0122
2189.00,0.0122
2188.00,0.0124
2187.00,0.0128
2186.00,0.0132
2185.00,0.0134
2184.00,0.0133
2183.00,0.0131
2182.00,0.0128
2181.00,0.0127
2180.00,0.0127
2179.00,0.0129
2178.00,0.0130
2177.00,0.0131
2176.00,0.0129
2175.00,0.0127
2174.00,0.0126
2173.00,0.0126
2172.00,0.0128
2171.00,0.0130
2170.00,0.0133
2169.00,0.0135
2168.00,0.0137
2167.00,0.0138
2166.00,0.0137
2165.00,0.0138
2164.00,0.0140
2163.00,0.0142
2162.00,0.0143
2161.00,0.0140
2160.00,0.0132
2159.00,0.0122
2158.00,0.0114
2157.00,0.0111
2156.00,0.0110
2155.00,0.0112
2154.00,0.0115
2153.00,0.0118
2152.00,0.0119
2151.00,0.0118
2150.00,0.0115
2149.00,0.0114
2148.00,0.0114
2147.00,0.0116
2146.00,0.0120
2145.00,0.0122
2144.00,0.0122
2143.00,0.0122
2142.00,0.0123
2141.00,0.0123
2140.00,0.0124
2139.00,0.0123
2138.00,0.0121
2137.00,0.0120
2136.00,0.0118
2135.00,0.0117
2134.00,0.0116
2133.00,0.0117
2132.00,0.0118
2131.00,0.0118
2130.00,0.0118
2129.00,0.0119
2128.00,0.0121
2127.00,0.0122
2126.00,0.0121
2125.00,0.0120
2124.00,0.0118
2123.00,0.0118
2122.00,0.0118
2121.00,0.0119
2120.00,0.0119
2119.00,0.0119
2118.00,0.0119
2117.00,0.0119
2116.00,0.0118
2115.00,0.0117
2114.00,0.0115
2113.00,0.0114
2112.00,0.0115
2111.00,0.0117
2110.00,0.0120
2109.00,0.0122
2108.00,0.0123
2107.00,0.0123
2106.00,0.0123
2105.00,0.0122
2104.00,0.0121
2103.00,0.0121
2102.00,0.0121
2101.00,0.0120
2100.00,0.0119
2099.00,0.0117
2098.00,0.0116
2097.00,0.0115
2096.00,0.0116
2095.00,0.0116
2094.00,0.0117
2093.00,0.0117
2092.00,0.0116
2091.00,0.0115
2090.00,0.0114
2089.00,0.0115
2088.00,0.0116
2087.00,0.0117
2086.00,0.0118
2085.00,0.0120
2084.00,0.0121
2083.00,0.0122
2082.00,0.0121
2081.00,0.0119
2080.00,0.0118
2079.00,0.0118
2078.00,0.0119
2077.00,0.0119
2076.00,0.0120
2075.00,0.0121
2074.00,0.0121
2073.00,0.0120
2072.00,0.0120
2071.00,0.0120
2070.00,0.0120
2069.00,0.0118
2068.00,0.0116
2067.00,0.0114
2066.00,0.0113
2065.00,0.0114
2064.00,0.0115
2063.00,0.0117
2062.00,0.0118
2061.00,0.0119
2060.00,0.0117
2059.00,0.0115
2058.00,0.0115
2057.00,0.0115
2056.00,0.0117
2055.00,0.0118
2054.00,0.0119
2053.00,0.0122
2052.00,0.0123
2051.00,0.0122
2050.00,0.0120
2049.00,0.0117
2048.00,0.0115
2047.00,0.0114
2046.00,0.0115
2045.00,0.0117
2044.00,0.0119
2043.00,0.0120
2042.00,0.0120
2041.00,0.0119
2040.00,0.0117
2039.00,0.0117
2038.00,0.0117
2037.00,0.0120
2036.00,0.0121
2035.00,0.0120
2034.00,0.0118
2033.00,0.0116
2032.00,0.0118
2031.00,0.0120
2030.00,0.0120
2029.00,0.0117
2028.00,0.0114
2027.00,0.0112
2026.00,0.0111
2025.00,0.0110
2024.00,0.0108
2023.00,0.0107
2022.00,0.0107
2021.00,0.0107
2020.00,0.0107
2019.00,0.0106
2018.00,0.0105
2017.00,0.0104
2016.00,0.0105
2015.00,0.0107
2014.00,0.0108
2013.00,0.0109
2012.00,0.0110
2011.00,0.0111
2010.00,0.0111
2009.00,0.0111
2008.00,0.0110
2007.00,0.0109
2006.00,0.0108
2005.00,0.0107
2004.00,0.0107
2003.00,0.0109
2002.00,0.0113
2001.00,0.0115
2000.00,0.0116
1999.00,0.0113
1998.00,0.0112
1997.00,0.0112
1996.00,0.0115
1995.00,0.0118
1994.00,0.0120
1993.00,0.0120
1992.00,0.0118
1991.00,0.0115
1990.00,0.0112
1989.00,0.0111
1988.00,0.0111
1987.00,0.0111
1986.00,0.0111
1985.00,0.0112
1984.00,0.0114
1983.00,0.0115
1982.00,0.0116
1981.00,0.0115
1980.00,0.0113
1979.00,0.0110
1978.00,0.0105
1977.00,0.0101
1976.00,0.0099
1975.00,0.0100
1974.00,0.0103
1973.00,0.0104
1972.00,0.0104
1971.00,0.0103
1970.00,0.0104
1969.00,0.0106
1968.00,0.0107
1967.00,0.0105
1966.00,0.0101
1965.00,0.0099
1964.00,0.0098
1963.00,0.0098
1962.00,0.0099
1961.00,0.0101
1960.00,0.0102
1959.00,0.0103
1958.00,0.0103
1957.00,0.0102
1956.00,0.0101
1955.00,0.0101
1954.00,0.0102
1953.00,0.0103
1952.00,0.0103
1951.00,0.0102
1950.00,0.0100
1949.00,0.0099
1948.00,0.0098
1947.00,0.0099
1946.00,0.0099
1945.00,0.0098
1944.00,0.0096
1943.00,0.0094
1942.00,0.0093
1941.00,0.0093
1940.00,0.0093
1939.00,0.0092
1938.00,0.0091
1937.00,0.0091
1936.00,0.0092
1935.00,0.0092
1934.00,0.0091
1933.00,0.0091
1932.00,0.0092
1931.00,0.0094
1930.00,0.0096
1929.00,0.0099
1928.00,0.0100
1927.00,0.0101
1926.00,0.0101
1925.00,0.0100
1924.00,0.0099
1923.00,0.0098
1922.00,0.0097
1921.00,0.0098
1920.00,0.0098
1919.00,0.0096
1918.00,0.0094
1917.00,0.0092
1916.00,0.0092
1915.00,0.0092
1914.00,0.0092
1913.00,0.0093
1912.00,0.0094
1911.00,0.0094
1910.00,0.0092
1909.00,0.0091
1908.00,0.0090
1907.00,0.0090
1906.00,0.0091
1905.00,0.0092
1904.00,0.0092
1903.00,0.0092
1902.00,0.0091
1901.00,0.0091
1900.00,0.0091
1899.00,0.0092
1898.00,0.0092
1897.00,0.0092
1896.00,0.0090
1895.00,0.0087
1894.00,0.0087
1893.00,0.0087
1892.00,0.0089
1891.00,0.0089
1890.00,0.0088
1889.00,0.0087
1888.00,0.0087
1887.00,0.0087
1886.00,0.0087
1885.00,0.0087
1884.00,0.0087
1883.00,0.0088
1882.00,0.0087
1881.00,0.0087
1880.00,0.0087
1879.00,0.0086
1878.00,0.0085
1877.00,0.0085
1876.00,0.0085
1875.00,0.0086
1874.00,0.0087
1873.00,0.0088
1872.00,0.0089
1871.00,0.0089
1870.00,0.0088
1869.00,0.0086
1868.00,0.0084
1867.00,0.0083
1866.00,0.0083
1865.00,0.0084
1864.00,0.0084
1863.00,0.0083
1862.00,0.0083
1861.00,0.0082
1860.00,0.0081
1859.00,0.0080
1858.00,0.0080
1857.00,0.0080
1856.00,0.0081
1855.00,0.0081
1854.00,0.0081
1853.00,0.0080
1852.00,0.0080
1851.00,0.0081
1850.00,0.0081
1849.00,0.0082
1848.00,0.0082
1847.00,0.0082
1846.00,0.0082
1845.00,0.0082
1844.00,0.0079
1843.00,0.0078
1842.00,0.0078
1841.00,0.0079
1840.00,0.0079
1839.00,0.0079
1838.00,0.0078
1837.00,0.0078
1836.00,0.0078
1835.00,0.0077
1834.00,0.0078
1833.00,0.0078
1832.00,0.0079
1831.00,0.0079
1830.00,0.0077
1829.00,0.0074
1828.00,0.0074
1827.00,0.0075
1826.00,0.0074
1825.00,0.0073
1824.00,0.0072
1823.00,0.0072
1822.00,0.0073
1821.00,0.0074
1820.00,0.0074
1819.00,0.0073
1818.00,0.0072
1817.00,0.0071
1816.00,0.0071
1815.00,0.0071
1814.00,0.0071
1813.00,0.0071
1812.00,0.0071
1811.00,0.0070
1810.00,0.0070
1809.00,0.0070
1808.00,0.0071
1807.00,0.0071
1806.00,0.0071
1805.00,0.0072
1804.00,0.0072
1803.00,0.0072
1802.00,0.0072
1801.00,0.0071
1800.00,0.0070
1799.00,0.0070
1798.00,0.0072
1797.00,0.0073
1796.00,0.0074
1795.00,0.0074
1794.00,0.0074
1793.00,0.0073
1792.00,0.0072
1791.00,0.0072
1790.00,0.0072
1789.00,0.0073
1788.00,0.0075
1787.00,0.0076
1786.00,0.0077
1785.00,0.0078
1784.00,0.0078
1783.00,0.0079
1782.00,0.0079
1781.00,0.0078
1780.00,0.0078
1779.00,0.0078
1778.00,0.0080
1777.00,0.0082
1776.00,0.0084
1775.00,0.0085
1774.00,0.0086
1773.00,0.0085
1772.00,0.0083
1771.00,0.0082
1770.00,0.0084
1769.00,0.0087
1768.00,0.0090
1767.00,0.0091
1766.00,0.0092
1765.00,0.0094
1764.00,0.0096
1763.00,0.0096
1762.00,0.0096
1761.00,0.0096
1760.00,0.0097
1759.00,0.0099
1758.00,0.0100
1757.00,0.0101
1756.00,0.0102
1755.00,0.0105
1754.00,0.0108
1753.00,0.0110
1752.00,0.0111
1751.00,0.0111
1750.00,0.0111
1749.00,0.0112
1748.00,0.0113
1747.00,0.0115
1746.00,0.0117
1745.00,0.0119
1744.00,0.0121
1743.00,0.0122
1742.00,0.0123
1741.00,0.0124
1740.00,0.0126
1739.00,0.0127
1738.00,0.0128
1737.00,0.0131
1736.00,0.0134
1735.00,0.0138
1734.00,0.0139
1733.00,0.0139
1732.00,0.0140
1731.00,0.0141
1730.00,0.0141
1729.00,0.0143
1728.00,0.0145
1727.00,0.0148
1726.00,0.0150
1725.00,0.0153
1724.00,0.0155
1723.00,0.0157
1722.00,0.0158
1721.00,0.0159
1720.00,0.0159
1719.00,0.0160
1718.00,0.0162
1717.00,0.0164
1716.00,0.0166
1715.00,0.0169
1714.00,0.0171
1713.00,0.0173
1712.00,0.0175
1711.00,0.0177
1710.00,0.0178
1709.00,0.0178
1708.00,0.0179
1707.00,0.0180
1706.00,0.0180
1705.00,0.0180
1704.00,0.0181
1703.00,0.0184
1702.00,0.0186
1701.00,0.0188
1700.00,0.0189
1699.00,0.0188
1698.00,0.0190
1697.00,0.0191
1696.00,0.0192
1695.00,0.0192
1694.00,0.0194
1693.00,0.0196
1692.00,0.0197
1691.00,0.0197
1690.00,0.0198
1689.00,0.0199
1688.00,0.0200
1687.00,0.0201
1686.00,0.0201
1685.00,0.0202
1684.00,0.0202
1683.00,0.0203
1682.00,0.0206
1681.00,0.0208
1680.00,0.0209
1679.00,0.0211
1678.00,0.0214
1677.00,0.0217
1676.00,0.0219
1675.00,0.0221
1674.00,0.0222
1673.00,0.0223
1672.00,0.0223
1671.00,0.0225
1670.00,0.0227
1669.00,0.0228
1668.00,0.0229
1667.00,0.0231
1666.00,0.0233
1665.00,0.0234
1664.00,0.0236
1663.00,0.0238
1662.00,0.0239
1661.00,0.0242
1660.00,0.0245
1659.00,0.0248
1658.00,0.0250
1657.00,0.0250
1656.00,0.0249
1655.00,0.0248
1654.00,0.0250
1653.00,0.0253
1652.00,0.0255
1651.00,0.0259
1650.00,0.0260
1649.00,0.0260
1648.00,0.0261
1647.00,0.0264
1646.00,0.0267
1645.00,0.0270
1644.00,0.0273
1643.00,0.0275
1642.00,0.0275
1641.00,0.0276
1640.00,0.0276
1639.00,0.0276
1638.00,0.0277
1637.00,0.0279
1636.00,0.0283
1635.00,0.0285
1634.00,0.0286
1633.00,0.0287
1632.00,0.0288
1631.00,0.0288
1630.00,0.0290
1629.00,0.0292
1628.00,0.0293
1627.00,0.0295
1626.00,0.0297
1625.00,0.0300
1624.00,0.0302
1623.00,0.0304
1622.00,0.0305
1621.00,0.0306
1620.00,0.0307
1619.00,0.0308
1618.00,0.0310
1617.00,0.0312
1616.00,0.0314
1615.00,0.0316
1614.00,0.0317
1613.00,0.0318
1612.00,0.0319
1611.00,0.0320
1610.00,0.0322
1609.00,0.0323
1608.00,0.0324
1607.00,0.0326
1606.00,0.0329
1605.00,0.0331
1604.00,0.0332
1603.00,0.0333
1602.00,0.0334
1601.00,0.0334
1600.00,0.0335
1599.00,0.0336
1598.00,0.0338
1597.00,0.0340
1596.00,0.0342
1595.00,0.0344
1594.00,0.0346
1593.00,0.0347
1592.00,0.0348
1591.00,0.0348
1590.00,0.0349
1589.00,0.0350
1588.00,0.0352
1587.00,0.0354
1586.00,0.0356
1585.00,0.0357
1584.00,0.0358
1583.00,0.0359
1582.00,0.0360
1581.00,0.0360
1580.00,0.0359
1579.00,0.0360
1578.00,0.0361
1577.00,0.0365
1576.00,0.0367
1575.00,0.0367
1574.00,0.0366
1573.00,0.0364
1572.00,0.0364
1571.00,0.0365
1570.00,0.0367
1569.00,0.0368
1568.00,0.0368
1567.00,0.0369
1566.00,0.0368
1565.00,0.0367
1564.00,0.0365
1563.00,0.0363
1562.00,0.0361
1561.00,0.0359
1560.00,0.0362
1559.00,0.0367
1558.00,0.0366
1557.00,0.0365
1556.00,0.0366
1555.00,0.0366
1554.00,0.0366
1553.00,0.0366
1552.00,0.0366
1551.00,0.0364
1550.00,0.0362
1549.00,0.0359
1548.00,0.0357
1547.00,0.0355
1546.00,0.0354
1545.00,0.0353
1544.00,0.0351
1543.00,0.0348
1542.00,0.0346
1541.00,0.0346
1540.00,0.0344
1539.00,0.0341
1538.00,0.0341
1537.00,0.0339
1536.00,0.0337
1535.00,0.0334
1534.00,0.0332
1533.00,0.0329
1532.00,0.0326
1531.00,0.0323
1530.00,0.0321
1529.00,0.0319
1528.00,0.0316
1527.00,0.0313
1526.00,0.0310
1525.00,0.0306
1524.00,0.0304
1523.00,0.0301
1522.00,0.0300
1521.00,0.0299
1520.00,0.0298
1519.00,0.0297
1518.00,0.0295
1517.00,0.0293
1516.00,0.0290
1515.00,0.0289
1514.00,0.0288
1513.00,0.0287
1512.00,0.0286
1511.00,0.0283
1510.00,0.0281
1509.00,0.0278
1508.00,0.0277
1507.00,0.0275
1506.00,0.0271
1505.00,0.0271
1504.00,0.0272
1503.00,0.0271
1502.00,0.0269
1501.00,0.0267
1500.00,0.0266
1499.00,0.0265
1498.00,0.0265
1497.00,0.0266
1496.00,0.0266
1495.00,0.0264
1494.00,0.0262
1493.00,0.0260
1492.00,0.0259
1491.00,0.0259
1490.00,0.0260
1489.00,0.0259
1488.00,0.0257
1487.00,0.0256
1486.00,0.0256
1485.00,0.0256
1484.00,0.0255
1483.00,0.0255
1482.00,0.0255
1481.00,0.0255
1480.00,0.0254
1479.00,0.0254
1478.00,0.0253
1477.00,0.0253
1476.00,0.0253
1475.00,0.0254
1474.00,0.0255
1473.00,0.0258
1472.00,0.0260
1471.00,0.0262
1470.00,0.0264
1469.00,0.0266
1468.00,0.0268
1467.00,0.0268
1466.00,0.0269
1465.00,0.0269
1464.00,0.0269
1463.00,0.0268
1462.00,0.0268
1461.00,0.0266
1460.00,0.0266
1459.00,0.0267
1458.00,0.0271
1457.00,0.0275
1456.00,0.0276
1455.00,0.0276
1454.00,0.0275
1453.00,0.0274
1452.00,0.0275
1451.00,0.0276
1450.00,0.0277
1449.00,0.0279
1448.00,0.0280
1447.00,0.0281
1446.00,0.0281
1445.00,0.0281
1444.00,0.0282
1443.00,0.0282
1442.00,0.0282
1441.00,0.0282
1440.00,0.0283
1439.00,0.0285
1438.00,0.0287
1437.00,0.0291
1436.00,0.0293
1435.00,0.0292
1434.00,0.0291
1433.00,0.0291
1432.00,0.0291
1431.00,0.0291
1430.00,0.0291
1429.00,0.0292
1428.00,0.0293
1427.00,0.0294
1426.00,0.0295
1425.00,0.0295
1424.00,0.0296
1423.00,0.0297
1422.00,0.0297
1421.00,0.0299
1420.00,0.0302
1419.00,0.0305
1418.00,0.0306
1417.00,0.0307
1416.00,0.0308
1415.00,0.0308
1414.00,0.0308
1413.00,0.0307
1412.00,0.0308
1411.00,0.0308
1410.00,0.0309
1409.00,0.0310
1408.00,0.0310
1407.00,0.0311
1406.00,0.0312
1405.00,0.0312
1404.00,0.0312
1403.00,0.0312
1402.00,0.0311
1401.00,0.0311
1400.00,0.0312
1399.00,0.0314
1398.00,0.0315
1397.00,0.0316
1396.00,0.0317
1395.00,0.0318
1394.00,0.0319
1393.00,0.0319
1392.00,0.0320
1391.00,0.0320
1390.00,0.0321
1389.00,0.0322
1388.00,0.0324
1387.00,0.0325
1386.00,0.0325
1385.00,0.0324
1384.00,0.0324
1383.00,0.0324
1382.00,0.0325
1381.00,0.0326
1380.00,0.0328
1379.00,0.0329
1378.00,0.0329
1377.00,0.0330
1376.00,0.0330
1375.00,0.0331
1374.00,0.0331
1373.00,0.0331
1372.00,0.0332
1371.00,0.0332
1370.00,0.0332
1369.00,0.0332
1368.00,0.0332
1367.00,0.0331
1366.00,0.0331
1365.00,0.0330
1364.00,0.0330
1363.00,0.0331
1362.00,0.0331
1361.00,0.0331
1360.00,0.0331
1359.00,0.0330
1358.00,0.0330
1357.00,0.0330
1356.00,0.0330
1355.00,0.0330
1354.00,0.0330
1353.00,0.0329
1352.00,0.0327
1351.00,0.0326
1350.00,0.0325
1349.00,0.0324
1348.00,0.0324
1347.00,0.0323
1346.00,0.0323
1345.00,0.0322
1344.00,0.0320
1343.00,0.0319
1342.00,0.0319
1341.00,0.0319
1340.00,0.0320
1339.00,0.0320
1338.00,0.0319
1337.00,0.0318
1336.00,0.0318
1335.00,0.0317
1334.00,0.0316
1333.00,0.0316
1332.00,0.0315
1331.00,0.0314
1330.00,0.0314
1329.00,0.0313
1328.00,0.0313
1327.00,0.0312
1326.00,0.0311
1325.00,0.0311
1324.00,0.0311
1323.00,0.0311
1322.00,0.0312
1321.00,0.0312
1320.00,0.0312
1319.00,0.0311
1318.00,0.0309
1317.00,0.0308
1316.00,0.0306
1315.00,0.0306
1314.00,0.0306
1313.00,0.0307
1312.00,0.0308
1311.00,0.0309
1310.00,0.0309
1309.00,0.0309
1308.00,0.0308
1307.00,0.0308
1306.00,0.0307
1305.00,0.0307
1304.00,0.0307
1303.00,0.0308
1302.00,0.0308
1301.00,0.0308
1300.00,0.0308
1299.00,0.0307
1298.00,0.0306
1297.00,0.0305
1296.00,0.0305
1295.00,0.0305
1294.00,0.0305
1293.00,0.0306
1292.00,0.0307
1291.00,0.0308
1290.00,0.0308
1289.00,0.0308
1288.00,0.0308
1287.00,0.0308
1286.00,0.0308
1285.00,0.0308
1284.00,0.0309
1283.00,0.0311
1282.00,0.0312
1281.00,0.0312
1280.00,0.0311
1279.00,0.0310
1278.00,0.0310
1277.00,0.0309
1276.00,0.0310
1275.00,0.0310
1274.00,0.0311
1273.00,0.0311
1272.00,0.0312
1271.00,0.0313
1270.00,0.0314
1269.00,0.0315
1268.00,0.0316
1267.00,0.0317
1266.00,0.0318
1265.00,0.0319
1264.00,0.0319
1263.00,0.0319
1262.00,0.0320
1261.00,0.0320
1260.00,0.0322
1259.00,0.0323
1258.00,0.0325
1257.00,0.0326
1256.00,0.0327
1255.00,0.0327
1254.00,0.0329
1253.00,0.0331
1252.00,0.0333
1251.00,0.0335
1250.00,0.0335
1249.00,0.0336
1248.00,0.0338
1247.00,0.0339
1246.00,0.0341
1245.00,0.0343
1244.00,0.0345
1243.00,0.0346
1242.00,0.0347
1241.00,0.0347
1240.00,0.0348
1239.00,0.0349
1238.00,0.0351
1237.00,0.0353
1236.00,0.0355
1235.00,0.0356
1234.00,0.0357
1233.00,0.0358
1232.00,0.0359
1231.00,0.0359
1230.00,0.0360
1229.00,0.0361
1228.00,0.0363
1227.00,0.0364
1226.00,0.0365
1225.00,0.0366
1224.00,0.0366
1223.00,0.0366
1222.00,0.0367
1221.00,0.0368
1220.00,0.0369
1219.00,0.0370
1218.00,0.0370
1217.00,0.0371
1216.00,0.0372
1215.00,0.0373
1214.00,0.0374
1213.00,0.0374
1212.00,0.0376
1211.00,0.0377
1210.00,0.0378
1209.00,0.0380
1208.00,0.0380
1207.00,0.0381
1206.00,0.0381
1205.00,0.0381
1204.00,0.0382
1203.00,0.0382
1202.00,0.0383
1201.00,0.0384
1200.00,0.0385
1199.00,0.0387
1198.00,0.0388
1197.00,0.0389
1196.00,0.0389
1195.00,0.0390
1194.00,0.0390
1193.00,0.0391
1192.00,0.0391
1191.00,0.0392
1190.00,0.0392
1189.00,0.0392
1188.00,0.0393
1187.00,0.0394
1186.00,0.0395
1185.00,0.0396
1184.00,0.0397
1183.00,0.0398
1182.00,0.0398
1181.00,0.0398
1180.00,0.0399
1179.00,0.0400
1178.00,0.0402
1177.00,0.0403
1176.00,0.0405
1175.00,0.0407
1174.00,0.0410
1173.00,0.0412
1172.00,0.0413
1171.00,0.0414
1170.00,0.0414
1169.00,0.0415
1168.00,0.0416
1167.00,0.0419
1166.00,0.0421
1165.00,0.0422
1164.00,0.0424
1163.00,0.0425
1162.00,0.0425
1161.00,0.0426
1160.00,0.0426
1159.00,0.0426
1158.00,0.0426
1157.00,0.0426
1156.00,0.0427
1155.00,0.0429
1154.00,0.0430
1153.00,0.0432
1152.00,0.0433
1151.00,0.0433
1150.00,0.0433
1149.00,0.0433
1148.00,0.0434
1147.00,0.0435
1146.00,0.0437
1145.00,0.0439
1144.00,0.0442
1143.00,0.0445
1142.00,0.0448
1141.00,0.0450
1140.00,0.0452
1139.00,0.0453
1138.00,0.0455
1137.00,0.0457
1136.00,0.0458
1135.00,0.0461
1134.00,0.0464
1133.00,0.0467
1132.00,0.0470
1131.00,0.0473
1130.00,0.0476
1129.00,0.0480
1128.00,0.0484
1127.00,0.0487
1126.00,0.0488
1125.00,0.0489
1124.00,0.0492
1123.00,0.0497
1122.00,0.0504
1121.00,0.0512
1120.00,0.0519
1119.00,0.0523
1118.00,0.0527
1117.00,0.0530
1116.00,0.0534
1115.00,0.0538
1114.00,0.0542
1113.00,0.0544
1112.00,0.0546
1111.00,0.0549
1110.00,0.0554
1109.00,0.0558
1108.00,0.0562
1107.00,0.0565
1106.00,0.0567
1105.00,0.0569
1104.00,0.0573
1103.00,0.0578
1102.00,0.0583
1101.00,0.0588
1100.00,0.0592
1099.00,0.0596
1098.00,0.0599
1097.00,0.0602
1096.00,0.0604
1095.00,0.0605
1094.00,0.0607
1093.00,0.0610
1092.00,0.0614
1091.00,0.0617
1090.00,0.0619
1089.00,0.0619
1088.00,0.0619
1087.00,0.0620
1086.00,0.0622
1085.00,0.0625
1084.00,0.0627
1083.00,0.0629
1082.00,0.0631
1081.00,0.0633
1080.00,0.0635
1079.00,0.0638
1078.00,0.0641
1077.00,0.0643
1076.00,0.0643
1075.00,0.0641
1074.00,0.0639
1073.00,0.0638
1072.00,0.0638
1071.00,0.0639
1070.00,0.0638
1069.00,0.0638
1068.00,0.0638
1067.00,0.0640
1066.00,0.0642
1065.00,0.0645
1064.00,0.0648
1063.00,0.0651
1062.00,0.0651
1061.00,0.0650
1060.00,0.0649
1059.00,0.0650
1058.00,0.0652
1057.00,0.0656
1056.00,0.0659
1055.00,0.0661
1054.00,0.0662
1053.00,0.0663
1052.00,0.0664
1051.00,0.0665
1050.00,0.0665
1049.00,0.0668
1048.00,0.0671
1047.00,0.0674
1046.00,0.0676
1045.00,0.0678
1044.00,0.0680
1043.00,0.0681
1042.00,0.0680
1041.00,0.0679
1040.00,0.0679
1039.00,0.0680
1038.00,0.0683
1037.00,0.0686
1036.00,0.0688
1035.00,0.0688
1034.00,0.0688
1033.00,0.0688
1032.00,0.0688
1031.00,0.0686
1030.00,0.0683
1029.00,0.0680
1028.00,0.0677
1027.00,0.0673
1026.00,0.0670
1025.00,0.0667
1024.00,0.0664
1023.00,0.0659
1022.00,0.0654
1021.00,0.0649
1020.00,0.0645
1019.00,0.0641
1018.00,0.0638
1017.00,0.0636
1016.00,0.0636
1015.00,0.0636
1014.00,0.0637
1013.00,0.0636
1012.00,0.0634
1011.00,0.0632
1010.00,0.0630
1009.00,0.0628
1008.00,0.0626
1007.00,0.0624
1006.00,0.0622
1005.00,0.0621
1004.00,0.0620
1003.00,0.0617
1002.00,0.0614
1001.00,0.0608
1000.00,0.0602
999.00,0.0594
998.00,0.0587
997.00,0.0583
996.00,0.0581
995.00,0.0578
994.00,0.0573
993.00,0.0567
992.00,0.0560
991.00,0.0553
990.00,0.0547
989.00,0.0541
988.00,0.0537
987.00,0.0534
986.00,0.0530
985.00,0.0527
984.00,0.0522
983.00,0.0517
982.00,0.0512
981.00,0.0508
980.00,0.0505
979.00,0.0502
978.00,0.0497
977.00,0.0492
976.00,0.0487
975.00,0.0483
974.00,0.0480
973.00,0.0478
972.00,0.0476
971.00,0.0472
970.00,0.0468
969.00,0.0463
968.00,0.0459
967.00,0.0456
966.00,0.0453
965.00,0.0450
964.00,0.0447
963.00,0.0445
962.00,0.0444
961.00,0.0442
960.00,0.0440
959.00,0.0437
958.00,0.0434
957.00,0.0432
956.00,0.0430
955.00,0.0428
954.00,0.0427
953.00,0.0426
952.00,0.0426
951.00,0.0426
950.00,0.0425
949.00,0.0424
948.00,0.0422
947.00,0.0419
946.00,0.0418
945.00,0.0417
944.00,0.0417
943.00,0.0417
942.00,0.0417
941.00,0.0417
940.00,0.0418
939.00,0.0418
938.00,0.0418
937.00,0.0416
936.00,0.0413
935.00,0.0410
934.00,0.0409
933.00,0.0409
932.00,0.0411
931.00,0.0413
930.00,0.0414
929.00,0.0414
928.00,0.0413
927.00,0.0412
926.00,0.0412
925.00,0.0411
924.00,0.0412
923.00,0.0412
922.00,0.0413
921.00,0.0413
920.00,0.0413
919.00,0.0414
918.00,0.0415
917.00,0.0417
916.00,0.0420
915.00,0.0422
914.00,0.0424
913.00,0.0424
912.00,0.0424
911.00,0.0422
910.00,0.0420
909.00,0.0415
908.00,0.0409
907.00,0.0405
906.00,0.0402
905.00,0.0402
904.00,0.0403
903.00,0.0405
902.00,0.0406
901.00,0.0404
900.00,0.0400
899.00,0.0397
898.00,0.0395
897.00,0.0395
896.00,0.0394
895.00,0.0392
894.00,0.0389
893.00,0.0386
892.00,0.0384
891.00,0.0382
890.00,0.0382
889.00,0.0382
888.00,0.0381
887.00,0.0378
886.00,0.0374
885.00,0.0370
884.00,0.0369
883.00,0.0370
882.00,0.0371
881.00,0.0370
880.00,0.0368
879.00,0.0365
878.00,0.0362
877.00,0.0358
876.00,0.0355
875.00,0.0354
874.00,0.0352
873.00,0.0351
872.00,0.0350
871.00,0.0350
870.00,0.0351
869.00,0.0351
868.00,0.0350
867.00,0.0348
866.00,0.0347
865.00,0.0347
864.00,0.0348
863.00,0.0349
862.00,0.0349
861.00,0.0350
860.00,0.0349
859.00,0.0348
858.00,0.0346
857.00,0.0344
856.00,0.0345
855.00,0.0347
854.00,0.0349
853.00,0.0350
852.00,0.0350
851.00,0.0349
850.00,0.0349
849.00,0.0350
848.00,0.0352
847.00,0.0354
846.00,0.0356
845.00,0.0358
844.00,0.0360
843.00,0.0360
842.00,0.0360
841.00,0.0360
840.00,0.0361
839.00,0.0362
838.00,0.0363
837.00,0.0365
836.00,0.0367
835.00,0.0368
834.00,0.0369
833.00,0.0369
832.00,0.0370
831.00,0.0370
830.00,0.0371
829.00,0.0372
828.00,0.0375
827.00,0.0379
826.00,0.0384
825.00,0.0389
824.00,0.0393
823.00,0.0396
822.00,0.0398
821.00,0.0399
820.00,0.0400
819.00,0.0402
818.00,0.0403
817.00,0.0403
816.00,0.0403
815.00,0.0405
814.00,0.0408
813.00,0.0413
812.00,0.0417
811.00,0.0420
810.00,0.0421
809.00,0.0424
808.00,0.0427
807.00,0.0431
806.00,0.0436
805.00,0.0440
804.00,0.0446
803.00,0.0452
802.00,0.0458
801.00,0.0463
800.00,0.0469
799.00,0.0473
798.00,0.0475
797.00,0.0475
796.00,0.0474
795.00,0.0472
794.00,0.0470
793.00,0.0468
792.00,0.0468
791.00,0.0469
790.00,0.0470
789.00,0.0470
788.00,0.0470
787.00,0.0469
786.00,0.0471
785.00,0.0473
784.00,0.0475
783.00,0.0477
782.00,0.0477
781.00,0.0477
780.00,0.0477
779.00,0.0476
778.00,0.0476
777.00,0.0476
776.00,0.0477
775.00,0.0475
774.00,0.0471
773.00,0.0466
772.00,0.0462
771.00,0.0460
770.00,0.0459
769.00,0.0458
768.00,0.0456
767.00,0.0453
766.00,0.0450
765.00,0.0449
764.00,0.0449
763.00,0.0448
762.00,0.0447
761.00,0.0444
760.00,0.0443
759.00,0.0444
758.00,0.0447
757.00,0.0450
756.00,0.0452
755.00,0.0452
754.00,0.0453
753.00,0.0453
752.00,0.0455
751.00,0.0458
750.00,0.0459
749.00,0.0460
748.00,0.0460
747.00,0.0460
746.00,0.0460
745.00,0.0459
744.00,0.0457
743.00,0.0455
742.00,0.0454
741.00,0.0453
740.00,0.0451
739.00,0.0448
738.00,0.0447
737.00,0.0446
736.00,0.0445
735.00,0.0445
734.00,0.0444
733.00,0.0444
732.00,0.0446
731.00,0.0449
730.00,0.0453
729.00,0.0456
728.00,0.0458
727.00,0.0461
726.00,0.0464
725.00,0.0466
724.00,0.0467
723.00,0.0466
722.00,0.0465
721.00,0.0465
720.00,0.0466
719.00,0.0466
718.00,0.0465
717.00,0.0463
716.00,0.0461
715.00,0.0460
714.00,0.0460
713.00,0.0464
712.00,0.0468
711.00,0.0470
710.00,0.0470
709.00,0.0469
708.00,0.0469
707.00,0.0471
706.00,0.0474
705.00,0.0478
704.00,0.0482
703.00,0.0486
702.00,0.0487
701.00,0.0488
700.00,0.0490
699.00,0.0493
698.00,0.0497
697.00,0.0501
696.00,0.0505
695.00,0.0509
694.00,0.0511
693.00,0.0512
692.00,0.0513
691.00,0.0513
690.00,0.0513
689.00,0.0514
688.00,0.0513
687.00,0.0510
686.00,0.0507
685.00,0.0505
684.00,0.0504
683.00,0.0501
682.00,0.0498
681.00,0.0497
680.00,0.0500
679.00,0.0503
678.00,0.0505
677.00,0.0505
676.00,0.0504
675.00,0.0502
674.00,0.0499
673.00,0.0497
672.00,0.0497
671.00,0.0499
670.00,0.0501
669.00,0.0503
668.00,0.0508
667.00,0.0514
666.00,0.0518
665.00,0.0521
664.00,0.0522
663.00,0.0522
662.00,0.0518
661.00,0.0512
660.00,0.0507
659.00,0.0505
658.00,0.0509
657.00,0.0518
656.00,0.0528
655.00,0.0534
654.00,0.0534
653.00,0.0529
652.00,0.0524
651.00,0.0523
650.00,0.0526
