Created as New Dataset,Monday, April 03 2023
cm-1,A
4000.00,0.0168
3999.00,0.0168
3998.00,0.0168
3997.00,0.0168
3996.00,0.0167
3995.00,0.0167
3994.00,0.0166
3993.00,0.0166
3992.00,0.0166
3991.00,0.0166
3990.00,0.0166
3989.00,0.0166
3988.00,0.0166
3987.00,0.0166
3986.00,0.0166
3985.00,0.0166
3984.00,0.0166
3983.00,0.0166
3982.00,0.0166
3981.00,0.0166
3980.00,0.0166
3979.00,0.0165
3978.00,0.0165
3977.00,0.0165
3976.00,0.0165
3975.00,0.0164
3974.00,0.0164
3973.00,0.0164
3972.00,0.0165
3971.00,0.0165
3970.00,0.0166
3969.00,0.0166
3968.00,0.0165
3967.00,0.0164
3966.00,0.0164
3965.00,0.0163
3964.00,0.0164
3963.00,0.0165
3962.00,0.0166
3961.00,0.0166
3960.00,0.0165
3959.00,0.0164
3958.00,0.0164
3957.00,0.0164
3956.00,0.0164
3955.00,0.0163
3954.00,0.0162
3953.00,0.0162
3952.00,0.0162
3951.00,0.0162
3950.00,0.0163
3949.00,0.0164
3948.00,0.0165
3947.00,0.0164
3946.00,0.0163
3945.00,0.0162
3944.00,0.0162
3943.00,0.0161
3942.00,0.0161
3941.00,0.0161
3940.00,0.0161
3939.00,0.0162
3938.00,0.0162
3937.00,0.0162
3936.00,0.0162
3935.00,0.0161
3934.00,0.0160
3933.00,0.0161
3932.00,0.0161
3931.00,0.0161
3930.00,0.0160
3929.00,0.0160
3928.00,0.0160
3927.00,0.0161
3926.00,0.0162
3925.00,0.0162
3924.00,0.0162
3923.00,0.0161
3922.00,0.0160
3921.00,0.0159
3920.00,0.0159
3919.00,0.0159
3918.00,0.0159
3917.00,0.0160
3916.00,0.0160
3915.00,0.0160
3914.00,0.0160
3913.00,0.0161
3912.00,0.0162
3911.00,0.0161
3910.00,0.0160
3909.00,0.0158
3908.00,0.0156
3907.00,0.0154
3906.00,0.0152
3905.00,0.0151
3904.00,0.0150
3903.00,0.0149
3902.00,0.0148
3901.00,0.0150
3900.00,0.0152
3899.00,0.0153
3898.00,0.0154
3897.00,0.0154
3896.00,0.0155
3895.00,0.0155
3894.00,0.0156
3893.00,0.0156
3892.00,0.0157
3891.00,0.0155
3890.00,0.0152
3889.00,0.0150
3888.00,0.0149
3887.00,0.0151
3886.00,0.0152
3885.00,0.0152
3884.00,0.0150
3883.00,0.0149
3882.00,0.0150
3881.00,0.0152
3880.00,0.0153
3879.00,0.0151
3878.00,0.0151
3877.00,0.0152
3876.00,0.0154
3875.00,0.0155
3874.00,0.0152
3873.00,0.0149
3872.00,0.0147
3871.00,0.0149
3870.00,0.0151
3869.00,0.0150
3868.00,0.0148
3867.00,0.0147
3866.00,0.0149
3865.00,0.0152
3864.00,0.0153
3863.00,0.0154
3862.00,0.0154
3861.00,0.0154
3860.00,0.0154
3859.00,0.0153
3858.00,0.0148
3857.00,0.0142
3856.00,0.0135
3855.00,0.0133
3854.00,0.0138
3853.00,0.0141
3852.00,0.0140
3851.00,0.0142
3850.00,0.0149
3849.00,0.0154
3848.00,0.0156
3847.00,0.0156
3846.00,0.0155
3845.00,0.0154
3844.00,0.0152
3843.00,0.0149
3842.00,0.0147
3841.00,0.0145
3840.00,0.0145
3839.00,0.0146
3838.00,0.0147
3837.00,0.0147
3836.00,0.0147
3835.00,0.0148
3834.00,0.0150
3833.00,0.0151
3832.00,0.0152
3831.00,0.0153
3830.00,0.0153
3829.00,0.0153
3828.00,0.0154
3827.00,0.0155
3826.00,0.0153
3825.00,0.0150
3824.00,0.0148
3823.00,0.0148
3822.00,0.0150
3821.00,0.0149
3820.00,0.0145
3819.00,0.0142
3818.00,0.0143
3817.00,0.0147
3816.00,0.0152
3815.00,0.0154
3814.00,0.0155
3813.00,0.0156
3812.00,0.0157
3811.00,0.0155
3810.00,0.0152
3809.00,0.0150
3808.00,0.0150
3807.00,0.0151
3806.00,0.0149
3805.00,0.0147
3804.00,0.0147
3803.00,0.0149
3802.00,0.0153
3801.00,0.0153
3800.00,0.0151
3799.00,0.0150
3798.00,0.0152
3797.00,0.0154
3796.00,0.0155
3795.00,0.0155
3794.00,0.0154
3793.00,0.0155
3792.00,0.0156
3791.00,0.0157
3790.00,0.0158
3789.00,0.0157
3788.00,0.0158
3787.00,0.0158
3786.00,0.0159
3785.00,0.0159
3784.00,0.0158
3783.00,0.0156
3782.00,0.0155
3781.00,0.0155
3780.00,0.0155
3779.00,0.0155
3778.00,0.0154
3777.00,0.0154
3776.00,0.0155
3775.00,0.0155
3774.00,0.0154
3773.00,0.0153
3772.00,0.0152
3771.00,0.0152
3770.00,0.0152
3769.00,0.0150
3768.00,0.0149
3767.00,0.0149
3766.00,0.0152
3765.00,0.0153
3764.00,0.0153
3763.00,0.0152
3762.00,0.0152
3761.00,0.0152
3760.00,0.0152
3759.00,0.0152
3758.00,0.0150
3757.00,0.0148
3756.00,0.0145
3755.00,0.0142
3754.00,0.0139
3753.00,0.0137
3752.00,0.0139
3751.00,0.0141
3750.00,0.0142
3749.00,0.0140
3748.00,0.0138
3747.00,0.0138
3746.00,0.0140
3745.00,0.0142
3744.00,0.0142
3743.00,0.0139
3742.00,0.0140
3741.00,0.0144
3740.00,0.0148
3739.00,0.0148
3738.00,0.0146
3737.00,0.0146
3736.00,0.0146
3735.00,0.0145
3734.00,0.0143
3733.00,0.0142
3732.00,0.0143
3731.00,0.0144
3730.00,0.0146
3729.00,0.0148
3728.00,0.0149
3727.00,0.0151
3726.00,0.0151
3725.00,0.0150
3724.00,0.0149
3723.00,0.0149
3722.00,0.0150
3721.00,0.0151
3720.00,0.0152
3719.00,0.0152
3718.00,0.0152
3717.00,0.0151
3716.00,0.0149
3715.00,0.0147
3714.00,0.0146
3713.00,0.0147
3712.00,0.0148
3711.00,0.0148
3710.00,0.0147
3709.00,0.0147
3708.00,0.0148
3707.00,0.0151
3706.00,0.0153
3705.00,0.0154
3704.00,0.0154
3703.00,0.0154
3702.00,0.0154
3701.00,0.0153
3700.00,0.0153
3699.00,0.0153
3698.00,0.0155
3697.00,0.0156
3696.00,0.0155
3695.00,0.0153
3694.00,0.0150
3693.00,0.0148
3692.00,0.0146
3691.00,0.0147
3690.00,0.0149
3689.00,0.0151
3688.00,0.0151
3687.00,0.0150
3686.00,0.0152
3685.00,0.0155
3684.00,0.0157
3683.00,0.0156
3682.00,0.0155
3681.00,0.0152
3680.00,0.0147
3679.00,0.0142
3678.00,0.0137
3677.00,0.0137
3676.00,0.0139
3675.00,0.0138
3674.00,0.0135
3673.00,0.0133
3672.00,0.0136
3671.00,0.0143
3670.00,0.0148
3669.00,0.0150
3668.00,0.0150
3667.00,0.0150
3666.00,0.0153
3665.00,0.0155
3664.00,0.0157
3663.00,0.0158
3662.00,0.0158
3661.00,0.0158
3660.00,0.0157
3659.00,0.0156
3658.00,0.0157
3657.00,0.0158
3656.00,0.0157
3655.00,0.0154
3654.00,0.0151
3653.00,0.0148
3652.00,0.0146
3651.00,0.0145
3650.00,0.0146
3649.00,0.0148
3648.00,0.0148
3647.00,0.0149
3646.00,0.0151
3645.00,0.0155
3644.00,0.0160
3643.00,0.0164
3642.00,0.0166
3641.00,0.0167
3640.00,0.0167
3639.00,0.0167
3638.00,0.0167
3637.00,0.0166
3636.00,0.0166
3635.00,0.0166
3634.00,0.0165
3633.00,0.0162
3632.00,0.0158
3631.00,0.0156
3630.00,0.0158
3629.00,0.0162
3628.00,0.0163
3627.00,0.0162
3626.00,0.0163
3625.00,0.0167
3624.00,0.0168
3623.00,0.0167
3622.00,0.0166
3621.00,0.0166
3620.00,0.0167
3619.00,0.0168
3618.00,0.0167
3617.00,0.0167
3616.00,0.0167
3615.00,0.0169
3614.00,0.0171
3613.00,0.0171
3612.00,0.0170
3611.00,0.0169
3610.00,0.0170
3609.00,0.0173
3608.00,0.0176
3607.00,0.0177
3606.00,0.0176
3605.00,0.0176
3604.00,0.0176
3603.00,0.0178
3602.00,0.0180
3601.00,0.0181
3600.00,0.0182
3599.00,0.0181
3598.00,0.0179
3597.00,0.0178
3596.00,0.0178
3595.00,0.0179
3594.00,0.0180
3593.00,0.0179
3592.00,0.0177
3591.00,0.0175
3590.00,0.0173
3589.00,0.0174
3588.00,0.0177
3587.00,0.0179
3586.00,0.0180
3585.00,0.0180
3584.00,0.0182
3583.00,0.0183
3582.00,0.0185
3581.00,0.0185
3580.00,0.0186
3579.00,0.0186
3578.00,0.0186
3577.00,0.0187
3576.00,0.0187
3575.00,0.0188
3574.00,0.0188
3573.00,0.0187
3572.00,0.0185
3571.00,0.0183
3570.00,0.0180
3569.00,0.0180
3568.00,0.0183
3567.00,0.0186
3566.00,0.0186
3565.00,0.0185
3564.00,0.0185
3563.00,0.0186
3562.00,0.0188
3561.00,0.0190
3560.00,0.0191
3559.00,0.0192
3558.00,0.0192
3557.00,0.0192
3556.00,0.0192
3555.00,0.0193
3554.00,0.0193
3553.00,0.0194
3552.00,0.0194
3551.00,0.0194
3550.00,0.0194
3549.00,0.0193
3548.00,0.0194
3547.00,0.0195
3546.00,0.0196
3545.00,0.0197
3544.00,0.0198
3543.00,0.0198
3542.00,0.0198
3541.00,0.0197
3540.00,0.0197
3539.00,0.0196
3538.00,0.0195
3537.00,0.0195
3536.00,0.0196
3535.00,0.0197
3534.00,0.0197
3533.00,0.0198
3532.00,0.0199
3531.00,0.0199
3530.00,0.0198
3529.00,0.0197
3528.00,0.0197
3527.00,0.0197
3526.00,0.0197
3525.00,0.0199
3524.00,0.0201
3523.00,0.0203
3522.00,0.0203
3521.00,0.0202
3520.00,0.0201
3519.00,0.0200
3518.00,0.0199
3517.00,0.0199
3516.00,0.0199
3515.00,0.0200
3514.00,0.0201
3513.00,0.0202
3512.00,0.0203
3511.00,0.0203
3510.00,0.0203
3509.00,0.0203
3508.00,0.0202
3507.00,0.0202
3506.00,0.0202
3505.00,0.0203
3504.00,0.0205
3503.00,0.0206
3502.00,0.0206
3501.00,0.0206
3500.00,0.0206
3499.00,0.0206
3498.00,0.0207
3497.00,0.0208
3496.00,0.0208
3495.00,0.0208
3494.00,0.0207
3493.00,0.0207
3492.00,0.0206
3491.00,0.0206
3490.00,0.0206
3489.00,0.0206
3488.00,0.0207
3487.00,0.0207
3486.00,0.0207
3485.00,0.0207
3484.00,0.0207
3483.00,0.0208
3482.00,0.0208
3481.00,0.0209
3480.00,0.0209
3479.00,0.0209
3478.00,0.0209
3477.00,0.0210
3476.00,0.0211
3475.00,0.0212
3474.00,0.0212
3473.00,0.0212
3472.00,0.0212
3471.00,0.0212
3470.00,0.0212
3469.00,0.0213
3468.00,0.0213
3467.00,0.0213
3466.00,0.0214
3465.00,0.0215
3464.00,0.0215
3463.00,0.0214
3462.00,0.0212
3461.00,0.0211
3460.00,0.0212
3459.00,0.0213
3458.00,0.0214
3457.00,0.0215
3456.00,0.0214
3455.00,0.0213
3454.00,0.0213
3453.00,0.0213
3452.00,0.0214
3451.00,0.0214
3450.00,0.0214
3449.00,0.0215
3448.00,0.0215
3447.00,0.0215
3446.00,0.0215
3445.00,0.0216
3444.00,0.0216
3443.00,0.0216
3442.00,0.0216
3441.00,0.0215
3440.00,0.0215
3439.00,0.0215
3438.00,0.0215
3437.00,0.0215
3436.00,0.0215
3435.00,0.0215
3434.00,0.0215
3433.00,0.0215
3432.00,0.0216
3431.00,0.0217
3430.00,0.0218
3429.00,0.0218
3428.00,0.0217
3427.00,0.0217
3426.00,0.0218
3425.00,0.0219
3424.00,0.0220
3423.00,0.0220
3422.00,0.0220
3421.00,0.0220
3420.00,0.0220
3419.00,0.0219
3418.00,0.0219
3417.00,0.0219
3416.00,0.0219
3415.00,0.0218
3414.00,0.0218
3413.00,0.0219
3412.00,0.0220
3411.00,0.0220
3410.00,0.0221
3409.00,0.0221
3408.00,0.0221
3407.00,0.0221
3406.00,0.0221
3405.00,0.0221
3404.00,0.0220
3403.00,0.0220
3402.00,0.0220
3401.00,0.0220
3400.00,0.0221
3399.00,0.0221
3398.00,0.0221
3397.00,0.0220
3396.00,0.0220
3395.00,0.0219
3394.00,0.0220
3393.00,0.0220
3392.00,0.0221
3391.00,0.0222
3390.00,0.0222
3389.00,0.0222
3388.00,0.0222
3387.00,0.0222
3386.00,0.0222
3385.00,0.0222
3384.00,0.0223
3383.00,0.0223
3382.00,0.0224
3381.00,0.0224
3380.00,0.0224
3379.00,0.0225
3378.00,0.0225
3377.00,0.0225
3376.00,0.0224
3375.00,0.0224
3374.00,0.0224
3373.00,0.0223
3372.00,0.0223
3371.00,0.0222
3370.00,0.0222
3369.00,0.0223
3368.00,0.0223
3367.00,0.0223
3366.00,0.0223
3365.00,0.0222
3364.00,0.0222
3363.00,0.0223
3362.00,0.0224
3361.00,0.0225
3360.00,0.0227
3359.00,0.0227
3358.00,0.0226
3357.00,0.0226
3356.00,0.0225
3355.00,0.0225
3354.00,0.0225
3353.00,0.0226
3352.00,0.0226
3351.00,0.0226
3350.00,0.0226
3349.00,0.0226
3348.00,0.0226
3347.00,0.0226
3346.00,0.0226
3345.00,0.0225
3344.00,0.0225
3343.00,0.0224
3342.00,0.0224
3341.00,0.0225
3340.00,0.0225
3339.00,0.0226
3338.00,0.0226
3337.00,0.0226
3336.00,0.0226
3335.00,0.0225
3334.00,0.0225
3333.00,0.0225
3332.00,0.0225
3331.00,0.0225
3330.00,0.0224
3329.00,0.0224
3328.00,0.0223
3327.00,0.0224
3326.00,0.0225
3325.00,0.0226
3324.00,0.0226
3323.00,0.0227
3322.00,0.0227
3321.00,0.0226
3320.00,0.0226
3319.00,0.0225
3318.00,0.0225
3317.00,0.0225
3316.00,0.0225
3315.00,0.0225
3314.00,0.0225
3313.00,0.0224
3312.00,0.0224
3311.00,0.0224
3310.00,0.0225
3309.00,0.0226
3308.00,0.0226
3307.00,0.0227
3306.00,0.0227
3305.00,0.0226
3304.00,0.0226
3303.00,0.0225
3302.00,0.0225
3301.00,0.0225
3300.00,0.0225
3299.00,0.0225
3298.00,0.0225
3297.00,0.0225
3296.00,0.0226
3295.00,0.0226
3294.00,0.0226
3293.00,0.0226
3292.00,0.0226
3291.00,0.0225
3290.00,0.0225
3289.00,0.0225
3288.00,0.0225
3287.00,0.0225
3286.00,0.0226
3285.00,0.0227
3284.00,0.0227
3283.00,0.0227
3282.00,0.0227
3281.00,0.0226
3280.00,0.0226
3279.00,0.0225
3278.00,0.0225
3277.00,0.0225
3276.00,0.0225
3275.00,0.0226
3274.00,0.0226
3273.00,0.0226
3272.00,0.0227
3271.00,0.0227
3270.00,0.0228
3269.00,0.0228
3268.00,0.0228
3267.00,0.0228
3266.00,0.0227
3265.00,0.0226
3264.00,0.0225
3263.00,0.0225
3262.00,0.0225
3261.00,0.0225
3260.00,0.0226
3259.00,0.0226
3258.00,0.0226
3257.00,0.0226
3256.00,0.0225
3255.00,0.0225
3254.00,0.0226
3253.00,0.0227
3252.00,0.0227
3251.00,0.0227
3250.00,0.0226
3249.00,0.0226
3248.00,0.0226
3247.00,0.0226
3246.00,0.0226
3245.00,0.0226
3244.00,0.0226
3243.00,0.0226
3242.00,0.0226
3241.00,0.0226
3240.00,0.0226
3239.00,0.0226
3238.00,0.0227
3237.00,0.0227
3236.00,0.0228
3235.00,0.0228
3234.00,0.0228
3233.00,0.0228
3232.00,0.0228
3231.00,0.0228
3230.00,0.0227
3229.00,0.0226
3228.00,0.0226
3227.00,0.0225
3226.00,0.0225
3225.00,0.0225
3224.00,0.0225
3223.00,0.0225
3222.00,0.0225
3221.00,0.0225
3220.00,0.0225
3219.00,0.0225
3218.00,0.0225
3217.00,0.0225
3216.00,0.0226
3215.00,0.0227
3214.00,0.0227
3213.00,0.0227
3212.00,0.0226
3211.00,0.0226
3210.00,0.0225
3209.00,0.0225
3208.00,0.0226
3207.00,0.0226
3206.00,0.0226
3205.00,0.0227
3204.00,0.0227
3203.00,0.0227
3202.00,0.0227
3201.00,0.0227
3200.00,0.0226
3199.00,0.0226
3198.00,0.0227
3197.00,0.0226
3196.00,0.0226
3195.00,0.0226
3194.00,0.0226
3193.00,0.0226
3192.00,0.0226
3191.00,0.0225
3190.00,0.0225
3189.00,0.0224
3188.00,0.0223
3187.00,0.0223
3186.00,0.0223
3185.00,0.0224
3184.00,0.0225
3183.00,0.0225
3182.00,0.0225
3181.00,0.0226
3180.00,0.0226
3179.00,0.0225
3178.00,0.0225
3177.00,0.0224
3176.00,0.0223
3175.00,0.0223
3174.00,0.0224
3173.00,0.0224
3172.00,0.0224
3171.00,0.0224
3170.00,0.0224
3169.00,0.0224
3168.00,0.0223
3167.00,0.0223
3166.00,0.0224
3165.00,0.0225
3164.00,0.0226
3163.00,0.0226
3162.00,0.0226
3161.00,0.0225
3160.00,0.0224
3159.00,0.0223
3158.00,0.0222
3157.00,0.0222
3156.00,0.0222
3155.00,0.0223
3154.00,0.0223
3153.00,0.0224
3152.00,0.0224
3151.00,0.0224
3150.00,0.0223
3149.00,0.0223
3148.00,0.0223
3147.00,0.0223
3146.00,0.0223
3145.00,0.0223
3144.00,0.0222
3143.00,0.0223
3142.00,0.0223
3141.00,0.0223
3140.00,0.0223
3139.00,0.0223
3138.00,0.0223
3137.00,0.0224
3136.00,0.0223
3135.00,0.0223
3134.00,0.0223
3133.00,0.0222
3132.00,0.0222
3131.00,0.0223
3130.00,0.0223
3129.00,0.0223
3128.00,0.0222
3127.00,0.0222
3126.00,0.0222
3125.00,0.0222
3124.00,0.0221
3123.00,0.0221
3122.00,0.0221
3121.00,0.0221
3120.00,0.0222
3119.00,0.0222
3118.00,0.0223
3117.00,0.0223
3116.00,0.0222
3115.00,0.0222
3114.00,0.0222
3113.00,0.0222
3112.00,0.0222
3111.00,0.0222
3110.00,0.0221
3109.00,0.0221
3108.00,0.0221
3107.00,0.0221
3106.00,0.0222
3105.00,0.0222
3104.00,0.0222
3103.00,0.0221
3102.00,0.0221
3101.00,0.0221
3100.00,0.0221
3099.00,0.0220
3098.00,0.0220
3097.00,0.0221
3096.00,0.0221
3095.00,0.0222
3094.00,0.0223
3093.00,0.0223
3092.00,0.0223
3091.00,0.0222
3090.00,0.0222
3089.00,0.0221
3088.00,0.0220
3087.00,0.0220
3086.00,0.0221
3085.00,0.0222
3084.00,0.0222
3083.00,0.0222
3082.00,0.0222
3081.00,0.0222
3080.00,0.0223
3079.00,0.0222
3078.00,0.0222
3077.00,0.0222
3076.00,0.0222
3075.00,0.0222
3074.00,0.0222
3073.00,0.0222
3072.00,0.0222
3071.00,0.0223
3070.00,0.0223
3069.00,0.0223
3068.00,0.0223
3067.00,0.0223
3066.00,0.0223
3065.00,0.0222
3064.00,0.0221
3063.00,0.0220
3062.00,0.0220
3061.00,0.0221
3060.00,0.0221
3059.00,0.0221
3058.00,0.0222
3057.00,0.0222
3056.00,0.0222
3055.00,0.0222
3054.00,0.0221
3053.00,0.0221
3052.00,0.0220
3051.00,0.0221
3050.00,0.0222
3049.00,0.0222
3048.00,0.0223
3047.00,0.0223
3046.00,0.0222
3045.00,0.0222
3044.00,0.0221
3043.00,0.0220
3042.00,0.0219
3041.00,0.0219
3040.00,0.0219
3039.00,0.0219
3038.00,0.0219
3037.00,0.0219
3036.00,0.0220
3035.00,0.0220
3034.00,0.0220
3033.00,0.0220
3032.00,0.0220
3031.00,0.0220
3030.00,0.0218
3029.00,0.0217
3028.00,0.0217
3027.00,0.0217
3026.00,0.0217
3025.00,0.0217
3024.00,0.0217
3023.00,0.0217
3022.00,0.0217
3021.00,0.0217
3020.00,0.0217
3019.00,0.0216
3018.00,0.0215
3017.00,0.0215
3016.00,0.0215
3015.00,0.0215
3014.00,0.0214
3013.00,0.0213
3012.00,0.0213
3011.00,0.0212
3010.00,0.0211
3009.00,0.0210
3008.00,0.0208
3007.00,0.0206
3006.00,0.0205
3005.00,0.0204
3004.00,0.0203
3003.00,0.0202
3002.00,0.0200
3001.00,0.0198
3000.00,0.0197
2999.00,0.0196
2998.00,0.0194
2997.00,0.0193
2996.00,0.0192
2995.00,0.0192
2994.00,0.0191
2993.00,0.0190
2992.00,0.0190
2991.00,0.0189
2990.00,0.0188
2989.00,0.0188
2988.00,0.0187
2987.00,0.0185
2986.00,0.0182
2985.00,0.0178
2984.00,0.0174
2983.00,0.0170
2982.00,0.0169
2981.00,0.0169
2980.00,0.0170
2979.00,0.0172
2978.00,0.0174
2977.00,0.0176
2976.00,0.0178
2975.00,0.0179
2974.00,0.0179
2973.00,0.0178
2972.00,0.0178
2971.00,0.0178
2970.00,0.0180
2969.00,0.0182
2968.00,0.0184
2967.00,0.0185
2966.00,0.0185
2965.00,0.0186
2964.00,0.0187
2963.00,0.0188
2962.00,0.0190
2961.00,0.0191
2960.00,0.0191
2959.00,0.0192
2958.00,0.0192
2957.00,0.0192
2956.00,0.0193
2955.00,0.0194
2954.00,0.0196
2953.00,0.0196
2952.00,0.0197
2951.00,0.0198
2950.00,0.0198
2949.00,0.0199
2948.00,0.0200
2947.00,0.0200
2946.00,0.0200
2945.00,0.0201
2944.00,0.0202
2943.00,0.0203
2942.00,0.0203
2941.00,0.0204
2940.00,0.0204
2939.00,0.0203
2938.00,0.0203
2937.00,0.0203
2936.00,0.0203
2935.00,0.0204
2934.00,0.0204
2933.00,0.0204
2932.00,0.0204
2931.00,0.0204
2930.00,0.0204
2929.00,0.0204
2928.00,0.0204
2927.00,0.0204
2926.00,0.0204
2925.00,0.0204
2924.00,0.0204
2923.00,0.0204
2922.00,0.0204
2921.00,0.0203
2920.00,0.0202
2919.00,0.0202
2918.00,0.0201
2917.00,0.0201
2916.00,0.0201
2915.00,0.0201
2914.00,0.0200
2913.00,0.0200
2912.00,0.0200
2911.00,0.0201
2910.00,0.0201
2909.00,0.0201
2908.00,0.0200
2907.00,0.0200
2906.00,0.0199
2905.00,0.0199
2904.00,0.0199
2903.00,0.0198
2902.00,0.0198
2901.00,0.0198
2900.00,0.0198
2899.00,0.0198
2898.00,0.0198
2897.00,0.0198
2896.00,0.0197
2895.00,0.0197
2894.00,0.0197
2893.00,0.0197
2892.00,0.0197
2891.00,0.0196
2890.00,0.0196
2889.00,0.0196
2888.00,0.0196
2887.00,0.0196
2886.00,0.0196
2885.00,0.0196
2884.00,0.0195
2883.00,0.0196
2882.00,0.0196
2881.00,0.0196
2880.00,0.0197
2879.00,0.0197
2878.00,0.0198
2877.00,0.0199
2876.00,0.0199
2875.00,0.0198
2874.00,0.0198
2873.00,0.0198
2872.00,0.0198
2871.00,0.0198
2870.00,0.0198
2869.00,0.0199
2868.00,0.0199
2867.00,0.0199
2866.00,0.0199
2865.00,0.0200
2864.00,0.0200
2863.00,0.0200
2862.00,0.0200
2861.00,0.0201
2860.00,0.0201
2859.00,0.0202
2858.00,0.0203
2857.00,0.0204
2856.00,0.0204
2855.00,0.0203
2854.00,0.0202
2853.00,0.0202
2852.00,0.0202
2851.00,0.0202
2850.00,0.0203
2849.00,0.0203
2848.00,0.0203
2847.00,0.0203
2846.00,0.0203
2845.00,0.0203
2844.00,0.0203
2843.00,0.0203
2842.00,0.0203
2841.00,0.0203
2840.00,0.0202
2839.00,0.0201
2838.00,0.0201
2837.00,0.0201
2836.00,0.0201
2835.00,0.0202
2834.00,0.0203
2833.00,0.0202
2832.00,0.0202
2831.00,0.0201
2830.00,0.0201
2829.00,0.0201
2828.00,0.0201
2827.00,0.0201
2826.00,0.0201
2825.00,0.0201
2824.00,0.0201
2823.00,0.0201
2822.00,0.0201
2821.00,0.0200
2820.00,0.0200
2819.00,0.0199
2818.00,0.0199
2817.00,0.0199
2816.00,0.0199
2815.00,0.0199
2814.00,0.0199
2813.00,0.0199
2812.00,0.0199
2811.00,0.0199
2810.00,0.0199
2809.00,0.0198
2808.00,0.0198
2807.00,0.0198
2806.00,0.0198
2805.00,0.0198
2804.00,0.0198
2803.00,0.0198
2802.00,0.0198
2801.00,0.0198
2800.00,0.0199
2799.00,0.0199
2798.00,0.0198
2797.00,0.0198
2796.00,0.0198
2795.00,0.0198
2794.00,0.0198
2793.00,0.0198
2792.00,0.0198
2791.00,0.0198
2790.00,0.0198
2789.00,0.0198
2788.00,0.0198
2787.00,0.0198
2786.00,0.0197
2785.00,0.0197
2784.00,0.0197
2783.00,0.0196
2782.00,0.0195
2781.00,0.0195
2780.00,0.0194
2779.00,0.0194
2778.00,0.0195
2777.00,0.0195
2776.00,0.0195
2775.00,0.0196
2774.00,0.0196
2773.00,0.0196
2772.00,0.0195
2771.00,0.0195
2770.00,0.0194
2769.00,0.0193
2768.00,0.0193
2767.00,0.0193
2766.00,0.0193
2765.00,0.0193
2764.00,0.0193
2763.00,0.0193
2762.00,0.0194
2761.00,0.0194
2760.00,0.0194
2759.00,0.0194
2758.00,0.0194
2757.00,0.0194
2756.00,0.0194
2755.00,0.0193
2754.00,0.0193
2753.00,0.0193
2752.00,0.0193
2751.00,0.0193
2750.00,0.0193
2749.00,0.0193
2748.00,0.0193
2747.00,0.0193
2746.00,0.0193
2745.00,0.0193
2744.00,0.0193
2743.00,0.0193
2742.00,0.0193
2741.00,0.0193
2740.00,0.0193
2739.00,0.0192
2738.00,0.0191
2737.00,0.0191
2736.00,0.0191
2735.00,0.0191
2734.00,0.0192
2733.00,0.0192
2732.00,0.0192
2731.00,0.0192
2730.00,0.0192
2729.00,0.0191
2728.00,0.0191
2727.00,0.0191
2726.00,0.0191
2725.00,0.0191
2724.00,0.0191
2723.00,0.0191
2722.00,0.0190
2721.00,0.0190
2720.00,0.0190
2719.00,0.0190
2718.00,0.0190
2717.00,0.0190
2716.00,0.0191
2715.00,0.0191
2714.00,0.0191
2713.00,0.0190
2712.00,0.0190
2711.00,0.0190
2710.00,0.0190
2709.00,0.0190
2708.00,0.0189
2707.00,0.0189
2706.00,0.0188
2705.00,0.0188
2704.00,0.0188
2703.00,0.0188
2702.00,0.0188
2701.00,0.0188
2700.00,0.0188
2699.00,0.0189
2698.00,0.0189
2697.00,0.0188
2696.00,0.0188
2695.00,0.0188
2694.00,0.0189
2693.00,0.0189
2692.00,0.0189
2691.00,0.0189
2690.00,0.0189
2689.00,0.0189
2688.00,0.0188
2687.00,0.0188
2686.00,0.0188
2685.00,0.0188
2684.00,0.0188
2683.00,0.0188
2682.00,0.0188
2681.00,0.0187
2680.00,0.0187
2679.00,0.0187
2678.00,0.0186
2677.00,0.0186
2676.00,0.0185
2675.00,0.0185
2674.00,0.0186
2673.00,0.0186
2672.00,0.0186
2671.00,0.0186
2670.00,0.0185
2669.00,0.0185
2668.00,0.0185
2667.00,0.0185
2666.00,0.0186
2665.00,0.0186
2664.00,0.0186
2663.00,0.0187
2662.00,0.0187
2661.00,0.0187
2660.00,0.0187
2659.00,0.0188
2658.00,0.0188
2657.00,0.0188
2656.00,0.0188
2655.00,0.0188
2654.00,0.0188
2653.00,0.0188
2652.00,0.0189
2651.00,0.0189
2650.00,0.0189
2649.00,0.0189
2648.00,0.0188
2647.00,0.0188
2646.00,0.0187
2645.00,0.0187
2644.00,0.0188
2643.00,0.0188
2642.00,0.0188
2641.00,0.0188
2640.00,0.0188
2639.00,0.0188
2638.00,0.0188
2637.00,0.0188
2636.00,0.0187
2635.00,0.0187
2634.00,0.0188
2633.00,0.0188
2632.00,0.0188
2631.00,0.0188
2630.00,0.0188
2629.00,0.0187
2628.00,0.0186
2627.00,0.0186
2626.00,0.0187
2625.00,0.0187
2624.00,0.0188
2623.00,0.0188
2622.00,0.0189
2621.00,0.0189
2620.00,0.0189
2619.00,0.0189
2618.00,0.0189
2617.00,0.0189
2616.00,0.0188
2615.00,0.0188
2614.00,0.0188
2613.00,0.0188
2612.00,0.0189
2611.00,0.0189
2610.00,0.0189
2609.00,0.0188
2608.00,0.0187
2607.00,0.0187
2606.00,0.0188
2605.00,0.0188
2604.00,0.0189
2603.00,0.0189
2602.00,0.0189
2601.00,0.0189
2600.00,0.0188
2599.00,0.0188
2598.00,0.0188
2597.00,0.0187
2596.00,0.0187
2595.00,0.0186
2594.00,0.0187
2593.00,0.0188
2592.00,0.0188
2591.00,0.0189
2590.00,0.0189
2589.00,0.0188
2588.00,0.0188
2587.00,0.0188
2586.00,0.0188
2585.00,0.0187
2584.00,0.0187
2583.00,0.0187
2582.00,0.0188
2581.00,0.0188
2580.00,0.0189
2579.00,0.0189
2578.00,0.0189
2577.00,0.0189
2576.00,0.0188
2575.00,0.0187
2574.00,0.0187
2573.00,0.0187
2572.00,0.0187
2571.00,0.0187
2570.00,0.0186
2569.00,0.0186
2568.00,0.0187
2567.00,0.0188
2566.00,0.0190
2565.00,0.0190
2564.00,0.0190
2563.00,0.0189
2562.00,0.0189
2561.00,0.0189
2560.00,0.0189
2559.00,0.0189
2558.00,0.0189
2557.00,0.0189
2556.00,0.0189
2555.00,0.0189
2554.00,0.0189
2553.00,0.0188
2552.00,0.0187
2551.00,0.0186
2550.00,0.0186
2549.00,0.0185
2548.00,0.0184
2547.00,0.0183
2546.00,0.0184
2545.00,0.0185
2544.00,0.0186
2543.00,0.0186
2542.00,0.0186
2541.00,0.0184
2540.00,0.0183
2539.00,0.0182
2538.00,0.0181
2537.00,0.0181
2536.00,0.0181
2535.00,0.0182
2534.00,0.0183
2533.00,0.0184
2532.00,0.0185
2531.00,0.0185
2530.00,0.0184
2529.00,0.0183
2528.00,0.0183
2527.00,0.0183
2526.00,0.0182
2525.00,0.0182
2524.00,0.0182
2523.00,0.0182
2522.00,0.0183
2521.00,0.0183
2520.00,0.0183
2519.00,0.0184
2518.00,0.0185
2517.00,0.0187
2516.00,0.0187
2515.00,0.0186
2514.00,0.0185
2513.00,0.0184
2512.00,0.0184
2511.00,0.0184
2510.00,0.0184
2509.00,0.0185
2508.00,0.0185
2507.00,0.0185
2506.00,0.0185
2505.00,0.0184
2504.00,0.0184
2503.00,0.0184
2502.00,0.0185
2501.00,0.0186
2500.00,0.0186
2499.00,0.0186
2498.00,0.0186
2497.00,0.0185
2496.00,0.0185
2495.00,0.0185
2494.00,0.0186
2493.00,0.0186
2492.00,0.0187
2491.00,0.0187
2490.00,0.0187
2489.00,0.0186
2488.00,0.0186
2487.00,0.0186
2486.00,0.0186
2485.00,0.0185
2484.00,0.0185
2483.00,0.0184
2482.00,0.0185
2481.00,0.0185
2480.00,0.0186
2479.00,0.0186
2478.00,0.0185
2477.00,0.0184
2476.00,0.0183
2475.00,0.0183
2474.00,0.0183
2473.00,0.0184
2472.00,0.0184
2471.00,0.0185
2470.00,0.0185
2469.00,0.0185
2468.00,0.0184
2467.00,0.0183
2466.00,0.0183
2465.00,0.0182
2464.00,0.0182
2463.00,0.0182
2462.00,0.0182
2461.00,0.0182
2460.00,0.0182
2459.00,0.0183
2458.00,0.0184
2457.00,0.0184
2456.00,0.0184
2455.00,0.0185
2454.00,0.0186
2453.00,0.0186
2452.00,0.0186
2451.00,0.0186
2450.00,0.0185
2449.00,0.0185
2448.00,0.0185
2447.00,0.0185
2446.00,0.0184
2445.00,0.0183
2444.00,0.0182
2443.00,0.0182
2442.00,0.0182
2441.00,0.0182
2440.00,0.0183
2439.00,0.0183
2438.00,0.0183
2437.00,0.0183
2436.00,0.0183
2435.00,0.0182
2434.00,0.0181
2433.00,0.0181
2432.00,0.0181
2431.00,0.0181
2430.00,0.0182
2429.00,0.0182
2428.00,0.0182
2427.00,0.0182
2426.00,0.0182
2425.00,0.0182
2424.00,0.0182
2423.00,0.0182
2422.00,0.0182
2421.00,0.0182
2420.00,0.0181
2419.00,0.0181
2418.00,0.0181
2417.00,0.0181
2416.00,0.0181
2415.00,0.0181
2414.00,0.0181
2413.00,0.0182
2412.00,0.0181
2411.00,0.0181
2410.00,0.0181
2409.00,0.0181
2408.00,0.0181
2407.00,0.0180
2406.00,0.0180
2405.00,0.0180
2404.00,0.0179
2403.00,0.0179
2402.00,0.0178
2401.00,0.0178
2400.00,0.0178
2399.00,0.0178
2398.00,0.0178
2397.00,0.0178
2396.00,0.0178
2395.00,0.0178
2394.00,0.0178
2393.00,0.0178
2392.00,0.0178
2391.00,0.0177
2390.00,0.0177
2389.00,0.0177
2388.00,0.0177
2387.00,0.0177
2386.00,0.0177
2385.00,0.0176
2384.00,0.0176
2383.00,0.0175
2382.00,0.0176
2381.00,0.0176
2380.00,0.0177
2379.00,0.0177
2378.00,0.0176
2377.00,0.0176
2376.00,0.0175
2375.00,0.0175
2374.00,0.0176
2373.00,0.0177
2372.00,0.0177
2371.00,0.0177
2370.00,0.0175
2369.00,0.0172
2368.00,0.0170
2367.00,0.0169
2366.00,0.0172
2365.00,0.0175
2364.00,0.0176
2363.00,0.0175
2362.00,0.0174
2361.00,0.0173
2360.00,0.0174
2359.00,0.0174
2358.00,0.0174
2357.00,0.0173
2356.00,0.0172
2355.00,0.0171
2354.00,0.0170
2353.00,0.0170
2352.00,0.0171
2351.00,0.0172
2350.00,0.0173
2349.00,0.0174
2348.00,0.0173
2347.00,0.0171
2346.00,0.0169
2345.00,0.0169
2344.00,0.0171
2343.00,0.0174
2342.00,0.0175
2341.00,0.0176
2340.00,0.0176
2339.00,0.0174
2338.00,0.0171
2337.00,0.0170
2336.00,0.0170
2335.00,0.0171
2334.00,0.0172
2333.00,0.0173
2332.00,0.0173
2331.00,0.0172
2330.00,0.0171
2329.00,0.0170
2328.00,0.0171
2327.00,0.0173
2326.00,0.0175
2325.00,0.0175
2324.00,0.0175
2323.00,0.0174
2322.00,0.0173
2321.00,0.0173
2320.00,0.0172
2319.00,0.0172
2318.00,0.0172
2317.00,0.0173
2316.00,0.0173
2315.00,0.0173
2314.00,0.0173
2313.00,0.0173
2312.00,0.0174
2311.00,0.0175
2310.00,0.0176
2309.00,0.0178
2308.00,0.0178
2307.00,0.0177
2306.00,0.0177
2305.00,0.0176
2304.00,0.0175
2303.00,0.0175
2302.00,0.0174
2301.00,0.0174
2300.00,0.0174
2299.00,0.0175
2298.00,0.0175
2297.00,0.0175
2296.00,0.0175
2295.00,0.0175
2294.00,0.0175
2293.00,0.0177
2292.00,0.0179
2291.00,0.0180
2290.00,0.0180
2289.00,0.0180
2288.00,0.0180
2287.00,0.0181
2286.00,0.0182
2285.00,0.0183
2284.00,0.0184
2283.00,0.0185
2282.00,0.0185
2281.00,0.0183
2280.00,0.0182
2279.00,0.0182
2278.00,0.0182
2277.00,0.0182
2276.00,0.0182
2275.00,0.0181
2274.00,0.0179
2273.00,0.0178
2272.00,0.0177
2271.00,0.0178
2270.00,0.0179
2269.00,0.0179
2268.00,0.0179
2267.00,0.0179
2266.00,0.0179
2265.00,0.0180
2264.00,0.0180
2263.00,0.0181
2262.00,0.0181
2261.00,0.0181
2260.00,0.0181
2259.00,0.0180
2258.00,0.0179
2257.00,0.0177
2256.00,0.0175
2255.00,0.0174
2254.00,0.0175
2253.00,0.0176
2252.00,0.0176
2251.00,0.0177
2250.00,0.0177
2249.00,0.0176
2248.00,0.0175
2247.00,0.0175
2246.00,0.0177
2245.00,0.0179
2244.00,0.0181
2243.00,0.0182
2242.00,0.0182
2241.00,0.0182
2240.00,0.0181
2239.00,0.0179
2238.00,0.0178
2237.00,0.0178
2236.00,0.0177
2235.00,0.0176
2234.00,0.0176
2233.00,0.0176
2232.00,0.0176
2231.00,0.0176
2230.00,0.0176
2229.00,0.0176
2228.00,0.0177
2227.00,0.0178
2226.00,0.0179
2225.00,0.0178
2224.00,0.0177
2223.00,0.0175
2222.00,0.0174
2221.00,0.0174
2220.00,0.0175
2219.00,0.0176
2218.00,0.0177
2217.00,0.0178
2216.00,0.0179
2215.00,0.0180
2214.00,0.0181
2213.00,0.0182
2212.00,0.0180
2211.00,0.0179
2210.00,0.0177
2209.00,0.0177
2208.00,0.0178
2207.00,0.0178
2206.00,0.0178
2205.00,0.0177
2204.00,0.0176
2203.00,0.0176
2202.00,0.0177
2201.00,0.0178
2200.00,0.0177
2199.00,0.0177
2198.00,0.0176
2197.00,0.0176
2196.00,0.0177
2195.00,0.0176
2194.00,0.0176
2193.00,0.0175
2192.00,0.0174
2191.00,0.0172
2190.00,0.0169
2189.00,0.0168
2188.00,0.0170
2187.00,0.0174
2186.00,0.0178
2185.00,0.0179
2184.00,0.0177
2183.00,0.0173
2182.00,0.0170
2181.00,0.0171
2180.00,0.0173
2179.00,0.0175
2178.00,0.0176
2177.00,0.0177
2176.00,0.0178
2175.00,0.0177
2174.00,0.0176
2173.00,0.0175
2172.00,0.0175
2171.00,0.0176
2170.00,0.0178
2169.00,0.0180
2168.00,0.0181
2167.00,0.0182
2166.00,0.0183
2165.00,0.0185
2164.00,0.0187
2163.00,0.0189
2162.00,0.0189
2161.00,0.0185
2160.00,0.0179
2159.00,0.0170
2158.00,0.0163
2157.00,0.0159
2156.00,0.0159
2155.00,0.0161
2154.00,0.0165
2153.00,0.0170
2152.00,0.0172
2151.00,0.0170
2150.00,0.0166
2149.00,0.0163
2148.00,0.0162
2147.00,0.0163
2146.00,0.0165
2145.00,0.0168
2144.00,0.0169
2143.00,0.0170
2142.00,0.0171
2141.00,0.0172
2140.00,0.0171
2139.00,0.0169
2138.00,0.0167
2137.00,0.0166
2136.00,0.0164
2135.00,0.0163
2134.00,0.0163
2133.00,0.0163
2132.00,0.0164
2131.00,0.0164
2130.00,0.0164
2129.00,0.0165
2128.00,0.0167
2127.00,0.0168
2126.00,0.0168
2125.00,0.0168
2124.00,0.0167
2123.00,0.0167
2122.00,0.0166
2121.00,0.0166
2120.00,0.0166
2119.00,0.0166
2118.00,0.0166
2117.00,0.0166
2116.00,0.0165
2115.00,0.0164
2114.00,0.0162
2113.00,0.0161
2112.00,0.0162
2111.00,0.0164
2110.00,0.0167
2109.00,0.0169
2108.00,0.0170
2107.00,0.0170
2106.00,0.0170
2105.00,0.0170
2104.00,0.0169
2103.00,0.0169
2102.00,0.0169
2101.00,0.0168
2100.00,0.0166
2099.00,0.0163
2098.00,0.0162
2097.00,0.0162
2096.00,0.0163
2095.00,0.0164
2094.00,0.0164
2093.00,0.0164
2092.00,0.0164
2091.00,0.0163
2090.00,0.0163
2089.00,0.0163
2088.00,0.0163
2087.00,0.0164
2086.00,0.0164
2085.00,0.0165
2084.00,0.0167
2083.00,0.0167
2082.00,0.0167
2081.00,0.0167
2080.00,0.0167
2079.00,0.0167
2078.00,0.0168
2077.00,0.0168
2076.00,0.0168
2075.00,0.0169
2074.00,0.0168
2073.00,0.0168
2072.00,0.0168
2071.00,0.0169
2070.00,0.0169
2069.00,0.0167
2068.00,0.0165
2067.00,0.0163
2066.00,0.0163
2065.00,0.0164
2064.00,0.0166
2063.00,0.0167
2062.00,0.0167
2061.00,0.0166
2060.00,0.0165
2059.00,0.0164
2058.00,0.0164
2057.00,0.0164
2056.00,0.0164
2055.00,0.0164
2054.00,0.0165
2053.00,0.0167
2052.00,0.0169
2051.00,0.0170
2050.00,0.0169
2049.00,0.0167
2048.00,0.0165
2047.00,0.0164
2046.00,0.0166
2045.00,0.0169
2044.00,0.0171
2043.00,0.0171
2042.00,0.0169
2041.00,0.0165
2040.00,0.0162
2039.00,0.0162
2038.00,0.0165
2037.00,0.0170
2036.00,0.0174
2035.00,0.0173
2034.00,0.0170
2033.00,0.0169
2032.00,0.0171
2031.00,0.0175
2030.00,0.0177
2029.00,0.0175
2028.00,0.0172
2027.00,0.0169
2026.00,0.0166
2025.00,0.0164
2024.00,0.0161
2023.00,0.0159
2022.00,0.0159
2021.00,0.0159
2020.00,0.0158
2019.00,0.0156
2018.00,0.0154
2017.00,0.0154
2016.00,0.0156
2015.00,0.0159
2014.00,0.0161
2013.00,0.0161
2012.00,0.0161
2011.00,0.0161
2010.00,0.0162
2009.00,0.0163
2008.00,0.0163
2007.00,0.0162
2006.00,0.0161
2005.00,0.0159
2004.00,0.0159
2003.00,0.0161
2002.00,0.0164
2001.00,0.0167
2000.00,0.0168
1999.00,0.0166
1998.00,0.0163
1997.00,0.0163
1996.00,0.0164
1995.00,0.0166
1994.00,0.0168
1993.00,0.0169
1992.00,0.0168
1991.00,0.0166
1990.00,0.0163
1989.00,0.0161
1988.00,0.0160
1987.00,0.0161
1986.00,0.0162
1985.00,0.0164
1984.00,0.0165
1983.00,0.0165
1982.00,0.0165
1981.00,0.0164
1980.00,0.0161
1979.00,0.0157
1978.00,0.0152
1977.00,0.0149
1976.00,0.0149
1975.00,0.0152
1974.00,0.0157
1973.00,0.0159
1972.00,0.0158
1971.00,0.0156
1970.00,0.0156
1969.00,0.0157
1968.00,0.0158
1967.00,0.0156
1966.00,0.0153
1965.00,0.0152
1964.00,0.0153
1963.00,0.0154
1962.00,0.0155
1961.00,0.0155
1960.00,0.0156
1959.00,0.0157
1958.00,0.0158
1957.00,0.0158
1956.00,0.0156
1955.00,0.0155
1954.00,0.0154
1953.00,0.0154
1952.00,0.0154
1951.00,0.0153
1950.00,0.0152
1949.00,0.0151
1948.00,0.0151
1947.00,0.0152
1946.00,0.0152
1945.00,0.0151
1944.00,0.0149
1943.00,0.0147
1942.00,0.0145
1941.00,0.0145
1940.00,0.0145
1939.00,0.0145
1938.00,0.0145
1937.00,0.0145
1936.00,0.0145
1935.00,0.0144
1934.00,0.0143
1933.00,0.0142
1932.00,0.0143
1931.00,0.0144
1930.00,0.0146
1929.00,0.0148
1928.00,0.0149
1927.00,0.0149
1926.00,0.0150
1925.00,0.0149
1924.00,0.0149
1923.00,0.0148
1922.00,0.0148
1921.00,0.0148
1920.00,0.0147
1919.00,0.0146
1918.00,0.0145
1917.00,0.0144
1916.00,0.0144
1915.00,0.0145
1914.00,0.0145
1913.00,0.0145
1912.00,0.0145
1911.00,0.0144
1910.00,0.0144
1909.00,0.0142
1908.00,0.0142
1907.00,0.0141
1906.00,0.0142
1905.00,0.0143
1904.00,0.0144
1903.00,0.0144
1902.00,0.0143
1901.00,0.0142
1900.00,0.0141
1899.00,0.0141
1898.00,0.0141
1897.00,0.0141
1896.00,0.0139
1895.00,0.0137
1894.00,0.0136
1893.00,0.0138
1892.00,0.0139
1891.00,0.0141
1890.00,0.0140
1889.00,0.0139
1888.00,0.0138
1887.00,0.0137
1886.00,0.0138
1885.00,0.0139
1884.00,0.0139
1883.00,0.0139
1882.00,0.0138
1881.00,0.0138
1880.00,0.0137
1879.00,0.0136
1878.00,0.0136
1877.00,0.0136
1876.00,0.0136
1875.00,0.0137
1874.00,0.0138
1873.00,0.0139
1872.00,0.0140
1871.00,0.0140
1870.00,0.0139
1869.00,0.0138
1868.00,0.0135
1867.00,0.0134
1866.00,0.0134
1865.00,0.0134
1864.00,0.0134
1863.00,0.0133
1862.00,0.0133
1861.00,0.0132
1860.00,0.0132
1859.00,0.0132
1858.00,0.0132
1857.00,0.0132
1856.00,0.0133
1855.00,0.0133
1854.00,0.0133
1853.00,0.0132
1852.00,0.0132
1851.00,0.0132
1850.00,0.0132
1849.00,0.0131
1848.00,0.0131
1847.00,0.0131
1846.00,0.0132
1845.00,0.0133
1844.00,0.0131
1843.00,0.0129
1842.00,0.0129
1841.00,0.0130
1840.00,0.0130
1839.00,0.0130
1838.00,0.0129
1837.00,0.0128
1836.00,0.0128
1835.00,0.0128
1834.00,0.0128
1833.00,0.0128
1832.00,0.0129
1831.00,0.0129
1830.00,0.0128
1829.00,0.0125
1828.00,0.0125
1827.00,0.0126
1826.00,0.0127
1825.00,0.0126
1824.00,0.0125
1823.00,0.0124
1822.00,0.0124
1821.00,0.0124
1820.00,0.0124
1819.00,0.0123
1818.00,0.0123
1817.00,0.0122
1816.00,0.0122
1815.00,0.0121
1814.00,0.0122
1813.00,0.0122
1812.00,0.0122
1811.00,0.0121
1810.00,0.0121
1809.00,0.0121
1808.00,0.0122
1807.00,0.0122
1806.00,0.0122
1805.00,0.0122
1804.00,0.0121
1803.00,0.0121
1802.00,0.0120
1801.00,0.0120
1800.00,0.0119
1799.00,0.0119
1798.00,0.0119
1797.00,0.0120
1796.00,0.0121
1795.00,0.0121
1794.00,0.0121
1793.00,0.0121
1792.00,0.0121
1791.00,0.0120
1790.00,0.0119
1789.00,0.0120
1788.00,0.0121
1787.00,0.0122
1786.00,0.0122
1785.00,0.0122
1784.00,0.0121
1783.00,0.0121
1782.00,0.0122
1781.00,0.0121
1780.00,0.0121
1779.00,0.0120
1778.00,0.0122
1777.00,0.0123
1776.00,0.0124
1775.00,0.0125
1774.00,0.0125
1773.00,0.0124
1772.00,0.0122
1771.00,0.0121
1770.00,0.0122
1769.00,0.0125
1768.00,0.0126
1767.00,0.0126
1766.00,0.0126
1765.00,0.0127
1764.00,0.0129
1763.00,0.0129
1762.00,0.0127
1761.00,0.0125
1760.00,0.0126
1759.00,0.0127
1758.00,0.0128
1757.00,0.0128
1756.00,0.0128
1755.00,0.0129
1754.00,0.0131
1753.00,0.0133
1752.00,0.0133
1751.00,0.0132
1750.00,0.0131
1749.00,0.0130
1748.00,0.0131
1747.00,0.0131
1746.00,0.0132
1745.00,0.0134
1744.00,0.0135
1743.00,0.0136
1742.00,0.0137
1741.00,0.0138
1740.00,0.0139
1739.00,0.0138
1738.00,0.0139
1737.00,0.0141
1736.00,0.0143
1735.00,0.0145
1734.00,0.0144
1733.00,0.0142
1732.00,0.0142
1731.00,0.0145
1730.00,0.0146
1729.00,0.0147
1728.00,0.0148
1727.00,0.0150
1726.00,0.0151
1725.00,0.0153
1724.00,0.0154
1723.00,0.0155
1722.00,0.0156
1721.00,0.0158
1720.00,0.0158
1719.00,0.0159
1718.00,0.0159
1717.00,0.0160
1716.00,0.0161
1715.00,0.0163
1714.00,0.0166
1713.00,0.0168
1712.00,0.0170
1711.00,0.0171
1710.00,0.0171
1709.00,0.0171
1708.00,0.0171
1707.00,0.0172
1706.00,0.0173
1705.00,0.0173
1704.00,0.0174
1703.00,0.0177
1702.00,0.0179
1701.00,0.0181
1700.00,0.0180
1699.00,0.0178
1698.00,0.0180
1697.00,0.0182
1696.00,0.0181
1695.00,0.0178
1694.00,0.0178
1693.00,0.0180
1692.00,0.0182
1691.00,0.0182
1690.00,0.0183
1689.00,0.0183
1688.00,0.0183
1687.00,0.0182
1686.00,0.0182
1685.00,0.0182
1684.00,0.0181
1683.00,0.0180
1682.00,0.0182
1681.00,0.0184
1680.00,0.0184
1679.00,0.0185
1678.00,0.0187
1677.00,0.0189
1676.00,0.0192
1675.00,0.0193
1674.00,0.0192
1673.00,0.0192
1672.00,0.0192
1671.00,0.0192
1670.00,0.0193
1669.00,0.0193
1668.00,0.0193
1667.00,0.0194
1666.00,0.0195
1665.00,0.0195
1664.00,0.0196
1663.00,0.0196
1662.00,0.0197
1661.00,0.0198
1660.00,0.0200
1659.00,0.0202
1658.00,0.0203
1657.00,0.0203
1656.00,0.0201
1655.00,0.0199
1654.00,0.0200
1653.00,0.0201
1652.00,0.0199
1651.00,0.0201
1650.00,0.0205
1649.00,0.0207
1648.00,0.0208
1647.00,0.0210
1646.00,0.0210
1645.00,0.0212
1644.00,0.0213
1643.00,0.0215
1642.00,0.0216
1641.00,0.0216
1640.00,0.0216
1639.00,0.0217
1638.00,0.0217
1637.00,0.0219
1636.00,0.0223
1635.00,0.0224
1634.00,0.0224
1633.00,0.0224
1632.00,0.0224
1631.00,0.0224
1630.00,0.0225
1629.00,0.0226
1628.00,0.0227
1627.00,0.0227
1626.00,0.0228
1625.00,0.0230
1624.00,0.0233
1623.00,0.0234
1622.00,0.0235
1621.00,0.0235
1620.00,0.0236
1619.00,0.0236
1618.00,0.0236
1617.00,0.0237
1616.00,0.0238
1615.00,0.0239
1614.00,0.0240
1613.00,0.0241
1612.00,0.0242
1611.00,0.0242
1610.00,0.0243
1609.00,0.0243
1608.00,0.0244
1607.00,0.0245
1606.00,0.0246
1605.00,0.0248
1604.00,0.0249
1603.00,0.0249
1602.00,0.0249
1601.00,0.0248
1600.00,0.0248
1599.00,0.0248
1598.00,0.0249
1597.00,0.0250
1596.00,0.0251
1595.00,0.0252
1594.00,0.0253
1593.00,0.0253
1592.00,0.0253
1591.00,0.0253
1590.00,0.0254
1589.00,0.0254
1588.00,0.0255
1587.00,0.0256
1586.00,0.0257
1585.00,0.0257
1584.00,0.0258
1583.00,0.0258
1582.00,0.0258
1581.00,0.0258
1580.00,0.0258
1579.00,0.0258
1578.00,0.0259
1577.00,0.0261
1576.00,0.0261
1575.00,0.0260
1574.00,0.0259
1573.00,0.0259
1572.00,0.0259
1571.00,0.0259
1570.00,0.0261
1569.00,0.0262
1568.00,0.0262
1567.00,0.0262
1566.00,0.0262
1565.00,0.0261
1564.00,0.0260
1563.00,0.0258
1562.00,0.0256
1561.00,0.0252
1560.00,0.0253
1559.00,0.0260
1558.00,0.0260
1557.00,0.0260
1556.00,0.0261
1555.00,0.0261
1554.00,0.0261
1553.00,0.0260
1552.00,0.0260
1551.00,0.0259
1550.00,0.0259
1549.00,0.0257
1548.00,0.0256
1547.00,0.0255
1546.00,0.0254
1545.00,0.0252
1544.00,0.0251
1543.00,0.0249
1542.00,0.0248
1541.00,0.0249
1540.00,0.0251
1539.00,0.0248
1538.00,0.0247
1537.00,0.0247
1536.00,0.0247
1535.00,0.0246
1534.00,0.0247
1533.00,0.0247
1532.00,0.0246
1531.00,0.0245
1530.00,0.0244
1529.00,0.0243
1528.00,0.0243
1527.00,0.0241
1526.00,0.0240
1525.00,0.0238
1524.00,0.0237
1523.00,0.0236
1522.00,0.0236
1521.00,0.0237
1520.00,0.0237
1519.00,0.0238
1518.00,0.0237
1517.00,0.0237
1516.00,0.0235
1515.00,0.0235
1514.00,0.0235
1513.00,0.0234
1512.00,0.0233
1511.00,0.0231
1510.00,0.0229
1509.00,0.0227
1508.00,0.0228
1507.00,0.0230
1506.00,0.0229
1505.00,0.0228
1504.00,0.0228
1503.00,0.0228
1502.00,0.0227
1501.00,0.0226
1500.00,0.0225
1499.00,0.0225
1498.00,0.0226
1497.00,0.0228
1496.00,0.0229
1495.00,0.0228
1494.00,0.0227
1493.00,0.0226
1492.00,0.0224
1491.00,0.0223
1490.00,0.0223
1489.00,0.0224
1488.00,0.0224
1487.00,0.0223
1486.00,0.0223
1485.00,0.0223
1484.00,0.0222
1483.00,0.0221
1482.00,0.0221
1481.00,0.0222
1480.00,0.0221
1479.00,0.0221
1478.00,0.0221
1477.00,0.0220
1476.00,0.0220
1475.00,0.0219
1474.00,0.0219
1473.00,0.0221
1472.00,0.0222
1471.00,0.0223
1470.00,0.0224
1469.00,0.0225
1468.00,0.0225
1467.00,0.0225
1466.00,0.0224
1465.00,0.0224
1464.00,0.0223
1463.00,0.0222
1462.00,0.0221
1461.00,0.0219
1460.00,0.0218
1459.00,0.0217
1458.00,0.0219
1457.00,0.0222
1456.00,0.0223
1455.00,0.0223
1454.00,0.0223
1453.00,0.0223
1452.00,0.0224
1451.00,0.0224
1450.00,0.0225
1449.00,0.0226
1448.00,0.0227
1447.00,0.0228
1446.00,0.0229
1445.00,0.0229
1444.00,0.0228
1443.00,0.0228
1442.00,0.0227
1441.00,0.0227
1440.00,0.0227
1439.00,0.0229
1438.00,0.0230
1437.00,0.0233
1436.00,0.0233
1435.00,0.0232
1434.00,0.0231
1433.00,0.0230
1432.00,0.0230
1431.00,0.0229
1430.00,0.0229
1429.00,0.0229
1428.00,0.0228
1427.00,0.0228
1426.00,0.0229
1425.00,0.0229
1424.00,0.0229
1423.00,0.0230
1422.00,0.0230
1421.00,0.0230
1420.00,0.0232
1419.00,0.0234
1418.00,0.0235
1417.00,0.0236
1416.00,0.0236
1415.00,0.0236
1414.00,0.0234
1413.00,0.0233
1412.00,0.0232
1411.00,0.0232
1410.00,0.0232
1409.00,0.0231
1408.00,0.0232
1407.00,0.0232
1406.00,0.0231
1405.00,0.0231
1404.00,0.0231
1403.00,0.0230
1402.00,0.0230
1401.00,0.0229
1400.00,0.0228
1399.00,0.0228
1398.00,0.0228
1397.00,0.0228
1396.00,0.0229
1395.00,0.0230
1394.00,0.0230
1393.00,0.0229
1392.00,0.0229
1391.00,0.0229
1390.00,0.0229
1389.00,0.0229
1388.00,0.0230
1387.00,0.0231
1386.00,0.0231
1385.00,0.0230
1384.00,0.0229
1383.00,0.0229
1382.00,0.0229
1381.00,0.0230
1380.00,0.0232
1379.00,0.0233
1378.00,0.0233
1377.00,0.0234
1376.00,0.0235
1375.00,0.0236
1374.00,0.0237
1373.00,0.0238
1372.00,0.0239
1371.00,0.0240
1370.00,0.0240
1369.00,0.0240
1368.00,0.0240
1367.00,0.0240
1366.00,0.0240
1365.00,0.0239
1364.00,0.0239
1363.00,0.0240
1362.00,0.0242
1361.00,0.0243
1360.00,0.0243
1359.00,0.0243
1358.00,0.0243
1357.00,0.0244
1356.00,0.0244
1355.00,0.0245
1354.00,0.0245
1353.00,0.0244
1352.00,0.0244
1351.00,0.0243
1350.00,0.0243
1349.00,0.0243
1348.00,0.0243
1347.00,0.0243
1346.00,0.0243
1345.00,0.0243
1344.00,0.0242
1343.00,0.0242
1342.00,0.0241
1341.00,0.0242
1340.00,0.0243
1339.00,0.0244
1338.00,0.0245
1337.00,0.0245
1336.00,0.0244
1335.00,0.0244
1334.00,0.0244
1333.00,0.0243
1332.00,0.0243
1331.00,0.0243
1330.00,0.0243
1329.00,0.0243
1328.00,0.0243
1327.00,0.0243
1326.00,0.0243
1325.00,0.0243
1324.00,0.0244
1323.00,0.0245
1322.00,0.0246
1321.00,0.0246
1320.00,0.0246
1319.00,0.0246
1318.00,0.0245
1317.00,0.0243
1316.00,0.0243
1315.00,0.0243
1314.00,0.0244
1313.00,0.0245
1312.00,0.0246
1311.00,0.0247
1310.00,0.0247
1309.00,0.0248
1308.00,0.0247
1307.00,0.0246
1306.00,0.0246
1305.00,0.0246
1304.00,0.0246
1303.00,0.0248
1302.00,0.0249
1301.00,0.0249
1300.00,0.0249
1299.00,0.0249
1298.00,0.0248
1297.00,0.0247
1296.00,0.0247
1295.00,0.0247
1294.00,0.0247
1293.00,0.0248
1292.00,0.0249
1291.00,0.0250
1290.00,0.0251
1289.00,0.0251
1288.00,0.0252
1287.00,0.0252
1286.00,0.0252
1285.00,0.0252
1284.00,0.0252
1283.00,0.0252
1282.00,0.0253
1281.00,0.0252
1280.00,0.0251
1279.00,0.0251
1278.00,0.0250
1277.00,0.0250
1276.00,0.0250
1275.00,0.0250
1274.00,0.0251
1273.00,0.0251
1272.00,0.0251
1271.00,0.0251
1270.00,0.0251
1269.00,0.0251
1268.00,0.0251
1267.00,0.0251
1266.00,0.0252
1265.00,0.0253
1264.00,0.0253
1263.00,0.0252
1262.00,0.0252
1261.00,0.0251
1260.00,0.0252
1259.00,0.0253
1258.00,0.0254
1257.00,0.0254
1256.00,0.0253
1255.00,0.0253
1254.00,0.0253
1253.00,0.0253
1252.00,0.0254
1251.00,0.0254
1250.00,0.0254
1249.00,0.0254
1248.00,0.0254
1247.00,0.0255
1246.00,0.0256
1245.00,0.0256
1244.00,0.0257
1243.00,0.0257
1242.00,0.0257
1241.00,0.0257
1240.00,0.0257
1239.00,0.0257
1238.00,0.0258
1237.00,0.0259
1236.00,0.0260
1235.00,0.0261
1234.00,0.0261
1233.00,0.0261
1232.00,0.0261
1231.00,0.0261
1230.00,0.0260
1229.00,0.0261
1228.00,0.0261
1227.00,0.0262
1226.00,0.0262
1225.00,0.0262
1224.00,0.0261
1223.00,0.0262
1222.00,0.0262
1221.00,0.0263
1220.00,0.0264
1219.00,0.0264
1218.00,0.0263
1217.00,0.0263
1216.00,0.0264
1215.00,0.0264
1214.00,0.0263
1213.00,0.0264
1212.00,0.0265
1211.00,0.0266
1210.00,0.0267
1209.00,0.0267
1208.00,0.0267
1207.00,0.0266
1206.00,0.0265
1205.00,0.0265
1204.00,0.0265
1203.00,0.0265
1202.00,0.0265
1201.00,0.0265
1200.00,0.0265
1199.00,0.0266
1198.00,0.0266
1197.00,0.0266
1196.00,0.0265
1195.00,0.0265
1194.00,0.0265
1193.00,0.0265
1192.00,0.0265
1191.00,0.0265
1190.00,0.0264
1189.00,0.0263
1188.00,0.0262
1187.00,0.0262
1186.00,0.0261
1185.00,0.0261
1184.00,0.0261
1183.00,0.0260
1182.00,0.0259
1181.00,0.0259
1180.00,0.0258
1179.00,0.0257
1178.00,0.0257
1177.00,0.0256
1176.00,0.0256
1175.00,0.0257
1174.00,0.0257
1173.00,0.0257
1172.00,0.0256
1171.00,0.0255
1170.00,0.0254
1169.00,0.0254
1168.00,0.0254
1167.00,0.0254
1166.00,0.0254
1165.00,0.0254
1164.00,0.0253
1163.00,0.0253
1162.00,0.0253
1161.00,0.0252
1160.00,0.0252
1159.00,0.0252
1158.00,0.0251
1157.00,0.0251
1156.00,0.0251
1155.00,0.0252
1154.00,0.0253
1153.00,0.0253
1152.00,0.0252
1151.00,0.0250
1150.00,0.0249
1149.00,0.0248
1148.00,0.0248
1147.00,0.0249
1146.00,0.0249
1145.00,0.0250
1144.00,0.0250
1143.00,0.0251
1142.00,0.0252
1141.00,0.0252
1140.00,0.0252
1139.00,0.0252
1138.00,0.0251
1137.00,0.0251
1136.00,0.0251
1135.00,0.0252
1134.00,0.0252
1133.00,0.0253
1132.00,0.0253
1131.00,0.0253
1130.00,0.0254
1129.00,0.0255
1128.00,0.0255
1127.00,0.0255
1126.00,0.0253
1125.00,0.0250
1124.00,0.0250
1123.00,0.0251
1122.00,0.0254
1121.00,0.0256
1120.00,0.0258
1119.00,0.0259
1118.00,0.0259
1117.00,0.0259
1116.00,0.0259
1115.00,0.0260
1114.00,0.0261
1113.00,0.0260
1112.00,0.0259
1111.00,0.0258
1110.00,0.0258
1109.00,0.0258
1108.00,0.0257
1107.00,0.0256
1106.00,0.0255
1105.00,0.0254
1104.00,0.0255
1103.00,0.0256
1102.00,0.0258
1101.00,0.0258
1100.00,0.0258
1099.00,0.0258
1098.00,0.0257
1097.00,0.0257
1096.00,0.0256
1095.00,0.0255
1094.00,0.0255
1093.00,0.0254
1092.00,0.0255
1091.00,0.0255
1090.00,0.0254
1089.00,0.0252
1088.00,0.0250
1087.00,0.0250
1086.00,0.0252
1085.00,0.0253
1084.00,0.0254
1083.00,0.0255
1082.00,0.0255
1081.00,0.0256
1080.00,0.0256
1079.00,0.0258
1078.00,0.0261
1077.00,0.0263
1076.00,0.0263
1075.00,0.0260
1074.00,0.0257
1073.00,0.0256
1072.00,0.0256
1071.00,0.0256
1070.00,0.0254
1069.00,0.0252
1068.00,0.0251
1067.00,0.0251
1066.00,0.0253
1065.00,0.0256
1064.00,0.0258
1063.00,0.0260
1062.00,0.0259
1061.00,0.0257
1060.00,0.0255
1059.00,0.0254
1058.00,0.0255
1057.00,0.0257
1056.00,0.0259
1055.00,0.0260
1054.00,0.0261
1053.00,0.0263
1052.00,0.0264
1051.00,0.0264
1050.00,0.0264
1049.00,0.0264
1048.00,0.0265
1047.00,0.0265
1046.00,0.0265
1045.00,0.0265
1044.00,0.0267
1043.00,0.0267
1042.00,0.0266
1041.00,0.0264
1040.00,0.0263
1039.00,0.0262
1038.00,0.0263
1037.00,0.0263
1036.00,0.0262
1035.00,0.0262
1034.00,0.0261
1033.00,0.0262
1032.00,0.0263
1031.00,0.0263
1030.00,0.0261
1029.00,0.0259
1028.00,0.0258
1027.00,0.0259
1026.00,0.0260
1025.00,0.0261
1024.00,0.0262
1023.00,0.0262
1022.00,0.0260
1021.00,0.0259
1020.00,0.0257
1019.00,0.0257
1018.00,0.0256
1017.00,0.0257
1016.00,0.0257
1015.00,0.0259
1014.00,0.0259
1013.00,0.0259
1012.00,0.0258
1011.00,0.0257
1010.00,0.0256
1009.00,0.0255
1008.00,0.0255
1007.00,0.0254
1006.00,0.0253
1005.00,0.0253
1004.00,0.0253
1003.00,0.0254
1002.00,0.0254
1001.00,0.0253
1000.00,0.0251
999.00,0.0248
998.00,0.0246
997.00,0.0245
996.00,0.0246
995.00,0.0247
994.00,0.0247
993.00,0.0245
992.00,0.0243
991.00,0.0241
990.00,0.0240
989.00,0.0240
988.00,0.0240
987.00,0.0242
986.00,0.0243
985.00,0.0244
984.00,0.0244
983.00,0.0242
982.00,0.0240
981.00,0.0239
980.00,0.0239
979.00,0.0239
978.00,0.0238
977.00,0.0235
976.00,0.0233
975.00,0.0231
974.00,0.0231
973.00,0.0231
972.00,0.0231
971.00,0.0230
970.00,0.0228
969.00,0.0226
968.00,0.0225
967.00,0.0224
966.00,0.0223
965.00,0.0221
964.00,0.0220
963.00,0.0220
962.00,0.0221
961.00,0.0221
960.00,0.0220
959.00,0.0220
958.00,0.0220
957.00,0.0220
956.00,0.0220
955.00,0.0219
954.00,0.0218
953.00,0.0217
952.00,0.0217
951.00,0.0218
950.00,0.0219
949.00,0.0220
948.00,0.0220
947.00,0.0218
946.00,0.0217
945.00,0.0215
944.00,0.0215
943.00,0.0214
942.00,0.0214
941.00,0.0214
940.00,0.0216
939.00,0.0218
938.00,0.0220
937.00,0.0220
936.00,0.0218
935.00,0.0217
934.00,0.0216
933.00,0.0218
932.00,0.0221
931.00,0.0224
930.00,0.0225
929.00,0.0226
928.00,0.0226
927.00,0.0227
926.00,0.0228
925.00,0.0228
924.00,0.0228
923.00,0.0228
922.00,0.0229
921.00,0.0229
920.00,0.0230
919.00,0.0230
918.00,0.0231
917.00,0.0232
916.00,0.0233
915.00,0.0235
914.00,0.0235
913.00,0.0234
912.00,0.0233
911.00,0.0233
910.00,0.0232
909.00,0.0230
908.00,0.0227
907.00,0.0226
906.00,0.0226
905.00,0.0229
904.00,0.0232
903.00,0.0236
902.00,0.0238
901.00,0.0239
900.00,0.0238
899.00,0.0237
898.00,0.0238
897.00,0.0239
896.00,0.0240
895.00,0.0240
894.00,0.0240
893.00,0.0239
892.00,0.0237
891.00,0.0236
890.00,0.0236
889.00,0.0237
888.00,0.0239
887.00,0.0239
886.00,0.0237
885.00,0.0235
884.00,0.0235
883.00,0.0238
882.00,0.0241
881.00,0.0243
880.00,0.0243
879.00,0.0241
878.00,0.0239
877.00,0.0236
876.00,0.0234
875.00,0.0233
874.00,0.0233
873.00,0.0232
872.00,0.0232
871.00,0.0232
870.00,0.0233
869.00,0.0233
868.00,0.0232
867.00,0.0232
866.00,0.0232
865.00,0.0233
864.00,0.0235
863.00,0.0236
862.00,0.0236
861.00,0.0237
860.00,0.0236
859.00,0.0235
858.00,0.0232
857.00,0.0229
856.00,0.0229
855.00,0.0231
854.00,0.0234
853.00,0.0236
852.00,0.0236
851.00,0.0235
850.00,0.0236
849.00,0.0237
848.00,0.0239
847.00,0.0241
846.00,0.0243
845.00,0.0245
844.00,0.0246
843.00,0.0246
842.00,0.0245
841.00,0.0243
840.00,0.0240
839.00,0.0238
838.00,0.0236
837.00,0.0236
836.00,0.0237
835.00,0.0237
834.00,0.0237
833.00,0.0237
832.00,0.0237
831.00,0.0237
830.00,0.0236
829.00,0.0235
828.00,0.0236
827.00,0.0237
826.00,0.0240
825.00,0.0243
824.00,0.0245
823.00,0.0246
822.00,0.0246
821.00,0.0246
820.00,0.0247
819.00,0.0249
818.00,0.0250
817.00,0.0249
816.00,0.0246
815.00,0.0245
814.00,0.0246
813.00,0.0248
812.00,0.0249
811.00,0.0250
810.00,0.0250
809.00,0.0250
808.00,0.0250
807.00,0.0250
806.00,0.0249
805.00,0.0248
804.00,0.0248
803.00,0.0247
802.00,0.0247
801.00,0.0249
800.00,0.0251
799.00,0.0253
798.00,0.0253
797.00,0.0252
796.00,0.0250
795.00,0.0249
794.00,0.0249
793.00,0.0249
792.00,0.0250
791.00,0.0254
790.00,0.0257
789.00,0.0258
788.00,0.0258
787.00,0.0257
786.00,0.0259
785.00,0.0262
784.00,0.0264
783.00,0.0264
782.00,0.0262
781.00,0.0260
780.00,0.0258
779.00,0.0258
778.00,0.0260
777.00,0.0263
776.00,0.0265
775.00,0.0266
774.00,0.0265
773.00,0.0263
772.00,0.0261
771.00,0.0260
770.00,0.0260
769.00,0.0260
768.00,0.0261
767.00,0.0261
766.00,0.0261
765.00,0.0261
764.00,0.0262
763.00,0.0263
762.00,0.0262
761.00,0.0259
760.00,0.0258
759.00,0.0260
758.00,0.0263
757.00,0.0266
756.00,0.0267
755.00,0.0266
754.00,0.0264
753.00,0.0262
752.00,0.0262
751.00,0.0264
750.00,0.0267
749.00,0.0270
748.00,0.0272
747.00,0.0272
746.00,0.0271
745.00,0.0269
744.00,0.0266
743.00,0.0264
742.00,0.0264
741.00,0.0263
740.00,0.0262
739.00,0.0260
738.00,0.0259
737.00,0.0258
736.00,0.0257
735.00,0.0256
734.00,0.0256
733.00,0.0257
732.00,0.0258
731.00,0.0259
730.00,0.0260
729.00,0.0263
728.00,0.0265
727.00,0.0266
726.00,0.0266
725.00,0.0265
724.00,0.0263
723.00,0.0262
722.00,0.0262
721.00,0.0262
720.00,0.0262
719.00,0.0262
718.00,0.0263
717.00,0.0263
716.00,0.0262
715.00,0.0260
714.00,0.0258
713.00,0.0258
712.00,0.0259
711.00,0.0260
710.00,0.0260
709.00,0.0260
708.00,0.0261
707.00,0.0262
706.00,0.0263
705.00,0.0265
704.00,0.0268
703.00,0.0270
702.00,0.0269
701.00,0.0267
700.00,0.0264
699.00,0.0264
698.00,0.0266
697.00,0.0268
696.00,0.0269
695.00,0.0269
694.00,0.0271
693.00,0.0274
692.00,0.0277
691.00,0.0279
690.00,0.0280
689.00,0.0280
688.00,0.0278
687.00,0.0276
686.00,0.0273
685.00,0.0272
684.00,0.0270
683.00,0.0268
682.00,0.0266
681.00,0.0264
680.00,0.0264
679.00,0.0266
678.00,0.0268
677.00,0.0270
676.00,0.0272
675.00,0.0273
674.00,0.0272
673.00,0.0272
672.00,0.0273
671.00,0.0276
670.00,0.0279
669.00,0.0282
668.00,0.0284
667.00,0.0286
666.00,0.0286
665.00,0.0286
664.00,0.0285
663.00,0.0282
662.00,0.0277
661.00,0.0271
660.00,0.0265
659.00,0.0263
658.00,0.0266
657.00,0.0273
656.00,0.0279
655.00,0.0283
654.00,0.0269
653.00,0.0259
652.00,0.0256
651.00,0.0255
650.00,0.0259
