Created as New Dataset,Monday, April 03 2023
cm-1,A
4000.00,0.0070
3999.00,0.0070
3998.00,0.0070
3997.00,0.0070
3996.00,0.0070
3995.00,0.0069
3994.00,0.0069
3993.00,0.0069
3992.00,0.0069
3991.00,0.0069
3990.00,0.0069
3989.00,0.0069
3988.00,0.0068
3987.00,0.0068
3986.00,0.0068
3985.00,0.0068
3984.00,0.0068
3983.00,0.0068
3982.00,0.0068
3981.00,0.0068
3980.00,0.0068
3979.00,0.0068
3978.00,0.0067
3977.00,0.0067
3976.00,0.0067
3975.00,0.0067
3974.00,0.0067
3973.00,0.0067
3972.00,0.0068
3971.00,0.0068
3970.00,0.0069
3969.00,0.0069
3968.00,0.0068
3967.00,0.0068
3966.00,0.0067
3965.00,0.0067
3964.00,0.0068
3963.00,0.0068
3962.00,0.0069
3961.00,0.0068
3960.00,0.0068
3959.00,0.0067
3958.00,0.0067
3957.00,0.0067
3956.00,0.0067
3955.00,0.0066
3954.00,0.0065
3953.00,0.0065
3952.00,0.0065
3951.00,0.0066
3950.00,0.0067
3949.00,0.0067
3948.00,0.0067
3947.00,0.0067
3946.00,0.0067
3945.00,0.0067
3944.00,0.0066
3943.00,0.0065
3942.00,0.0064
3941.00,0.0064
3940.00,0.0065
3939.00,0.0066
3938.00,0.0066
3937.00,0.0066
3936.00,0.0066
3935.00,0.0066
3934.00,0.0065
3933.00,0.0065
3932.00,0.0065
3931.00,0.0065
3930.00,0.0065
3929.00,0.0065
3928.00,0.0066
3927.00,0.0066
3926.00,0.0066
3925.00,0.0066
3924.00,0.0065
3923.00,0.0065
3922.00,0.0065
3921.00,0.0065
3920.00,0.0065
3919.00,0.0065
3918.00,0.0065
3917.00,0.0065
3916.00,0.0064
3915.00,0.0064
3914.00,0.0064
3913.00,0.0064
3912.00,0.0064
3911.00,0.0064
3910.00,0.0064
3909.00,0.0064
3908.00,0.0064
3907.00,0.0064
3906.00,0.0063
3905.00,0.0063
3904.00,0.0063
3903.00,0.0063
3902.00,0.0064
3901.00,0.0065
3900.00,0.0065
3899.00,0.0064
3898.00,0.0063
3897.00,0.0063
3896.00,0.0063
3895.00,0.0064
3894.00,0.0064
3893.00,0.0064
3892.00,0.0063
3891.00,0.0062
3890.00,0.0061
3889.00,0.0061
3888.00,0.0062
3887.00,0.0062
3886.00,0.0062
3885.00,0.0061
3884.00,0.0061
3883.00,0.0062
3882.00,0.0062
3881.00,0.0060
3880.00,0.0059
3879.00,0.0059
3878.00,0.0062
3877.00,0.0064
3876.00,0.0065
3875.00,0.0064
3874.00,0.0062
3873.00,0.0061
3872.00,0.0062
3871.00,0.0063
3870.00,0.0062
3869.00,0.0061
3868.00,0.0062
3867.00,0.0063
3866.00,0.0063
3865.00,0.0063
3864.00,0.0063
3863.00,0.0063
3862.00,0.0064
3861.00,0.0064
3860.00,0.0063
3859.00,0.0062
3858.00,0.0061
3857.00,0.0059
3856.00,0.0059
3855.00,0.0059
3854.00,0.0061
3853.00,0.0061
3852.00,0.0060
3851.00,0.0060
3850.00,0.0061
3849.00,0.0061
3848.00,0.0060
3847.00,0.0060
3846.00,0.0061
3845.00,0.0061
3844.00,0.0061
3843.00,0.0061
3842.00,0.0061
3841.00,0.0062
3840.00,0.0063
3839.00,0.0063
3838.00,0.0062
3837.00,0.0061
3836.00,0.0061
3835.00,0.0061
3834.00,0.0062
3833.00,0.0063
3832.00,0.0062
3831.00,0.0062
3830.00,0.0062
3829.00,0.0062
3828.00,0.0062
3827.00,0.0061
3826.00,0.0060
3825.00,0.0060
3824.00,0.0061
3823.00,0.0063
3822.00,0.0064
3821.00,0.0062
3820.00,0.0061
3819.00,0.0061
3818.00,0.0062
3817.00,0.0062
3816.00,0.0061
3815.00,0.0060
3814.00,0.0060
3813.00,0.0061
3812.00,0.0061
3811.00,0.0059
3810.00,0.0058
3809.00,0.0059
3808.00,0.0059
3807.00,0.0060
3806.00,0.0060
3805.00,0.0061
3804.00,0.0064
3803.00,0.0065
3802.00,0.0064
3801.00,0.0061
3800.00,0.0060
3799.00,0.0060
3798.00,0.0060
3797.00,0.0059
3796.00,0.0059
3795.00,0.0058
3794.00,0.0059
3793.00,0.0059
3792.00,0.0059
3791.00,0.0058
3790.00,0.0058
3789.00,0.0058
3788.00,0.0059
3787.00,0.0059
3786.00,0.0060
3785.00,0.0060
3784.00,0.0059
3783.00,0.0059
3782.00,0.0059
3781.00,0.0058
3780.00,0.0058
3779.00,0.0057
3778.00,0.0057
3777.00,0.0057
3776.00,0.0058
3775.00,0.0058
3774.00,0.0057
3773.00,0.0057
3772.00,0.0057
3771.00,0.0057
3770.00,0.0056
3769.00,0.0055
3768.00,0.0055
3767.00,0.0056
3766.00,0.0057
3765.00,0.0057
3764.00,0.0057
3763.00,0.0057
3762.00,0.0058
3761.00,0.0059
3760.00,0.0059
3759.00,0.0058
3758.00,0.0057
3757.00,0.0055
3756.00,0.0055
3755.00,0.0055
3754.00,0.0055
3753.00,0.0055
3752.00,0.0057
3751.00,0.0058
3750.00,0.0058
3749.00,0.0058
3748.00,0.0059
3747.00,0.0060
3746.00,0.0060
3745.00,0.0058
3744.00,0.0055
3743.00,0.0054
3742.00,0.0056
3741.00,0.0058
3740.00,0.0058
3739.00,0.0058
3738.00,0.0058
3737.00,0.0058
3736.00,0.0057
3735.00,0.0055
3734.00,0.0055
3733.00,0.0054
3732.00,0.0054
3731.00,0.0054
3730.00,0.0055
3729.00,0.0055
3728.00,0.0056
3727.00,0.0055
3726.00,0.0054
3725.00,0.0054
3724.00,0.0053
3723.00,0.0053
3722.00,0.0053
3721.00,0.0054
3720.00,0.0054
3719.00,0.0055
3718.00,0.0054
3717.00,0.0054
3716.00,0.0054
3715.00,0.0055
3714.00,0.0056
3713.00,0.0058
3712.00,0.0058
3711.00,0.0058
3710.00,0.0056
3709.00,0.0056
3708.00,0.0056
3707.00,0.0057
3706.00,0.0059
3705.00,0.0060
3704.00,0.0060
3703.00,0.0059
3702.00,0.0058
3701.00,0.0057
3700.00,0.0057
3699.00,0.0058
3698.00,0.0058
3697.00,0.0058
3696.00,0.0058
3695.00,0.0057
3694.00,0.0057
3693.00,0.0057
3692.00,0.0059
3691.00,0.0061
3690.00,0.0063
3689.00,0.0063
3688.00,0.0062
3687.00,0.0060
3686.00,0.0060
3685.00,0.0060
3684.00,0.0060
3683.00,0.0059
3682.00,0.0058
3681.00,0.0058
3680.00,0.0056
3679.00,0.0055
3678.00,0.0056
3677.00,0.0057
3676.00,0.0057
3675.00,0.0056
3674.00,0.0056
3673.00,0.0059
3672.00,0.0061
3671.00,0.0063
3670.00,0.0063
3669.00,0.0063
3668.00,0.0063
3667.00,0.0064
3666.00,0.0065
3665.00,0.0065
3664.00,0.0066
3663.00,0.0066
3662.00,0.0067
3661.00,0.0068
3660.00,0.0069
3659.00,0.0071
3658.00,0.0073
3657.00,0.0075
3656.00,0.0075
3655.00,0.0076
3654.00,0.0076
3653.00,0.0077
3652.00,0.0077
3651.00,0.0078
3650.00,0.0080
3649.00,0.0082
3648.00,0.0083
3647.00,0.0084
3646.00,0.0085
3645.00,0.0087
3644.00,0.0089
3643.00,0.0090
3642.00,0.0091
3641.00,0.0091
3640.00,0.0092
3639.00,0.0094
3638.00,0.0095
3637.00,0.0096
3636.00,0.0098
3635.00,0.0099
3634.00,0.0099
3633.00,0.0099
3632.00,0.0099
3631.00,0.0101
3630.00,0.0104
3629.00,0.0107
3628.00,0.0110
3627.00,0.0111
3626.00,0.0112
3625.00,0.0112
3624.00,0.0111
3623.00,0.0111
3622.00,0.0112
3621.00,0.0114
3620.00,0.0117
3619.00,0.0119
3618.00,0.0120
3617.00,0.0120
3616.00,0.0121
3615.00,0.0121
3614.00,0.0122
3613.00,0.0122
3612.00,0.0122
3611.00,0.0124
3610.00,0.0126
3609.00,0.0128
3608.00,0.0130
3607.00,0.0131
3606.00,0.0131
3605.00,0.0131
3604.00,0.0131
3603.00,0.0131
3602.00,0.0133
3601.00,0.0135
3600.00,0.0136
3599.00,0.0137
3598.00,0.0136
3597.00,0.0137
3596.00,0.0137
3595.00,0.0138
3594.00,0.0138
3593.00,0.0138
3592.00,0.0138
3591.00,0.0137
3590.00,0.0138
3589.00,0.0140
3588.00,0.0142
3587.00,0.0145
3586.00,0.0146
3585.00,0.0148
3584.00,0.0149
3583.00,0.0149
3582.00,0.0149
3581.00,0.0149
3580.00,0.0149
3579.00,0.0150
3578.00,0.0151
3577.00,0.0151
3576.00,0.0152
3575.00,0.0153
3574.00,0.0154
3573.00,0.0155
3572.00,0.0155
3571.00,0.0154
3570.00,0.0153
3569.00,0.0154
3568.00,0.0156
3567.00,0.0160
3566.00,0.0162
3565.00,0.0163
3564.00,0.0163
3563.00,0.0163
3562.00,0.0163
3561.00,0.0164
3560.00,0.0164
3559.00,0.0165
3558.00,0.0166
3557.00,0.0168
3556.00,0.0169
3555.00,0.0171
3554.00,0.0171
3553.00,0.0172
3552.00,0.0172
3551.00,0.0173
3550.00,0.0173
3549.00,0.0174
3548.00,0.0175
3547.00,0.0176
3546.00,0.0178
3545.00,0.0179
3544.00,0.0180
3543.00,0.0181
3542.00,0.0181
3541.00,0.0181
3540.00,0.0181
3539.00,0.0180
3538.00,0.0180
3537.00,0.0180
3536.00,0.0181
3535.00,0.0182
3534.00,0.0184
3533.00,0.0185
3532.00,0.0186
3531.00,0.0187
3530.00,0.0187
3529.00,0.0187
3528.00,0.0187
3527.00,0.0187
3526.00,0.0188
3525.00,0.0190
3524.00,0.0193
3523.00,0.0194
3522.00,0.0195
3521.00,0.0195
3520.00,0.0194
3519.00,0.0193
3518.00,0.0193
3517.00,0.0193
3516.00,0.0193
3515.00,0.0194
3514.00,0.0195
3513.00,0.0196
3512.00,0.0198
3511.00,0.0199
3510.00,0.0199
3509.00,0.0199
3508.00,0.0200
3507.00,0.0200
3506.00,0.0201
3505.00,0.0203
3504.00,0.0204
3503.00,0.0205
3502.00,0.0206
3501.00,0.0206
3500.00,0.0206
3499.00,0.0207
3498.00,0.0208
3497.00,0.0209
3496.00,0.0209
3495.00,0.0209
3494.00,0.0209
3493.00,0.0209
3492.00,0.0209
3491.00,0.0209
3490.00,0.0209
3489.00,0.0210
3488.00,0.0210
3487.00,0.0211
3486.00,0.0211
3485.00,0.0211
3484.00,0.0212
3483.00,0.0213
3482.00,0.0214
3481.00,0.0215
3480.00,0.0216
3479.00,0.0216
3478.00,0.0217
3477.00,0.0217
3476.00,0.0218
3475.00,0.0219
3474.00,0.0219
3473.00,0.0220
3472.00,0.0220
3471.00,0.0221
3470.00,0.0221
3469.00,0.0222
3468.00,0.0222
3467.00,0.0222
3466.00,0.0223
3465.00,0.0224
3464.00,0.0225
3463.00,0.0225
3462.00,0.0224
3461.00,0.0224
3460.00,0.0224
3459.00,0.0226
3458.00,0.0227
3457.00,0.0228
3456.00,0.0228
3455.00,0.0228
3454.00,0.0227
3453.00,0.0228
3452.00,0.0229
3451.00,0.0229
3450.00,0.0230
3449.00,0.0230
3448.00,0.0230
3447.00,0.0231
3446.00,0.0231
3445.00,0.0232
3444.00,0.0232
3443.00,0.0233
3442.00,0.0233
3441.00,0.0232
3440.00,0.0232
3439.00,0.0232
3438.00,0.0232
3437.00,0.0233
3436.00,0.0233
3435.00,0.0234
3434.00,0.0234
3433.00,0.0234
3432.00,0.0235
3431.00,0.0236
3430.00,0.0236
3429.00,0.0236
3428.00,0.0236
3427.00,0.0237
3426.00,0.0237
3425.00,0.0238
3424.00,0.0239
3423.00,0.0240
3422.00,0.0241
3421.00,0.0241
3420.00,0.0241
3419.00,0.0242
3418.00,0.0242
3417.00,0.0242
3416.00,0.0242
3415.00,0.0241
3414.00,0.0241
3413.00,0.0241
3412.00,0.0242
3411.00,0.0243
3410.00,0.0244
3409.00,0.0245
3408.00,0.0245
3407.00,0.0246
3406.00,0.0246
3405.00,0.0246
3404.00,0.0246
3403.00,0.0245
3402.00,0.0245
3401.00,0.0246
3400.00,0.0246
3399.00,0.0246
3398.00,0.0246
3397.00,0.0246
3396.00,0.0246
3395.00,0.0246
3394.00,0.0246
3393.00,0.0247
3392.00,0.0248
3391.00,0.0248
3390.00,0.0249
3389.00,0.0249
3388.00,0.0249
3387.00,0.0248
3386.00,0.0248
3385.00,0.0248
3384.00,0.0249
3383.00,0.0250
3382.00,0.0251
3381.00,0.0251
3380.00,0.0252
3379.00,0.0252
3378.00,0.0252
3377.00,0.0252
3376.00,0.0252
3375.00,0.0252
3374.00,0.0252
3373.00,0.0251
3372.00,0.0251
3371.00,0.0250
3370.00,0.0250
3369.00,0.0251
3368.00,0.0252
3367.00,0.0252
3366.00,0.0252
3365.00,0.0251
3364.00,0.0251
3363.00,0.0251
3362.00,0.0252
3361.00,0.0254
3360.00,0.0255
3359.00,0.0255
3358.00,0.0255
3357.00,0.0254
3356.00,0.0254
3355.00,0.0254
3354.00,0.0254
3353.00,0.0254
3352.00,0.0254
3351.00,0.0254
3350.00,0.0254
3349.00,0.0254
3348.00,0.0254
3347.00,0.0254
3346.00,0.0253
3345.00,0.0253
3344.00,0.0253
3343.00,0.0253
3342.00,0.0253
3341.00,0.0254
3340.00,0.0254
3339.00,0.0254
3338.00,0.0254
3337.00,0.0254
3336.00,0.0254
3335.00,0.0254
3334.00,0.0254
3333.00,0.0254
3332.00,0.0253
3331.00,0.0253
3330.00,0.0252
3329.00,0.0251
3328.00,0.0252
3327.00,0.0252
3326.00,0.0253
3325.00,0.0254
3324.00,0.0255
3323.00,0.0255
3322.00,0.0255
3321.00,0.0254
3320.00,0.0253
3319.00,0.0253
3318.00,0.0253
3317.00,0.0253
3316.00,0.0253
3315.00,0.0253
3314.00,0.0253
3313.00,0.0253
3312.00,0.0253
3311.00,0.0253
3310.00,0.0253
3309.00,0.0254
3308.00,0.0254
3307.00,0.0255
3306.00,0.0254
3305.00,0.0254
3304.00,0.0253
3303.00,0.0253
3302.00,0.0253
3301.00,0.0253
3300.00,0.0253
3299.00,0.0253
3298.00,0.0253
3297.00,0.0254
3296.00,0.0254
3295.00,0.0255
3294.00,0.0255
3293.00,0.0254
3292.00,0.0254
3291.00,0.0253
3290.00,0.0253
3289.00,0.0253
3288.00,0.0254
3287.00,0.0254
3286.00,0.0254
3285.00,0.0255
3284.00,0.0255
3283.00,0.0255
3282.00,0.0255
3281.00,0.0254
3280.00,0.0254
3279.00,0.0254
3278.00,0.0254
3277.00,0.0254
3276.00,0.0254
3275.00,0.0254
3274.00,0.0254
3273.00,0.0255
3272.00,0.0255
3271.00,0.0256
3270.00,0.0256
3269.00,0.0257
3268.00,0.0257
3267.00,0.0256
3266.00,0.0256
3265.00,0.0254
3264.00,0.0253
3263.00,0.0253
3262.00,0.0253
3261.00,0.0253
3260.00,0.0254
3259.00,0.0254
3258.00,0.0254
3257.00,0.0254
3256.00,0.0253
3255.00,0.0253
3254.00,0.0254
3253.00,0.0254
3252.00,0.0254
3251.00,0.0254
3250.00,0.0254
3249.00,0.0254
3248.00,0.0254
3247.00,0.0254
3246.00,0.0254
3245.00,0.0254
3244.00,0.0254
3243.00,0.0254
3242.00,0.0254
3241.00,0.0254
3240.00,0.0254
3239.00,0.0254
3238.00,0.0254
3237.00,0.0255
3236.00,0.0256
3235.00,0.0257
3234.00,0.0257
3233.00,0.0257
3232.00,0.0256
3231.00,0.0255
3230.00,0.0255
3229.00,0.0254
3228.00,0.0253
3227.00,0.0253
3226.00,0.0253
3225.00,0.0253
3224.00,0.0252
3223.00,0.0253
3222.00,0.0253
3221.00,0.0253
3220.00,0.0253
3219.00,0.0253
3218.00,0.0253
3217.00,0.0253
3216.00,0.0253
3215.00,0.0254
3214.00,0.0254
3213.00,0.0253
3212.00,0.0253
3211.00,0.0252
3210.00,0.0251
3209.00,0.0251
3208.00,0.0251
3207.00,0.0251
3206.00,0.0252
3205.00,0.0252
3204.00,0.0253
3203.00,0.0253
3202.00,0.0253
3201.00,0.0253
3200.00,0.0252
3199.00,0.0253
3198.00,0.0253
3197.00,0.0253
3196.00,0.0252
3195.00,0.0252
3194.00,0.0251
3193.00,0.0251
3192.00,0.0251
3191.00,0.0250
3190.00,0.0249
3189.00,0.0249
3188.00,0.0248
3187.00,0.0247
3186.00,0.0248
3185.00,0.0248
3184.00,0.0248
3183.00,0.0249
3182.00,0.0249
3181.00,0.0249
3180.00,0.0249
3179.00,0.0248
3178.00,0.0247
3177.00,0.0247
3176.00,0.0246
3175.00,0.0246
3174.00,0.0246
3173.00,0.0246
3172.00,0.0246
3171.00,0.0246
3170.00,0.0246
3169.00,0.0246
3168.00,0.0246
3167.00,0.0246
3166.00,0.0246
3165.00,0.0246
3164.00,0.0247
3163.00,0.0247
3162.00,0.0246
3161.00,0.0245
3160.00,0.0244
3159.00,0.0243
3158.00,0.0242
3157.00,0.0241
3156.00,0.0242
3155.00,0.0242
3154.00,0.0243
3153.00,0.0244
3152.00,0.0243
3151.00,0.0243
3150.00,0.0242
3149.00,0.0242
3148.00,0.0242
3147.00,0.0242
3146.00,0.0242
3145.00,0.0241
3144.00,0.0241
3143.00,0.0241
3142.00,0.0241
3141.00,0.0240
3140.00,0.0240
3139.00,0.0240
3138.00,0.0240
3137.00,0.0240
3136.00,0.0240
3135.00,0.0240
3134.00,0.0239
3133.00,0.0238
3132.00,0.0238
3131.00,0.0239
3130.00,0.0239
3129.00,0.0239
3128.00,0.0239
3127.00,0.0238
3126.00,0.0237
3125.00,0.0237
3124.00,0.0237
3123.00,0.0237
3122.00,0.0236
3121.00,0.0236
3120.00,0.0236
3119.00,0.0236
3118.00,0.0236
3117.00,0.0236
3116.00,0.0236
3115.00,0.0236
3114.00,0.0235
3113.00,0.0235
3112.00,0.0234
3111.00,0.0234
3110.00,0.0233
3109.00,0.0233
3108.00,0.0233
3107.00,0.0233
3106.00,0.0234
3105.00,0.0234
3104.00,0.0234
3103.00,0.0233
3102.00,0.0233
3101.00,0.0232
3100.00,0.0232
3099.00,0.0231
3098.00,0.0231
3097.00,0.0231
3096.00,0.0231
3095.00,0.0232
3094.00,0.0233
3093.00,0.0234
3092.00,0.0233
3091.00,0.0232
3090.00,0.0231
3089.00,0.0230
3088.00,0.0229
3087.00,0.0228
3086.00,0.0229
3085.00,0.0230
3084.00,0.0230
3083.00,0.0230
3082.00,0.0230
3081.00,0.0230
3080.00,0.0229
3079.00,0.0229
3078.00,0.0229
3077.00,0.0228
3076.00,0.0228
3075.00,0.0228
3074.00,0.0228
3073.00,0.0229
3072.00,0.0229
3071.00,0.0228
3070.00,0.0228
3069.00,0.0228
3068.00,0.0228
3067.00,0.0228
3066.00,0.0227
3065.00,0.0226
3064.00,0.0225
3063.00,0.0225
3062.00,0.0225
3061.00,0.0225
3060.00,0.0225
3059.00,0.0225
3058.00,0.0225
3057.00,0.0224
3056.00,0.0224
3055.00,0.0224
3054.00,0.0223
3053.00,0.0223
3052.00,0.0222
3051.00,0.0222
3050.00,0.0223
3049.00,0.0223
3048.00,0.0223
3047.00,0.0222
3046.00,0.0222
3045.00,0.0221
3044.00,0.0221
3043.00,0.0220
3042.00,0.0219
3041.00,0.0218
3040.00,0.0218
3039.00,0.0218
3038.00,0.0218
3037.00,0.0218
3036.00,0.0218
3035.00,0.0218
3034.00,0.0218
3033.00,0.0218
3032.00,0.0218
3031.00,0.0217
3030.00,0.0216
3029.00,0.0216
3028.00,0.0215
3027.00,0.0214
3026.00,0.0214
3025.00,0.0214
3024.00,0.0214
3023.00,0.0214
3022.00,0.0214
3021.00,0.0214
3020.00,0.0213
3019.00,0.0212
3018.00,0.0211
3017.00,0.0210
3016.00,0.0210
3015.00,0.0209
3014.00,0.0208
3013.00,0.0207
3012.00,0.0207
3011.00,0.0206
3010.00,0.0205
3009.00,0.0204
3008.00,0.0202
3007.00,0.0200
3006.00,0.0199
3005.00,0.0198
3004.00,0.0197
3003.00,0.0195
3002.00,0.0193
3001.00,0.0192
3000.00,0.0190
2999.00,0.0188
2998.00,0.0187
2997.00,0.0185
2996.00,0.0184
2995.00,0.0184
2994.00,0.0183
2993.00,0.0183
2992.00,0.0182
2991.00,0.0181
2990.00,0.0180
2989.00,0.0179
2988.00,0.0179
2987.00,0.0177
2986.00,0.0174
2985.00,0.0169
2984.00,0.0165
2983.00,0.0161
2982.00,0.0160
2981.00,0.0160
2980.00,0.0162
2979.00,0.0164
2978.00,0.0166
2977.00,0.0169
2976.00,0.0171
2975.00,0.0171
2974.00,0.0171
2973.00,0.0170
2972.00,0.0169
2971.00,0.0170
2970.00,0.0171
2969.00,0.0173
2968.00,0.0176
2967.00,0.0177
2966.00,0.0178
2965.00,0.0179
2964.00,0.0180
2963.00,0.0181
2962.00,0.0182
2961.00,0.0183
2960.00,0.0184
2959.00,0.0184
2958.00,0.0184
2957.00,0.0185
2956.00,0.0187
2955.00,0.0188
2954.00,0.0189
2953.00,0.0190
2952.00,0.0191
2951.00,0.0192
2950.00,0.0193
2949.00,0.0193
2948.00,0.0193
2947.00,0.0193
2946.00,0.0194
2945.00,0.0195
2944.00,0.0196
2943.00,0.0197
2942.00,0.0198
2941.00,0.0199
2940.00,0.0198
2939.00,0.0198
2938.00,0.0197
2937.00,0.0198
2936.00,0.0198
2935.00,0.0199
2934.00,0.0199
2933.00,0.0198
2932.00,0.0198
2931.00,0.0198
2930.00,0.0198
2929.00,0.0199
2928.00,0.0199
2927.00,0.0199
2926.00,0.0198
2925.00,0.0198
2924.00,0.0197
2923.00,0.0196
2922.00,0.0196
2921.00,0.0195
2920.00,0.0195
2919.00,0.0195
2918.00,0.0194
2917.00,0.0194
2916.00,0.0193
2915.00,0.0193
2914.00,0.0192
2913.00,0.0192
2912.00,0.0191
2911.00,0.0191
2910.00,0.0191
2909.00,0.0190
2908.00,0.0190
2907.00,0.0189
2906.00,0.0189
2905.00,0.0188
2904.00,0.0188
2903.00,0.0187
2902.00,0.0187
2901.00,0.0186
2900.00,0.0186
2899.00,0.0185
2898.00,0.0184
2897.00,0.0184
2896.00,0.0183
2895.00,0.0183
2894.00,0.0182
2893.00,0.0182
2892.00,0.0182
2891.00,0.0181
2890.00,0.0181
2889.00,0.0181
2888.00,0.0181
2887.00,0.0180
2886.00,0.0180
2885.00,0.0180
2884.00,0.0179
2883.00,0.0179
2882.00,0.0179
2881.00,0.0180
2880.00,0.0180
2879.00,0.0181
2878.00,0.0181
2877.00,0.0182
2876.00,0.0182
2875.00,0.0181
2874.00,0.0181
2873.00,0.0181
2872.00,0.0180
2871.00,0.0180
2870.00,0.0181
2869.00,0.0181
2868.00,0.0182
2867.00,0.0182
2866.00,0.0182
2865.00,0.0181
2864.00,0.0181
2863.00,0.0181
2862.00,0.0181
2861.00,0.0181
2860.00,0.0182
2859.00,0.0182
2858.00,0.0183
2857.00,0.0184
2856.00,0.0184
2855.00,0.0183
2854.00,0.0182
2853.00,0.0181
2852.00,0.0181
2851.00,0.0182
2850.00,0.0182
2849.00,0.0182
2848.00,0.0182
2847.00,0.0181
2846.00,0.0181
2845.00,0.0180
2844.00,0.0180
2843.00,0.0180
2842.00,0.0179
2841.00,0.0179
2840.00,0.0178
2839.00,0.0177
2838.00,0.0177
2837.00,0.0177
2836.00,0.0177
2835.00,0.0178
2834.00,0.0178
2833.00,0.0177
2832.00,0.0176
2831.00,0.0174
2830.00,0.0174
2829.00,0.0174
2828.00,0.0174
2827.00,0.0174
2826.00,0.0174
2825.00,0.0174
2824.00,0.0174
2823.00,0.0173
2822.00,0.0173
2821.00,0.0172
2820.00,0.0171
2819.00,0.0170
2818.00,0.0170
2817.00,0.0170
2816.00,0.0170
2815.00,0.0170
2814.00,0.0170
2813.00,0.0169
2812.00,0.0169
2811.00,0.0168
2810.00,0.0168
2809.00,0.0168
2808.00,0.0168
2807.00,0.0168
2806.00,0.0168
2805.00,0.0168
2804.00,0.0168
2803.00,0.0167
2802.00,0.0167
2801.00,0.0167
2800.00,0.0166
2799.00,0.0166
2798.00,0.0166
2797.00,0.0166
2796.00,0.0166
2795.00,0.0166
2794.00,0.0165
2793.00,0.0165
2792.00,0.0165
2791.00,0.0165
2790.00,0.0166
2789.00,0.0166
2788.00,0.0165
2787.00,0.0165
2786.00,0.0164
2785.00,0.0163
2784.00,0.0163
2783.00,0.0162
2782.00,0.0162
2781.00,0.0161
2780.00,0.0160
2779.00,0.0160
2778.00,0.0160
2777.00,0.0161
2776.00,0.0161
2775.00,0.0161
2774.00,0.0161
2773.00,0.0161
2772.00,0.0161
2771.00,0.0160
2770.00,0.0159
2769.00,0.0158
2768.00,0.0157
2767.00,0.0157
2766.00,0.0157
2765.00,0.0158
2764.00,0.0158
2763.00,0.0158
2762.00,0.0158
2761.00,0.0158
2760.00,0.0157
2759.00,0.0157
2758.00,0.0157
2757.00,0.0156
2756.00,0.0156
2755.00,0.0156
2754.00,0.0156
2753.00,0.0156
2752.00,0.0156
2751.00,0.0156
2750.00,0.0156
2749.00,0.0156
2748.00,0.0156
2747.00,0.0156
2746.00,0.0155
2745.00,0.0155
2744.00,0.0155
2743.00,0.0155
2742.00,0.0155
2741.00,0.0155
2740.00,0.0154
2739.00,0.0154
2738.00,0.0153
2737.00,0.0153
2736.00,0.0152
2735.00,0.0152
2734.00,0.0153
2733.00,0.0153
2732.00,0.0153
2731.00,0.0153
2730.00,0.0152
2729.00,0.0152
2728.00,0.0151
2727.00,0.0151
2726.00,0.0151
2725.00,0.0150
2724.00,0.0150
2723.00,0.0150
2722.00,0.0150
2721.00,0.0150
2720.00,0.0149
2719.00,0.0149
2718.00,0.0149
2717.00,0.0150
2716.00,0.0150
2715.00,0.0150
2714.00,0.0150
2713.00,0.0150
2712.00,0.0149
2711.00,0.0149
2710.00,0.0148
2709.00,0.0148
2708.00,0.0148
2707.00,0.0148
2706.00,0.0148
2705.00,0.0148
2704.00,0.0147
2703.00,0.0147
2702.00,0.0147
2701.00,0.0146
2700.00,0.0146
2699.00,0.0146
2698.00,0.0146
2697.00,0.0146
2696.00,0.0146
2695.00,0.0146
2694.00,0.0146
2693.00,0.0146
2692.00,0.0146
2691.00,0.0146
2690.00,0.0146
2689.00,0.0145
2688.00,0.0145
2687.00,0.0145
2686.00,0.0145
2685.00,0.0145
2684.00,0.0145
2683.00,0.0144
2682.00,0.0144
2681.00,0.0143
2680.00,0.0143
2679.00,0.0143
2678.00,0.0142
2677.00,0.0142
2676.00,0.0141
2675.00,0.0141
2674.00,0.0142
2673.00,0.0142
2672.00,0.0142
2671.00,0.0142
2670.00,0.0141
2669.00,0.0141
2668.00,0.0141
2667.00,0.0141
2666.00,0.0141
2665.00,0.0141
2664.00,0.0141
2663.00,0.0141
2662.00,0.0141
2661.00,0.0142
2660.00,0.0142
2659.00,0.0142
2658.00,0.0142
2657.00,0.0143
2656.00,0.0143
2655.00,0.0142
2654.00,0.0142
2653.00,0.0142
2652.00,0.0142
2651.00,0.0142
2650.00,0.0142
2649.00,0.0142
2648.00,0.0142
2647.00,0.0141
2646.00,0.0141
2645.00,0.0141
2644.00,0.0141
2643.00,0.0141
2642.00,0.0141
2641.00,0.0141
2640.00,0.0141
2639.00,0.0141
2638.00,0.0141
2637.00,0.0141
2636.00,0.0140
2635.00,0.0140
2634.00,0.0141
2633.00,0.0141
2632.00,0.0141
2631.00,0.0141
2630.00,0.0140
2629.00,0.0140
2628.00,0.0139
2627.00,0.0139
2626.00,0.0139
2625.00,0.0140
2624.00,0.0141
2623.00,0.0141
2622.00,0.0141
2621.00,0.0142
2620.00,0.0141
2619.00,0.0141
2618.00,0.0141
2617.00,0.0141
2616.00,0.0140
2615.00,0.0139
2614.00,0.0139
2613.00,0.0139
2612.00,0.0140
2611.00,0.0141
2610.00,0.0140
2609.00,0.0139
2608.00,0.0138
2607.00,0.0138
2606.00,0.0139
2605.00,0.0139
2604.00,0.0140
2603.00,0.0141
2602.00,0.0141
2601.00,0.0141
2600.00,0.0140
2599.00,0.0140
2598.00,0.0139
2597.00,0.0138
2596.00,0.0138
2595.00,0.0138
2594.00,0.0138
2593.00,0.0139
2592.00,0.0139
2591.00,0.0140
2590.00,0.0140
2589.00,0.0140
2588.00,0.0140
2587.00,0.0140
2586.00,0.0139
2585.00,0.0139
2584.00,0.0138
2583.00,0.0137
2582.00,0.0137
2581.00,0.0138
2580.00,0.0139
2579.00,0.0139
2578.00,0.0139
2577.00,0.0138
2576.00,0.0137
2575.00,0.0137
2574.00,0.0137
2573.00,0.0138
2572.00,0.0138
2571.00,0.0137
2570.00,0.0137
2569.00,0.0136
2568.00,0.0137
2567.00,0.0138
2566.00,0.0139
2565.00,0.0139
2564.00,0.0139
2563.00,0.0139
2562.00,0.0139
2561.00,0.0138
2560.00,0.0138
2559.00,0.0138
2558.00,0.0138
2557.00,0.0138
2556.00,0.0138
2555.00,0.0138
2554.00,0.0137
2553.00,0.0136
2552.00,0.0135
2551.00,0.0135
2550.00,0.0134
2549.00,0.0133
2548.00,0.0133
2547.00,0.0132
2546.00,0.0132
2545.00,0.0133
2544.00,0.0133
2543.00,0.0133
2542.00,0.0133
2541.00,0.0132
2540.00,0.0131
2539.00,0.0131
2538.00,0.0131
2537.00,0.0130
2536.00,0.0131
2535.00,0.0131
2534.00,0.0132
2533.00,0.0133
2532.00,0.0133
2531.00,0.0133
2530.00,0.0132
2529.00,0.0131
2528.00,0.0131
2527.00,0.0131
2526.00,0.0130
2525.00,0.0130
2524.00,0.0130
2523.00,0.0130
2522.00,0.0130
2521.00,0.0130
2520.00,0.0130
2519.00,0.0130
2518.00,0.0131
2517.00,0.0132
2516.00,0.0132
2515.00,0.0132
2514.00,0.0131
2513.00,0.0129
2512.00,0.0129
2511.00,0.0129
2510.00,0.0130
2509.00,0.0131
2508.00,0.0132
2507.00,0.0132
2506.00,0.0131
2505.00,0.0131
2504.00,0.0130
2503.00,0.0130
2502.00,0.0130
2501.00,0.0130
2500.00,0.0131
2499.00,0.0131
2498.00,0.0131
2497.00,0.0131
2496.00,0.0131
2495.00,0.0132
2494.00,0.0132
2493.00,0.0132
2492.00,0.0132
2491.00,0.0131
2490.00,0.0131
2489.00,0.0131
2488.00,0.0131
2487.00,0.0131
2486.00,0.0131
2485.00,0.0130
2484.00,0.0129
2483.00,0.0129
2482.00,0.0129
2481.00,0.0130
2480.00,0.0131
2479.00,0.0131
2478.00,0.0130
2477.00,0.0130
2476.00,0.0129
2475.00,0.0129
2474.00,0.0129
2473.00,0.0129
2472.00,0.0129
2471.00,0.0129
2470.00,0.0128
2469.00,0.0128
2468.00,0.0127
2467.00,0.0127
2466.00,0.0127
2465.00,0.0126
2464.00,0.0126
2463.00,0.0127
2462.00,0.0127
2461.00,0.0127
2460.00,0.0128
2459.00,0.0128
2458.00,0.0128
2457.00,0.0128
2456.00,0.0128
2455.00,0.0128
2454.00,0.0128
2453.00,0.0129
2452.00,0.0130
2451.00,0.0130
2450.00,0.0129
2449.00,0.0128
2448.00,0.0127
2447.00,0.0126
2446.00,0.0126
2445.00,0.0125
2444.00,0.0125
2443.00,0.0124
2442.00,0.0124
2441.00,0.0125
2440.00,0.0125
2439.00,0.0125
2438.00,0.0125
2437.00,0.0125
2436.00,0.0124
2435.00,0.0124
2434.00,0.0123
2433.00,0.0123
2432.00,0.0123
2431.00,0.0123
2430.00,0.0123
2429.00,0.0123
2428.00,0.0123
2427.00,0.0123
2426.00,0.0123
2425.00,0.0123
2424.00,0.0123
2423.00,0.0123
2422.00,0.0123
2421.00,0.0123
2420.00,0.0123
2419.00,0.0123
2418.00,0.0122
2417.00,0.0122
2416.00,0.0121
2415.00,0.0120
2414.00,0.0120
2413.00,0.0121
2412.00,0.0121
2411.00,0.0121
2410.00,0.0122
2409.00,0.0122
2408.00,0.0121
2407.00,0.0120
2406.00,0.0120
2405.00,0.0119
2404.00,0.0119
2403.00,0.0118
2402.00,0.0118
2401.00,0.0117
2400.00,0.0117
2399.00,0.0117
2398.00,0.0117
2397.00,0.0117
2396.00,0.0117
2395.00,0.0117
2394.00,0.0116
2393.00,0.0116
2392.00,0.0116
2391.00,0.0115
2390.00,0.0115
2389.00,0.0116
2388.00,0.0116
2387.00,0.0116
2386.00,0.0116
2385.00,0.0115
2384.00,0.0114
2383.00,0.0113
2382.00,0.0113
2381.00,0.0113
2380.00,0.0114
2379.00,0.0115
2378.00,0.0115
2377.00,0.0115
2376.00,0.0113
2375.00,0.0112
2374.00,0.0112
2373.00,0.0112
2372.00,0.0112
2371.00,0.0111
2370.00,0.0110
2369.00,0.0108
2368.00,0.0106
2367.00,0.0106
2366.00,0.0108
2365.00,0.0110
2364.00,0.0110
2363.00,0.0109
2362.00,0.0108
2361.00,0.0109
2360.00,0.0110
2359.00,0.0111
2358.00,0.0111
2357.00,0.0111
2356.00,0.0111
2355.00,0.0110
2354.00,0.0109
2353.00,0.0109
2352.00,0.0109
2351.00,0.0108
2350.00,0.0108
2349.00,0.0109
2348.00,0.0109
2347.00,0.0108
2346.00,0.0107
2345.00,0.0107
2344.00,0.0108
2343.00,0.0110
2342.00,0.0111
2341.00,0.0112
2340.00,0.0111
2339.00,0.0110
2338.00,0.0108
2337.00,0.0106
2336.00,0.0105
2335.00,0.0107
2334.00,0.0108
2333.00,0.0109
2332.00,0.0108
2331.00,0.0107
2330.00,0.0105
2329.00,0.0105
2328.00,0.0105
2327.00,0.0106
2326.00,0.0108
2325.00,0.0110
2324.00,0.0109
2323.00,0.0109
2322.00,0.0108
2321.00,0.0108
2320.00,0.0107
2319.00,0.0106
2318.00,0.0106
2317.00,0.0106
2316.00,0.0107
2315.00,0.0107
2314.00,0.0107
2313.00,0.0107
2312.00,0.0107
2311.00,0.0108
2310.00,0.0109
2309.00,0.0110
2308.00,0.0111
2307.00,0.0110
2306.00,0.0110
2305.00,0.0110
2304.00,0.0109
2303.00,0.0108
2302.00,0.0107
2301.00,0.0107
2300.00,0.0107
2299.00,0.0108
2298.00,0.0108
2297.00,0.0108
2296.00,0.0108
2295.00,0.0108
2294.00,0.0109
2293.00,0.0111
2292.00,0.0112
2291.00,0.0113
2290.00,0.0113
2289.00,0.0112
2288.00,0.0112
2287.00,0.0112
2286.00,0.0113
2285.00,0.0115
2284.00,0.0116
2283.00,0.0117
2282.00,0.0117
2281.00,0.0116
2280.00,0.0115
2279.00,0.0115
2278.00,0.0115
2277.00,0.0115
2276.00,0.0115
2275.00,0.0113
2274.00,0.0111
2273.00,0.0110
2272.00,0.0110
2271.00,0.0110
2270.00,0.0110
2269.00,0.0110
2268.00,0.0109
2267.00,0.0109
2266.00,0.0109
2265.00,0.0110
2264.00,0.0111
2263.00,0.0112
2262.00,0.0112
2261.00,0.0113
2260.00,0.0113
2259.00,0.0112
2258.00,0.0110
2257.00,0.0107
2256.00,0.0105
2255.00,0.0104
2254.00,0.0106
2253.00,0.0107
2252.00,0.0107
2251.00,0.0108
2250.00,0.0108
2249.00,0.0107
2248.00,0.0107
2247.00,0.0107
2246.00,0.0108
2245.00,0.0109
2244.00,0.0109
2243.00,0.0109
2242.00,0.0108
2241.00,0.0108
2240.00,0.0107
2239.00,0.0107
2238.00,0.0107
2237.00,0.0107
2236.00,0.0106
2235.00,0.0107
2234.00,0.0107
2233.00,0.0108
2232.00,0.0108
2231.00,0.0107
2230.00,0.0105
2229.00,0.0104
2228.00,0.0104
2227.00,0.0104
2226.00,0.0105
2225.00,0.0105
2224.00,0.0104
2223.00,0.0104
2222.00,0.0103
2221.00,0.0104
2220.00,0.0104
2219.00,0.0105
2218.00,0.0104
2217.00,0.0104
2216.00,0.0104
2215.00,0.0105
2214.00,0.0106
2213.00,0.0106
2212.00,0.0106
2211.00,0.0105
2210.00,0.0104
2209.00,0.0104
2208.00,0.0105
2207.00,0.0106
2206.00,0.0106
2205.00,0.0105
2204.00,0.0104
2203.00,0.0104
2202.00,0.0104
2201.00,0.0105
2200.00,0.0104
2199.00,0.0103
2198.00,0.0102
2197.00,0.0102
2196.00,0.0103
2195.00,0.0103
2194.00,0.0103
2193.00,0.0103
2192.00,0.0101
2191.00,0.0099
2190.00,0.0097
2189.00,0.0096
2188.00,0.0097
2187.00,0.0100
2186.00,0.0103
2185.00,0.0105
2184.00,0.0104
2183.00,0.0101
2182.00,0.0100
2181.00,0.0100
2180.00,0.0101
2179.00,0.0103
2178.00,0.0105
2177.00,0.0106
2176.00,0.0106
2175.00,0.0104
2174.00,0.0101
2173.00,0.0100
2172.00,0.0100
2171.00,0.0102
2170.00,0.0106
2169.00,0.0109
2168.00,0.0110
2167.00,0.0110
2166.00,0.0110
2165.00,0.0112
2164.00,0.0114
2163.00,0.0114
2162.00,0.0114
2161.00,0.0111
2160.00,0.0104
2159.00,0.0097
2158.00,0.0091
2157.00,0.0089
2156.00,0.0090
2155.00,0.0092
2154.00,0.0094
2153.00,0.0095
2152.00,0.0095
2151.00,0.0092
2150.00,0.0089
2149.00,0.0088
2148.00,0.0090
2147.00,0.0093
2146.00,0.0097
2145.00,0.0099
2144.00,0.0100
2143.00,0.0100
2142.00,0.0101
2141.00,0.0101
2140.00,0.0100
2139.00,0.0097
2138.00,0.0094
2137.00,0.0092
2136.00,0.0090
2135.00,0.0089
2134.00,0.0089
2133.00,0.0089
2132.00,0.0089
2131.00,0.0089
2130.00,0.0089
2129.00,0.0092
2128.00,0.0094
2127.00,0.0096
2126.00,0.0096
2125.00,0.0095
2124.00,0.0093
2123.00,0.0092
2122.00,0.0091
2121.00,0.0090
2120.00,0.0089
2119.00,0.0089
2118.00,0.0089
2117.00,0.0090
2116.00,0.0090
2115.00,0.0089
2114.00,0.0087
2113.00,0.0087
2112.00,0.0088
2111.00,0.0089
2110.00,0.0091
2109.00,0.0092
2108.00,0.0093
2107.00,0.0093
2106.00,0.0094
2105.00,0.0094
2104.00,0.0094
2103.00,0.0094
2102.00,0.0094
2101.00,0.0093
2100.00,0.0091
2099.00,0.0088
2098.00,0.0087
2097.00,0.0086
2096.00,0.0087
2095.00,0.0088
2094.00,0.0089
2093.00,0.0089
2092.00,0.0089
2091.00,0.0088
2090.00,0.0087
2089.00,0.0086
2088.00,0.0087
2087.00,0.0088
2086.00,0.0089
2085.00,0.0091
2084.00,0.0092
2083.00,0.0092
2082.00,0.0091
2081.00,0.0090
2080.00,0.0089
2079.00,0.0089
2078.00,0.0089
2077.00,0.0089
2076.00,0.0090
2075.00,0.0090
2074.00,0.0090
2073.00,0.0090
2072.00,0.0090
2071.00,0.0091
2070.00,0.0092
2069.00,0.0091
2068.00,0.0089
2067.00,0.0087
2066.00,0.0086
2065.00,0.0087
2064.00,0.0088
2063.00,0.0089
2062.00,0.0090
2061.00,0.0091
2060.00,0.0090
2059.00,0.0088
2058.00,0.0087
2057.00,0.0086
2056.00,0.0086
2055.00,0.0087
2054.00,0.0088
2053.00,0.0090
2052.00,0.0092
2051.00,0.0091
2050.00,0.0089
2049.00,0.0087
2048.00,0.0087
2047.00,0.0088
2046.00,0.0090
2045.00,0.0093
2044.00,0.0095
2043.00,0.0097
2042.00,0.0097
2041.00,0.0095
2040.00,0.0092
2039.00,0.0090
2038.00,0.0090
2037.00,0.0091
2036.00,0.0092
2035.00,0.0092
2034.00,0.0090
2033.00,0.0090
2032.00,0.0091
2031.00,0.0092
2030.00,0.0093
2029.00,0.0091
2028.00,0.0089
2027.00,0.0087
2026.00,0.0085
2025.00,0.0083
2024.00,0.0080
2023.00,0.0077
2022.00,0.0076
2021.00,0.0076
2020.00,0.0076
2019.00,0.0074
2018.00,0.0072
2017.00,0.0072
2016.00,0.0074
2015.00,0.0078
2014.00,0.0081
2013.00,0.0083
2012.00,0.0082
2011.00,0.0081
2010.00,0.0080
2009.00,0.0081
2008.00,0.0081
2007.00,0.0080
2006.00,0.0079
2005.00,0.0078
2004.00,0.0078
2003.00,0.0079
2002.00,0.0083
2001.00,0.0086
2000.00,0.0087
1999.00,0.0085
1998.00,0.0082
1997.00,0.0081
1996.00,0.0084
1995.00,0.0087
1994.00,0.0089
1993.00,0.0090
1992.00,0.0089
1991.00,0.0085
1990.00,0.0082
1989.00,0.0080
1988.00,0.0079
1987.00,0.0078
1986.00,0.0078
1985.00,0.0078
1984.00,0.0079
1983.00,0.0079
1982.00,0.0080
1981.00,0.0080
1980.00,0.0078
1979.00,0.0075
1978.00,0.0070
1977.00,0.0067
1976.00,0.0068
1975.00,0.0072
1974.00,0.0076
1973.00,0.0078
1972.00,0.0076
1971.00,0.0072
1970.00,0.0070
1969.00,0.0071
1968.00,0.0073
1967.00,0.0072
1966.00,0.0071
1965.00,0.0069
1964.00,0.0070
1963.00,0.0071
1962.00,0.0071
1961.00,0.0071
1960.00,0.0071
1959.00,0.0071
1958.00,0.0071
1957.00,0.0070
1956.00,0.0070
1955.00,0.0070
1954.00,0.0070
1953.00,0.0071
1952.00,0.0072
1951.00,0.0071
1950.00,0.0070
1949.00,0.0069
1948.00,0.0069
1947.00,0.0070
1946.00,0.0071
1945.00,0.0070
1944.00,0.0067
1943.00,0.0064
1942.00,0.0062
1941.00,0.0061
1940.00,0.0061
1939.00,0.0060
1938.00,0.0060
1937.00,0.0060
1936.00,0.0060
1935.00,0.0059
1934.00,0.0058
1933.00,0.0058
1932.00,0.0059
1931.00,0.0061
1930.00,0.0063
1929.00,0.0065
1928.00,0.0066
1927.00,0.0067
1926.00,0.0067
1925.00,0.0067
1924.00,0.0066
1923.00,0.0065
1922.00,0.0064
1921.00,0.0064
1920.00,0.0065
1919.00,0.0064
1918.00,0.0062
1917.00,0.0061
1916.00,0.0061
1915.00,0.0061
1914.00,0.0062
1913.00,0.0062
1912.00,0.0062
1911.00,0.0062
1910.00,0.0060
1909.00,0.0058
1908.00,0.0057
1907.00,0.0057
1906.00,0.0058
1905.00,0.0059
1904.00,0.0059
1903.00,0.0059
1902.00,0.0059
1901.00,0.0058
1900.00,0.0058
1899.00,0.0059
1898.00,0.0059
1897.00,0.0059
1896.00,0.0057
1895.00,0.0054
1894.00,0.0053
1893.00,0.0054
1892.00,0.0056
1891.00,0.0057
1890.00,0.0057
1889.00,0.0055
1888.00,0.0054
1887.00,0.0054
1886.00,0.0054
1885.00,0.0054
1884.00,0.0054
1883.00,0.0054
1882.00,0.0054
1881.00,0.0054
1880.00,0.0054
1879.00,0.0053
1878.00,0.0052
1877.00,0.0051
1876.00,0.0051
1875.00,0.0052
1874.00,0.0053
1873.00,0.0055
1872.00,0.0056
1871.00,0.0057
1870.00,0.0056
1869.00,0.0053
1868.00,0.0049
1867.00,0.0047
1866.00,0.0048
1865.00,0.0048
1864.00,0.0049
1863.00,0.0049
1862.00,0.0049
1861.00,0.0048
1860.00,0.0048
1859.00,0.0047
1858.00,0.0047
1857.00,0.0047
1856.00,0.0048
1855.00,0.0049
1854.00,0.0048
1853.00,0.0048
1852.00,0.0048
1851.00,0.0048
1850.00,0.0049
1849.00,0.0049
1848.00,0.0049
1847.00,0.0049
1846.00,0.0050
1845.00,0.0049
1844.00,0.0046
1843.00,0.0043
1842.00,0.0043
1841.00,0.0044
1840.00,0.0045
1839.00,0.0045
1838.00,0.0044
1837.00,0.0044
1836.00,0.0045
1835.00,0.0045
1834.00,0.0046
1833.00,0.0048
1832.00,0.0050
1831.00,0.0050
1830.00,0.0048
1829.00,0.0045
1828.00,0.0044
1827.00,0.0046
1826.00,0.0046
1825.00,0.0045
1824.00,0.0044
1823.00,0.0044
1822.00,0.0045
1821.00,0.0046
1820.00,0.0046
1819.00,0.0045
1818.00,0.0045
1817.00,0.0044
1816.00,0.0044
1815.00,0.0044
1814.00,0.0045
1813.00,0.0046
1812.00,0.0047
1811.00,0.0047
1810.00,0.0046
1809.00,0.0047
1808.00,0.0048
1807.00,0.0049
1806.00,0.0050
1805.00,0.0051
1804.00,0.0053
1803.00,0.0053
1802.00,0.0053
1801.00,0.0053
1800.00,0.0053
1799.00,0.0053
1798.00,0.0055
1797.00,0.0057
1796.00,0.0059
1795.00,0.0061
1794.00,0.0062
1793.00,0.0063
1792.00,0.0062
1791.00,0.0061
1790.00,0.0062
1789.00,0.0064
1788.00,0.0067
1787.00,0.0070
1786.00,0.0071
1785.00,0.0072
1784.00,0.0073
1783.00,0.0074
1782.00,0.0076
1781.00,0.0076
1780.00,0.0076
1779.00,0.0077
1778.00,0.0080
1777.00,0.0083
1776.00,0.0087
1775.00,0.0090
1774.00,0.0093
1773.00,0.0093
1772.00,0.0091
1771.00,0.0090
1770.00,0.0092
1769.00,0.0096
1768.00,0.0098
1767.00,0.0099
1766.00,0.0101
1765.00,0.0104
1764.00,0.0107
1763.00,0.0108
1762.00,0.0107
1761.00,0.0107
1760.00,0.0109
1759.00,0.0112
1758.00,0.0114
1757.00,0.0114
1756.00,0.0115
1755.00,0.0118
1754.00,0.0122
1753.00,0.0125
1752.00,0.0125
1751.00,0.0125
1750.00,0.0124
1749.00,0.0125
1748.00,0.0126
1747.00,0.0128
1746.00,0.0131
1745.00,0.0133
1744.00,0.0136
1743.00,0.0138
1742.00,0.0140
1741.00,0.0143
1740.00,0.0145
1739.00,0.0146
1738.00,0.0148
1737.00,0.0152
1736.00,0.0157
1735.00,0.0159
1734.00,0.0160
1733.00,0.0159
1732.00,0.0161
1731.00,0.0164
1730.00,0.0167
1729.00,0.0169
1728.00,0.0172
1727.00,0.0175
1726.00,0.0178
1725.00,0.0182
1724.00,0.0185
1723.00,0.0187
1722.00,0.0189
1721.00,0.0192
1720.00,0.0194
1719.00,0.0196
1718.00,0.0198
1717.00,0.0200
1716.00,0.0202
1715.00,0.0205
1714.00,0.0208
1713.00,0.0211
1712.00,0.0214
1711.00,0.0216
1710.00,0.0217
1709.00,0.0219
1708.00,0.0222
1707.00,0.0224
1706.00,0.0225
1705.00,0.0226
1704.00,0.0228
1703.00,0.0232
1702.00,0.0236
1701.00,0.0239
1700.00,0.0239
1699.00,0.0238
1698.00,0.0240
1697.00,0.0242
1696.00,0.0241
1695.00,0.0239
1694.00,0.0240
1693.00,0.0243
1692.00,0.0245
1691.00,0.0246
1690.00,0.0247
1689.00,0.0248
1688.00,0.0249
1687.00,0.0250
1686.00,0.0250
1685.00,0.0251
1684.00,0.0251
1683.00,0.0251
1682.00,0.0253
1681.00,0.0255
1680.00,0.0256
1679.00,0.0257
1678.00,0.0260
1677.00,0.0263
1676.00,0.0266
1675.00,0.0267
1674.00,0.0267
1673.00,0.0267
1672.00,0.0268
1671.00,0.0270
1670.00,0.0271
1669.00,0.0272
1668.00,0.0273
1667.00,0.0274
1666.00,0.0276
1665.00,0.0277
1664.00,0.0278
1663.00,0.0279
1662.00,0.0281
1661.00,0.0283
1660.00,0.0286
1659.00,0.0288
1658.00,0.0290
1657.00,0.0291
1656.00,0.0291
1655.00,0.0290
1654.00,0.0292
1653.00,0.0295
1652.00,0.0294
1651.00,0.0297
1650.00,0.0300
1649.00,0.0301
1648.00,0.0303
1647.00,0.0306
1646.00,0.0309
1645.00,0.0311
1644.00,0.0314
1643.00,0.0316
1642.00,0.0317
1641.00,0.0318
1640.00,0.0318
1639.00,0.0319
1638.00,0.0320
1637.00,0.0323
1636.00,0.0329
1635.00,0.0333
1634.00,0.0334
1633.00,0.0335
1632.00,0.0335
1631.00,0.0335
1630.00,0.0336
1629.00,0.0338
1628.00,0.0340
1627.00,0.0342
1626.00,0.0344
1625.00,0.0347
1624.00,0.0351
1623.00,0.0353
1622.00,0.0355
1621.00,0.0355
1620.00,0.0356
1619.00,0.0356
1618.00,0.0358
1617.00,0.0360
1616.00,0.0362
1615.00,0.0363
1614.00,0.0365
1613.00,0.0366
1612.00,0.0367
1611.00,0.0368
1610.00,0.0370
1609.00,0.0371
1608.00,0.0372
1607.00,0.0374
1606.00,0.0376
1605.00,0.0378
1604.00,0.0379
1603.00,0.0380
1602.00,0.0381
1601.00,0.0380
1600.00,0.0380
1599.00,0.0381
1598.00,0.0383
1597.00,0.0384
1596.00,0.0386
1595.00,0.0387
1594.00,0.0389
1593.00,0.0389
1592.00,0.0390
1591.00,0.0390
1590.00,0.0391
1589.00,0.0391
1588.00,0.0393
1587.00,0.0394
1586.00,0.0395
1585.00,0.0395
1584.00,0.0395
1583.00,0.0395
1582.00,0.0395
1581.00,0.0395
1580.00,0.0394
1579.00,0.0394
1578.00,0.0395
1577.00,0.0397
1576.00,0.0397
1575.00,0.0397
1574.00,0.0395
1573.00,0.0394
1572.00,0.0393
1571.00,0.0393
1570.00,0.0394
1569.00,0.0394
1568.00,0.0393
1567.00,0.0393
1566.00,0.0392
1565.00,0.0390
1564.00,0.0388
1563.00,0.0386
1562.00,0.0384
1561.00,0.0379
1560.00,0.0380
1559.00,0.0387
1558.00,0.0386
1557.00,0.0384
1556.00,0.0383
1555.00,0.0381
1554.00,0.0380
1553.00,0.0378
1552.00,0.0376
1551.00,0.0374
1550.00,0.0371
1549.00,0.0369
1548.00,0.0366
1547.00,0.0364
1546.00,0.0362
1545.00,0.0360
1544.00,0.0358
1543.00,0.0356
1542.00,0.0353
1541.00,0.0352
1540.00,0.0350
1539.00,0.0346
1538.00,0.0343
1537.00,0.0343
1536.00,0.0341
1535.00,0.0339
1534.00,0.0337
1533.00,0.0334
1532.00,0.0331
1531.00,0.0329
1530.00,0.0327
1529.00,0.0325
1528.00,0.0323
1527.00,0.0320
1526.00,0.0317
1525.00,0.0315
1524.00,0.0313
1523.00,0.0311
1522.00,0.0310
1521.00,0.0309
1520.00,0.0309
1519.00,0.0310
1518.00,0.0309
1517.00,0.0307
1516.00,0.0305
1515.00,0.0304
1514.00,0.0303
1513.00,0.0301
1512.00,0.0300
1511.00,0.0297
1510.00,0.0295
1509.00,0.0292
1508.00,0.0291
1507.00,0.0290
1506.00,0.0288
1505.00,0.0286
1504.00,0.0287
1503.00,0.0286
1502.00,0.0284
1501.00,0.0283
1500.00,0.0282
1499.00,0.0282
1498.00,0.0282
1497.00,0.0283
1496.00,0.0282
1495.00,0.0281
1494.00,0.0279
1493.00,0.0278
1492.00,0.0277
1491.00,0.0277
1490.00,0.0277
1489.00,0.0276
1488.00,0.0276
1487.00,0.0275
1486.00,0.0275
1485.00,0.0274
1484.00,0.0274
1483.00,0.0274
1482.00,0.0274
1481.00,0.0274
1480.00,0.0274
1479.00,0.0274
1478.00,0.0274
1477.00,0.0274
1476.00,0.0274
1475.00,0.0275
1474.00,0.0276
1473.00,0.0279
1472.00,0.0281
1471.00,0.0283
1470.00,0.0285
1469.00,0.0287
1468.00,0.0289
1467.00,0.0291
1466.00,0.0292
1465.00,0.0293
1464.00,0.0293
1463.00,0.0293
1462.00,0.0293
1461.00,0.0293
1460.00,0.0293
1459.00,0.0295
1458.00,0.0298
1457.00,0.0302
1456.00,0.0303
1455.00,0.0303
1454.00,0.0304
1453.00,0.0304
1452.00,0.0306
1451.00,0.0307
1450.00,0.0308
1449.00,0.0310
1448.00,0.0312
1447.00,0.0313
1446.00,0.0314
1445.00,0.0315
1444.00,0.0316
1443.00,0.0316
1442.00,0.0316
1441.00,0.0317
1440.00,0.0318
1439.00,0.0319
1438.00,0.0321
1437.00,0.0324
1436.00,0.0326
1435.00,0.0325
1434.00,0.0325
1433.00,0.0324
1432.00,0.0324
1431.00,0.0325
1430.00,0.0325
1429.00,0.0326
1428.00,0.0326
1427.00,0.0327
1426.00,0.0328
1425.00,0.0328
1424.00,0.0329
1423.00,0.0330
1422.00,0.0330
1421.00,0.0331
1420.00,0.0333
1419.00,0.0335
1418.00,0.0336
1417.00,0.0337
1416.00,0.0337
1415.00,0.0337
1414.00,0.0336
1413.00,0.0335
1412.00,0.0335
1411.00,0.0335
1410.00,0.0335
1409.00,0.0336
1408.00,0.0336
1407.00,0.0336
1406.00,0.0336
1405.00,0.0336
1404.00,0.0336
1403.00,0.0336
1402.00,0.0336
1401.00,0.0335
1400.00,0.0334
1399.00,0.0334
1398.00,0.0334
1397.00,0.0334
1396.00,0.0335
1395.00,0.0335
1394.00,0.0335
1393.00,0.0335
1392.00,0.0335
1391.00,0.0336
1390.00,0.0336
1389.00,0.0337
1388.00,0.0338
1387.00,0.0339
1386.00,0.0340
1385.00,0.0339
1384.00,0.0339
1383.00,0.0339
1382.00,0.0340
1381.00,0.0340
1380.00,0.0341
1379.00,0.0342
1378.00,0.0343
1377.00,0.0344
1376.00,0.0345
1375.00,0.0346
1374.00,0.0347
1373.00,0.0348
1372.00,0.0348
1371.00,0.0349
1370.00,0.0349
1369.00,0.0349
1368.00,0.0349
1367.00,0.0349
1366.00,0.0348
1365.00,0.0348
1364.00,0.0348
1363.00,0.0348
1362.00,0.0349
1361.00,0.0349
1360.00,0.0349
1359.00,0.0349
1358.00,0.0349
1357.00,0.0349
1356.00,0.0350
1355.00,0.0350
1354.00,0.0349
1353.00,0.0349
1352.00,0.0347
1351.00,0.0346
1350.00,0.0345
1349.00,0.0344
1348.00,0.0343
1347.00,0.0343
1346.00,0.0343
1345.00,0.0342
1344.00,0.0341
1343.00,0.0340
1342.00,0.0339
1341.00,0.0339
1340.00,0.0339
1339.00,0.0340
1338.00,0.0340
1337.00,0.0339
1336.00,0.0339
1335.00,0.0339
1334.00,0.0339
1333.00,0.0339
1332.00,0.0338
1331.00,0.0338
1330.00,0.0338
1329.00,0.0337
1328.00,0.0337
1327.00,0.0337
1326.00,0.0336
1325.00,0.0336
1324.00,0.0337
1323.00,0.0338
1322.00,0.0339
1321.00,0.0339
1320.00,0.0340
1319.00,0.0340
1318.00,0.0339
1317.00,0.0338
1316.00,0.0337
1315.00,0.0337
1314.00,0.0337
1313.00,0.0338
1312.00,0.0340
1311.00,0.0341
1310.00,0.0342
1309.00,0.0342
1308.00,0.0342
1307.00,0.0342
1306.00,0.0342
1305.00,0.0342
1304.00,0.0343
1303.00,0.0344
1302.00,0.0345
1301.00,0.0345
1300.00,0.0345
1299.00,0.0345
1298.00,0.0344
1297.00,0.0344
1296.00,0.0344
1295.00,0.0344
1294.00,0.0345
1293.00,0.0346
1292.00,0.0347
1291.00,0.0348
1290.00,0.0348
1289.00,0.0349
1288.00,0.0349
1287.00,0.0350
1286.00,0.0350
1285.00,0.0350
1284.00,0.0351
1283.00,0.0352
1282.00,0.0352
1281.00,0.0352
1280.00,0.0352
1279.00,0.0352
1278.00,0.0351
1277.00,0.0351
1276.00,0.0352
1275.00,0.0352
1274.00,0.0352
1273.00,0.0352
1272.00,0.0352
1271.00,0.0352
1270.00,0.0352
1269.00,0.0352
1268.00,0.0352
1267.00,0.0352
1266.00,0.0353
1265.00,0.0353
1264.00,0.0353
1263.00,0.0352
1262.00,0.0352
1261.00,0.0352
1260.00,0.0352
1259.00,0.0352
1258.00,0.0353
1257.00,0.0352
1256.00,0.0352
1255.00,0.0351
1254.00,0.0351
1253.00,0.0352
1252.00,0.0353
1251.00,0.0353
1250.00,0.0353
1249.00,0.0353
1248.00,0.0353
1247.00,0.0354
1246.00,0.0355
1245.00,0.0356
1244.00,0.0356
1243.00,0.0356
1242.00,0.0356
1241.00,0.0355
1240.00,0.0354
1239.00,0.0354
1238.00,0.0355
1237.00,0.0356
1236.00,0.0357
1235.00,0.0358
1234.00,0.0358
1233.00,0.0358
1232.00,0.0358
1231.00,0.0358
1230.00,0.0358
1229.00,0.0358
1228.00,0.0358
1227.00,0.0359
1226.00,0.0359
1225.00,0.0359
1224.00,0.0358
1223.00,0.0358
1222.00,0.0359
1221.00,0.0360
1220.00,0.0361
1219.00,0.0361
1218.00,0.0361
1217.00,0.0361
1216.00,0.0361
1215.00,0.0361
1214.00,0.0361
1213.00,0.0361
1212.00,0.0361
1211.00,0.0362
1210.00,0.0363
1209.00,0.0363
1208.00,0.0363
1207.00,0.0363
1206.00,0.0362
1205.00,0.0362
1204.00,0.0361
1203.00,0.0361
1202.00,0.0362
1201.00,0.0362
1200.00,0.0362
1199.00,0.0363
1198.00,0.0362
1197.00,0.0362
1196.00,0.0361
1195.00,0.0359
1194.00,0.0358
1193.00,0.0357
1192.00,0.0357
1191.00,0.0356
1190.00,0.0356
1189.00,0.0355
1188.00,0.0354
1187.00,0.0353
1186.00,0.0353
1185.00,0.0353
1184.00,0.0353
1183.00,0.0352
1182.00,0.0351
1181.00,0.0349
1180.00,0.0348
1179.00,0.0347
1178.00,0.0347
1177.00,0.0346
1176.00,0.0346
1175.00,0.0347
1174.00,0.0347
1173.00,0.0348
1172.00,0.0348
1171.00,0.0347
1170.00,0.0346
1169.00,0.0346
1168.00,0.0345
1167.00,0.0345
1166.00,0.0345
1165.00,0.0345
1164.00,0.0344
1163.00,0.0344
1162.00,0.0344
1161.00,0.0344
1160.00,0.0344
1159.00,0.0344
1158.00,0.0343
1157.00,0.0343
1156.00,0.0343
1155.00,0.0345
1154.00,0.0346
1153.00,0.0345
1152.00,0.0343
1151.00,0.0342
1150.00,0.0341
1149.00,0.0341
1148.00,0.0340
1147.00,0.0340
1146.00,0.0341
1145.00,0.0341
1144.00,0.0342
1143.00,0.0344
1142.00,0.0344
1141.00,0.0345
1140.00,0.0345
1139.00,0.0344
1138.00,0.0344
1137.00,0.0345
1136.00,0.0345
1135.00,0.0346
1134.00,0.0347
1133.00,0.0348
1132.00,0.0348
1131.00,0.0348
1130.00,0.0349
1129.00,0.0350
1128.00,0.0351
1127.00,0.0351
1126.00,0.0350
1125.00,0.0348
1124.00,0.0349
1123.00,0.0351
1122.00,0.0356
1121.00,0.0360
1120.00,0.0363
1119.00,0.0364
1118.00,0.0364
1117.00,0.0364
1116.00,0.0365
1115.00,0.0366
1114.00,0.0367
1113.00,0.0366
1112.00,0.0366
1111.00,0.0365
1110.00,0.0366
1109.00,0.0367
1108.00,0.0368
1107.00,0.0368
1106.00,0.0367
1105.00,0.0366
1104.00,0.0366
1103.00,0.0368
1102.00,0.0370
1101.00,0.0371
1100.00,0.0371
1099.00,0.0371
1098.00,0.0371
1097.00,0.0371
1096.00,0.0371
1095.00,0.0371
1094.00,0.0370
1093.00,0.0371
1092.00,0.0372
1091.00,0.0372
1090.00,0.0372
1089.00,0.0371
1088.00,0.0370
1087.00,0.0370
1086.00,0.0371
1085.00,0.0372
1084.00,0.0372
1083.00,0.0373
1082.00,0.0374
1081.00,0.0375
1080.00,0.0376
1079.00,0.0377
1078.00,0.0380
1077.00,0.0382
1076.00,0.0382
1075.00,0.0380
1074.00,0.0378
1073.00,0.0376
1072.00,0.0376
1071.00,0.0376
1070.00,0.0375
1069.00,0.0374
1068.00,0.0373
1067.00,0.0374
1066.00,0.0376
1065.00,0.0378
1064.00,0.0381
1063.00,0.0382
1062.00,0.0382
1061.00,0.0380
1060.00,0.0378
1059.00,0.0377
1058.00,0.0378
1057.00,0.0379
1056.00,0.0380
1055.00,0.0381
1054.00,0.0383
1053.00,0.0385
1052.00,0.0387
1051.00,0.0388
1050.00,0.0389
1049.00,0.0391
1048.00,0.0393
1047.00,0.0394
1046.00,0.0395
1045.00,0.0396
1044.00,0.0398
1043.00,0.0398
1042.00,0.0397
1041.00,0.0396
1040.00,0.0396
1039.00,0.0396
1038.00,0.0397
1037.00,0.0397
1036.00,0.0397
1035.00,0.0397
1034.00,0.0397
1033.00,0.0397
1032.00,0.0398
1031.00,0.0397
1030.00,0.0396
1029.00,0.0394
1028.00,0.0392
1027.00,0.0391
1026.00,0.0391
1025.00,0.0392
1024.00,0.0392
1023.00,0.0391
1022.00,0.0388
1021.00,0.0386
1020.00,0.0384
1019.00,0.0383
1018.00,0.0382
1017.00,0.0382
1016.00,0.0383
1015.00,0.0384
1014.00,0.0384
1013.00,0.0384
1012.00,0.0384
1011.00,0.0382
1010.00,0.0381
1009.00,0.0380
1008.00,0.0379
1007.00,0.0377
1006.00,0.0375
1005.00,0.0374
1004.00,0.0374
1003.00,0.0373
1002.00,0.0372
1001.00,0.0370
1000.00,0.0367
999.00,0.0364
998.00,0.0361
997.00,0.0360
996.00,0.0360
995.00,0.0360
994.00,0.0359
993.00,0.0356
992.00,0.0353
991.00,0.0351
990.00,0.0349
989.00,0.0349
988.00,0.0349
987.00,0.0349
986.00,0.0349
985.00,0.0349
984.00,0.0347
983.00,0.0344
982.00,0.0341
981.00,0.0340
980.00,0.0339
979.00,0.0339
978.00,0.0337
977.00,0.0335
976.00,0.0332
975.00,0.0331
974.00,0.0330
973.00,0.0330
972.00,0.0329
971.00,0.0327
970.00,0.0324
969.00,0.0321
968.00,0.0319
967.00,0.0317
966.00,0.0316
965.00,0.0316
964.00,0.0315
963.00,0.0316
962.00,0.0316
961.00,0.0316
960.00,0.0315
959.00,0.0314
958.00,0.0313
957.00,0.0312
956.00,0.0312
955.00,0.0311
954.00,0.0309
953.00,0.0308
952.00,0.0309
951.00,0.0310
950.00,0.0312
949.00,0.0313
948.00,0.0313
947.00,0.0312
946.00,0.0311
945.00,0.0309
944.00,0.0309
943.00,0.0309
942.00,0.0309
941.00,0.0309
940.00,0.0310
939.00,0.0311
938.00,0.0312
937.00,0.0312
936.00,0.0311
935.00,0.0310
934.00,0.0309
933.00,0.0311
932.00,0.0314
931.00,0.0317
930.00,0.0318
929.00,0.0319
928.00,0.0319
927.00,0.0320
926.00,0.0320
925.00,0.0320
924.00,0.0321
923.00,0.0322
922.00,0.0322
921.00,0.0322
920.00,0.0322
919.00,0.0321
918.00,0.0321
917.00,0.0323
916.00,0.0325
915.00,0.0327
914.00,0.0327
913.00,0.0327
912.00,0.0326
911.00,0.0324
910.00,0.0323
909.00,0.0320
908.00,0.0317
907.00,0.0316
906.00,0.0316
905.00,0.0319
904.00,0.0322
903.00,0.0326
902.00,0.0328
901.00,0.0327
900.00,0.0325
899.00,0.0324
898.00,0.0324
897.00,0.0326
896.00,0.0327
895.00,0.0327
894.00,0.0325
893.00,0.0323
892.00,0.0322
891.00,0.0321
890.00,0.0322
889.00,0.0324
888.00,0.0326
887.00,0.0325
886.00,0.0323
885.00,0.0321
884.00,0.0322
883.00,0.0325
882.00,0.0327
881.00,0.0328
880.00,0.0327
879.00,0.0325
878.00,0.0323
877.00,0.0322
876.00,0.0321
875.00,0.0321
874.00,0.0322
873.00,0.0322
872.00,0.0322
871.00,0.0324
870.00,0.0326
869.00,0.0326
868.00,0.0325
867.00,0.0324
866.00,0.0323
865.00,0.0324
864.00,0.0326
863.00,0.0328
862.00,0.0331
861.00,0.0333
860.00,0.0334
859.00,0.0333
858.00,0.0329
857.00,0.0326
856.00,0.0324
855.00,0.0325
854.00,0.0328
853.00,0.0330
852.00,0.0331
851.00,0.0331
850.00,0.0332
849.00,0.0334
848.00,0.0336
847.00,0.0337
846.00,0.0339
845.00,0.0341
844.00,0.0341
843.00,0.0341
842.00,0.0340
841.00,0.0339
840.00,0.0338
839.00,0.0337
838.00,0.0337
837.00,0.0339
836.00,0.0341
835.00,0.0341
834.00,0.0341
833.00,0.0340
832.00,0.0341
831.00,0.0342
830.00,0.0342
829.00,0.0342
828.00,0.0343
827.00,0.0344
826.00,0.0347
825.00,0.0351
824.00,0.0353
823.00,0.0355
822.00,0.0356
821.00,0.0357
820.00,0.0358
819.00,0.0359
818.00,0.0359
817.00,0.0357
816.00,0.0355
815.00,0.0355
814.00,0.0357
813.00,0.0361
812.00,0.0363
811.00,0.0364
810.00,0.0363
809.00,0.0362
808.00,0.0363
807.00,0.0363
806.00,0.0363
805.00,0.0361
804.00,0.0361
803.00,0.0361
802.00,0.0362
801.00,0.0365
800.00,0.0369
799.00,0.0372
798.00,0.0373
797.00,0.0371
796.00,0.0369
795.00,0.0368
794.00,0.0368
793.00,0.0369
792.00,0.0371
791.00,0.0374
790.00,0.0377
789.00,0.0379
788.00,0.0378
787.00,0.0377
786.00,0.0377
785.00,0.0380
784.00,0.0384
783.00,0.0387
782.00,0.0388
781.00,0.0387
780.00,0.0385
779.00,0.0385
778.00,0.0385
777.00,0.0387
776.00,0.0389
775.00,0.0389
774.00,0.0387
773.00,0.0384
772.00,0.0383
771.00,0.0384
770.00,0.0386
769.00,0.0388
768.00,0.0388
767.00,0.0387
766.00,0.0385
765.00,0.0385
764.00,0.0385
763.00,0.0386
762.00,0.0384
761.00,0.0382
760.00,0.0382
759.00,0.0385
758.00,0.0390
757.00,0.0393
756.00,0.0393
755.00,0.0391
754.00,0.0390
753.00,0.0390
752.00,0.0393
751.00,0.0397
750.00,0.0400
749.00,0.0402
748.00,0.0404
747.00,0.0404
746.00,0.0404
745.00,0.0402
744.00,0.0401
743.00,0.0400
742.00,0.0399
741.00,0.0399
740.00,0.0397
739.00,0.0396
738.00,0.0395
737.00,0.0396
736.00,0.0397
735.00,0.0397
734.00,0.0397
733.00,0.0398
732.00,0.0399
731.00,0.0402
730.00,0.0404
729.00,0.0407
728.00,0.0409
727.00,0.0412
726.00,0.0414
725.00,0.0415
724.00,0.0414
723.00,0.0412
722.00,0.0411
721.00,0.0412
720.00,0.0414
719.00,0.0415
718.00,0.0415
717.00,0.0415
716.00,0.0413
715.00,0.0411
714.00,0.0411
713.00,0.0414
712.00,0.0418
711.00,0.0420
710.00,0.0419
709.00,0.0417
708.00,0.0417
707.00,0.0418
706.00,0.0422
705.00,0.0427
704.00,0.0431
703.00,0.0434
702.00,0.0434
701.00,0.0431
700.00,0.0430
699.00,0.0430
698.00,0.0431
697.00,0.0432
696.00,0.0433
695.00,0.0434
694.00,0.0436
693.00,0.0440
692.00,0.0442
691.00,0.0444
690.00,0.0446
689.00,0.0449
688.00,0.0453
687.00,0.0455
686.00,0.0455
685.00,0.0455
684.00,0.0453
683.00,0.0451
682.00,0.0448
681.00,0.0447
680.00,0.0448
679.00,0.0449
678.00,0.0451
677.00,0.0452
676.00,0.0453
675.00,0.0453
674.00,0.0453
673.00,0.0454
672.00,0.0456
671.00,0.0458
670.00,0.0460
669.00,0.0464
668.00,0.0470
667.00,0.0474
666.00,0.0477
665.00,0.0479
664.00,0.0480
663.00,0.0478
662.00,0.0474
661.00,0.0468
660.00,0.0463
659.00,0.0461
658.00,0.0463
657.00,0.0469
656.00,0.0476
655.00,0.0481
654.00,0.0478
653.00,0.0473
652.00,0.0456
651.00,0.0453
650.00,0.0458
