Created as New Dataset,Monday, April 03 2023
cm-1,A
4000.00,0.0031
3999.00,0.0031
3998.00,0.0032
3997.00,0.0031
3996.00,0.0031
3995.00,0.0031
3994.00,0.0031
3993.00,0.0031
3992.00,0.0031
3991.00,0.0031
3990.00,0.0031
3989.00,0.0031
3988.00,0.0031
3987.00,0.0030
3986.00,0.0030
3985.00,0.0031
3984.00,0.0031
3983.00,0.0031
3982.00,0.0031
3981.00,0.0030
3980.00,0.0030
3979.00,0.0030
3978.00,0.0030
3977.00,0.0029
3976.00,0.0029
3975.00,0.0029
3974.00,0.0028
3973.00,0.0029
3972.00,0.0029
3971.00,0.0030
3970.00,0.0030
3969.00,0.0030
3968.00,0.0030
3967.00,0.0029
3966.00,0.0029
3965.00,0.0029
3964.00,0.0029
3963.00,0.0030
3962.00,0.0030
3961.00,0.0030
3960.00,0.0030
3959.00,0.0029
3958.00,0.0029
3957.00,0.0029
3956.00,0.0029
3955.00,0.0028
3954.00,0.0028
3953.00,0.0028
3952.00,0.0029
3951.00,0.0029
3950.00,0.0030
3949.00,0.0030
3948.00,0.0031
3947.00,0.0031
3946.00,0.0031
3945.00,0.0031
3944.00,0.0030
3943.00,0.0029
3942.00,0.0027
3941.00,0.0027
3940.00,0.0027
3939.00,0.0028
3938.00,0.0028
3937.00,0.0029
3936.00,0.0029
3935.00,0.0029
3934.00,0.0029
3933.00,0.0028
3932.00,0.0028
3931.00,0.0028
3930.00,0.0028
3929.00,0.0028
3928.00,0.0029
3927.00,0.0029
3926.00,0.0030
3925.00,0.0030
3924.00,0.0030
3923.00,0.0030
3922.00,0.0030
3921.00,0.0029
3920.00,0.0029
3919.00,0.0029
3918.00,0.0029
3917.00,0.0028
3916.00,0.0028
3915.00,0.0028
3914.00,0.0028
3913.00,0.0028
3912.00,0.0028
3911.00,0.0028
3910.00,0.0028
3909.00,0.0028
3908.00,0.0028
3907.00,0.0028
3906.00,0.0028
3905.00,0.0027
3904.00,0.0027
3903.00,0.0027
3902.00,0.0027
3901.00,0.0028
3900.00,0.0028
3899.00,0.0027
3898.00,0.0027
3897.00,0.0027
3896.00,0.0028
3895.00,0.0028
3894.00,0.0028
3893.00,0.0028
3892.00,0.0027
3891.00,0.0025
3890.00,0.0025
3889.00,0.0024
3888.00,0.0025
3887.00,0.0025
3886.00,0.0025
3885.00,0.0025
3884.00,0.0025
3883.00,0.0026
3882.00,0.0025
3881.00,0.0025
3880.00,0.0024
3879.00,0.0024
3878.00,0.0026
3877.00,0.0029
3876.00,0.0030
3875.00,0.0030
3874.00,0.0028
3873.00,0.0027
3872.00,0.0026
3871.00,0.0026
3870.00,0.0025
3869.00,0.0025
3868.00,0.0025
3867.00,0.0026
3866.00,0.0027
3865.00,0.0027
3864.00,0.0028
3863.00,0.0027
3862.00,0.0028
3861.00,0.0028
3860.00,0.0028
3859.00,0.0028
3858.00,0.0026
3857.00,0.0024
3856.00,0.0021
3855.00,0.0021
3854.00,0.0022
3853.00,0.0023
3852.00,0.0022
3851.00,0.0023
3850.00,0.0024
3849.00,0.0024
3848.00,0.0025
3847.00,0.0025
3846.00,0.0026
3845.00,0.0027
3844.00,0.0027
3843.00,0.0027
3842.00,0.0027
3841.00,0.0027
3840.00,0.0028
3839.00,0.0027
3838.00,0.0026
3837.00,0.0025
3836.00,0.0024
3835.00,0.0025
3834.00,0.0025
3833.00,0.0026
3832.00,0.0026
3831.00,0.0026
3830.00,0.0027
3829.00,0.0027
3828.00,0.0027
3827.00,0.0027
3826.00,0.0026
3825.00,0.0026
3824.00,0.0027
3823.00,0.0028
3822.00,0.0028
3821.00,0.0027
3820.00,0.0025
3819.00,0.0025
3818.00,0.0025
3817.00,0.0024
3816.00,0.0024
3815.00,0.0024
3814.00,0.0025
3813.00,0.0026
3812.00,0.0026
3811.00,0.0026
3810.00,0.0025
3809.00,0.0025
3808.00,0.0025
3807.00,0.0026
3806.00,0.0027
3805.00,0.0028
3804.00,0.0029
3803.00,0.0029
3802.00,0.0029
3801.00,0.0027
3800.00,0.0026
3799.00,0.0026
3798.00,0.0026
3797.00,0.0026
3796.00,0.0025
3795.00,0.0025
3794.00,0.0025
3793.00,0.0026
3792.00,0.0027
3791.00,0.0027
3790.00,0.0027
3789.00,0.0027
3788.00,0.0028
3787.00,0.0028
3786.00,0.0028
3785.00,0.0028
3784.00,0.0028
3783.00,0.0028
3782.00,0.0028
3781.00,0.0028
3780.00,0.0027
3779.00,0.0026
3778.00,0.0026
3777.00,0.0026
3776.00,0.0027
3775.00,0.0027
3774.00,0.0027
3773.00,0.0027
3772.00,0.0027
3771.00,0.0026
3770.00,0.0026
3769.00,0.0025
3768.00,0.0025
3767.00,0.0025
3766.00,0.0026
3765.00,0.0026
3764.00,0.0027
3763.00,0.0027
3762.00,0.0028
3761.00,0.0029
3760.00,0.0029
3759.00,0.0028
3758.00,0.0027
3757.00,0.0027
3756.00,0.0026
3755.00,0.0026
3754.00,0.0026
3753.00,0.0026
3752.00,0.0027
3751.00,0.0027
3750.00,0.0027
3749.00,0.0027
3748.00,0.0027
3747.00,0.0027
3746.00,0.0026
3745.00,0.0024
3744.00,0.0023
3743.00,0.0024
3742.00,0.0026
3741.00,0.0028
3740.00,0.0029
3739.00,0.0029
3738.00,0.0030
3737.00,0.0030
3736.00,0.0030
3735.00,0.0028
3734.00,0.0026
3733.00,0.0025
3732.00,0.0025
3731.00,0.0026
3730.00,0.0027
3729.00,0.0028
3728.00,0.0029
3727.00,0.0030
3726.00,0.0030
3725.00,0.0030
3724.00,0.0030
3723.00,0.0029
3722.00,0.0029
3721.00,0.0030
3720.00,0.0031
3719.00,0.0031
3718.00,0.0032
3717.00,0.0032
3716.00,0.0032
3715.00,0.0033
3714.00,0.0034
3713.00,0.0036
3712.00,0.0038
3711.00,0.0038
3710.00,0.0038
3709.00,0.0038
3708.00,0.0039
3707.00,0.0042
3706.00,0.0045
3705.00,0.0048
3704.00,0.0049
3703.00,0.0050
3702.00,0.0051
3701.00,0.0052
3700.00,0.0054
3699.00,0.0056
3698.00,0.0058
3697.00,0.0059
3696.00,0.0059
3695.00,0.0058
3694.00,0.0058
3693.00,0.0057
3692.00,0.0057
3691.00,0.0058
3690.00,0.0059
3689.00,0.0058
3688.00,0.0057
3687.00,0.0056
3686.00,0.0055
3685.00,0.0054
3684.00,0.0054
3683.00,0.0053
3682.00,0.0052
3681.00,0.0052
3680.00,0.0051
3679.00,0.0049
3678.00,0.0048
3677.00,0.0047
3676.00,0.0047
3675.00,0.0046
3674.00,0.0046
3673.00,0.0048
3672.00,0.0051
3671.00,0.0054
3670.00,0.0055
3669.00,0.0056
3668.00,0.0056
3667.00,0.0057
3666.00,0.0059
3665.00,0.0060
3664.00,0.0062
3663.00,0.0063
3662.00,0.0065
3661.00,0.0067
3660.00,0.0068
3659.00,0.0070
3658.00,0.0072
3657.00,0.0074
3656.00,0.0076
3655.00,0.0077
3654.00,0.0078
3653.00,0.0079
3652.00,0.0081
3651.00,0.0082
3650.00,0.0085
3649.00,0.0085
3648.00,0.0085
3647.00,0.0085
3646.00,0.0086
3645.00,0.0088
3644.00,0.0090
3643.00,0.0092
3642.00,0.0093
3641.00,0.0093
3640.00,0.0094
3639.00,0.0095
3638.00,0.0096
3637.00,0.0097
3636.00,0.0099
3635.00,0.0100
3634.00,0.0101
3633.00,0.0102
3632.00,0.0102
3631.00,0.0103
3630.00,0.0107
3629.00,0.0112
3628.00,0.0115
3627.00,0.0118
3626.00,0.0120
3625.00,0.0122
3624.00,0.0124
3623.00,0.0127
3622.00,0.0129
3621.00,0.0133
3620.00,0.0136
3619.00,0.0138
3618.00,0.0138
3617.00,0.0139
3616.00,0.0139
3615.00,0.0139
3614.00,0.0139
3613.00,0.0139
3612.00,0.0139
3611.00,0.0141
3610.00,0.0144
3609.00,0.0147
3608.00,0.0149
3607.00,0.0151
3606.00,0.0151
3605.00,0.0152
3604.00,0.0153
3603.00,0.0155
3602.00,0.0158
3601.00,0.0161
3600.00,0.0163
3599.00,0.0165
3598.00,0.0165
3597.00,0.0166
3596.00,0.0168
3595.00,0.0170
3594.00,0.0171
3593.00,0.0172
3592.00,0.0173
3591.00,0.0175
3590.00,0.0176
3589.00,0.0179
3588.00,0.0183
3587.00,0.0186
3586.00,0.0189
3585.00,0.0192
3584.00,0.0193
3583.00,0.0195
3582.00,0.0196
3581.00,0.0198
3580.00,0.0199
3579.00,0.0201
3578.00,0.0203
3577.00,0.0206
3576.00,0.0208
3575.00,0.0210
3574.00,0.0212
3573.00,0.0214
3572.00,0.0215
3571.00,0.0215
3570.00,0.0217
3569.00,0.0219
3568.00,0.0224
3567.00,0.0230
3566.00,0.0233
3565.00,0.0234
3564.00,0.0235
3563.00,0.0236
3562.00,0.0238
3561.00,0.0240
3560.00,0.0243
3559.00,0.0245
3558.00,0.0248
3557.00,0.0250
3556.00,0.0253
3555.00,0.0255
3554.00,0.0257
3553.00,0.0260
3552.00,0.0262
3551.00,0.0265
3550.00,0.0267
3549.00,0.0269
3548.00,0.0272
3547.00,0.0274
3546.00,0.0277
3545.00,0.0280
3544.00,0.0282
3543.00,0.0284
3542.00,0.0286
3541.00,0.0288
3540.00,0.0289
3539.00,0.0289
3538.00,0.0290
3537.00,0.0292
3536.00,0.0294
3535.00,0.0297
3534.00,0.0300
3533.00,0.0303
3532.00,0.0305
3531.00,0.0307
3530.00,0.0309
3529.00,0.0311
3528.00,0.0312
3527.00,0.0314
3526.00,0.0317
3525.00,0.0321
3524.00,0.0324
3523.00,0.0327
3522.00,0.0329
3521.00,0.0330
3520.00,0.0330
3519.00,0.0331
3518.00,0.0332
3517.00,0.0334
3516.00,0.0335
3515.00,0.0338
3514.00,0.0341
3513.00,0.0345
3512.00,0.0349
3511.00,0.0351
3510.00,0.0354
3509.00,0.0355
3508.00,0.0357
3507.00,0.0358
3506.00,0.0360
3505.00,0.0362
3504.00,0.0366
3503.00,0.0369
3502.00,0.0372
3501.00,0.0374
3500.00,0.0376
3499.00,0.0377
3498.00,0.0379
3497.00,0.0381
3496.00,0.0384
3495.00,0.0386
3494.00,0.0388
3493.00,0.0390
3492.00,0.0392
3491.00,0.0394
3490.00,0.0396
3489.00,0.0399
3488.00,0.0401
3487.00,0.0404
3486.00,0.0406
3485.00,0.0408
3484.00,0.0410
3483.00,0.0412
3482.00,0.0415
3481.00,0.0418
3480.00,0.0420
3479.00,0.0422
3478.00,0.0425
3477.00,0.0427
3476.00,0.0430
3475.00,0.0433
3474.00,0.0435
3473.00,0.0438
3472.00,0.0440
3471.00,0.0443
3470.00,0.0445
3469.00,0.0447
3468.00,0.0449
3467.00,0.0451
3466.00,0.0454
3465.00,0.0456
3464.00,0.0459
3463.00,0.0460
3462.00,0.0461
3461.00,0.0463
3460.00,0.0465
3459.00,0.0468
3458.00,0.0471
3457.00,0.0474
3456.00,0.0476
3455.00,0.0478
3454.00,0.0480
3453.00,0.0483
3452.00,0.0485
3451.00,0.0487
3450.00,0.0489
3449.00,0.0491
3448.00,0.0494
3447.00,0.0497
3446.00,0.0500
3445.00,0.0502
3444.00,0.0505
3443.00,0.0507
3442.00,0.0508
3441.00,0.0510
3440.00,0.0511
3439.00,0.0512
3438.00,0.0514
3437.00,0.0516
3436.00,0.0519
3435.00,0.0521
3434.00,0.0523
3433.00,0.0525
3432.00,0.0528
3431.00,0.0531
3430.00,0.0533
3429.00,0.0535
3428.00,0.0537
3427.00,0.0539
3426.00,0.0541
3425.00,0.0544
3424.00,0.0547
3423.00,0.0550
3422.00,0.0553
3421.00,0.0555
3420.00,0.0558
3419.00,0.0561
3418.00,0.0563
3417.00,0.0564
3416.00,0.0566
3415.00,0.0567
3414.00,0.0569
3413.00,0.0571
3412.00,0.0574
3411.00,0.0576
3410.00,0.0578
3409.00,0.0581
3408.00,0.0583
3407.00,0.0585
3406.00,0.0587
3405.00,0.0588
3404.00,0.0590
3403.00,0.0591
3402.00,0.0593
3401.00,0.0595
3400.00,0.0597
3399.00,0.0599
3398.00,0.0601
3397.00,0.0602
3396.00,0.0603
3395.00,0.0605
3394.00,0.0606
3393.00,0.0609
3392.00,0.0611
3391.00,0.0614
3390.00,0.0615
3389.00,0.0616
3388.00,0.0618
3387.00,0.0619
3386.00,0.0620
3385.00,0.0622
3384.00,0.0625
3383.00,0.0627
3382.00,0.0629
3381.00,0.0631
3380.00,0.0633
3379.00,0.0635
3378.00,0.0637
3377.00,0.0638
3376.00,0.0639
3375.00,0.0641
3374.00,0.0642
3373.00,0.0643
3372.00,0.0644
3371.00,0.0645
3370.00,0.0647
3369.00,0.0649
3368.00,0.0651
3367.00,0.0652
3366.00,0.0653
3365.00,0.0654
3364.00,0.0656
3363.00,0.0658
3362.00,0.0661
3361.00,0.0664
3360.00,0.0666
3359.00,0.0668
3358.00,0.0669
3357.00,0.0670
3356.00,0.0671
3355.00,0.0673
3354.00,0.0674
3353.00,0.0675
3352.00,0.0677
3351.00,0.0678
3350.00,0.0679
3349.00,0.0680
3348.00,0.0681
3347.00,0.0682
3346.00,0.0683
3345.00,0.0683
3344.00,0.0684
3343.00,0.0684
3342.00,0.0685
3341.00,0.0686
3340.00,0.0687
3339.00,0.0688
3338.00,0.0688
3337.00,0.0689
3336.00,0.0688
3335.00,0.0688
3334.00,0.0688
3333.00,0.0688
3332.00,0.0688
3331.00,0.0687
3330.00,0.0687
3329.00,0.0686
3328.00,0.0685
3327.00,0.0685
3326.00,0.0686
3325.00,0.0687
3324.00,0.0687
3323.00,0.0687
3322.00,0.0686
3321.00,0.0685
3320.00,0.0684
3319.00,0.0684
3318.00,0.0683
3317.00,0.0683
3316.00,0.0682
3315.00,0.0681
3314.00,0.0681
3313.00,0.0681
3312.00,0.0680
3311.00,0.0680
3310.00,0.0681
3309.00,0.0681
3308.00,0.0682
3307.00,0.0682
3306.00,0.0682
3305.00,0.0681
3304.00,0.0681
3303.00,0.0681
3302.00,0.0681
3301.00,0.0681
3300.00,0.0681
3299.00,0.0680
3298.00,0.0680
3297.00,0.0680
3296.00,0.0680
3295.00,0.0681
3294.00,0.0681
3293.00,0.0680
3292.00,0.0679
3291.00,0.0678
3290.00,0.0678
3289.00,0.0678
3288.00,0.0678
3287.00,0.0678
3286.00,0.0678
3285.00,0.0678
3284.00,0.0677
3283.00,0.0677
3282.00,0.0676
3281.00,0.0674
3280.00,0.0674
3279.00,0.0673
3278.00,0.0673
3277.00,0.0672
3276.00,0.0671
3275.00,0.0670
3274.00,0.0669
3273.00,0.0669
3272.00,0.0668
3271.00,0.0667
3270.00,0.0667
3269.00,0.0666
3268.00,0.0665
3267.00,0.0663
3266.00,0.0661
3265.00,0.0659
3264.00,0.0657
3263.00,0.0655
3262.00,0.0654
3261.00,0.0653
3260.00,0.0652
3259.00,0.0651
3258.00,0.0650
3257.00,0.0648
3256.00,0.0646
3255.00,0.0644
3254.00,0.0643
3253.00,0.0642
3252.00,0.0641
3251.00,0.0639
3250.00,0.0638
3249.00,0.0637
3248.00,0.0635
3247.00,0.0634
3246.00,0.0632
3245.00,0.0631
3244.00,0.0630
3243.00,0.0628
3242.00,0.0626
3241.00,0.0625
3240.00,0.0623
3239.00,0.0622
3238.00,0.0621
3237.00,0.0620
3236.00,0.0619
3235.00,0.0618
3234.00,0.0617
3233.00,0.0615
3232.00,0.0614
3231.00,0.0612
3230.00,0.0610
3229.00,0.0608
3228.00,0.0606
3227.00,0.0604
3226.00,0.0603
3225.00,0.0602
3224.00,0.0600
3223.00,0.0598
3222.00,0.0597
3221.00,0.0595
3220.00,0.0593
3219.00,0.0591
3218.00,0.0589
3217.00,0.0588
3216.00,0.0587
3215.00,0.0587
3214.00,0.0585
3213.00,0.0584
3212.00,0.0581
3211.00,0.0579
3210.00,0.0576
3209.00,0.0574
3208.00,0.0573
3207.00,0.0571
3206.00,0.0570
3205.00,0.0569
3204.00,0.0568
3203.00,0.0567
3202.00,0.0565
3201.00,0.0563
3200.00,0.0561
3199.00,0.0559
3198.00,0.0557
3197.00,0.0556
3196.00,0.0554
3195.00,0.0552
3194.00,0.0550
3193.00,0.0549
3192.00,0.0547
3191.00,0.0545
3190.00,0.0542
3189.00,0.0540
3188.00,0.0537
3187.00,0.0535
3186.00,0.0534
3185.00,0.0533
3184.00,0.0531
3183.00,0.0530
3182.00,0.0529
3181.00,0.0528
3180.00,0.0526
3179.00,0.0523
3178.00,0.0521
3177.00,0.0518
3176.00,0.0516
3175.00,0.0515
3174.00,0.0514
3173.00,0.0513
3172.00,0.0511
3171.00,0.0509
3170.00,0.0506
3169.00,0.0504
3168.00,0.0502
3167.00,0.0501
3166.00,0.0500
3165.00,0.0499
3164.00,0.0497
3163.00,0.0496
3162.00,0.0494
3161.00,0.0491
3160.00,0.0489
3159.00,0.0486
3158.00,0.0484
3157.00,0.0482
3156.00,0.0480
3155.00,0.0479
3154.00,0.0479
3153.00,0.0478
3152.00,0.0476
3151.00,0.0474
3150.00,0.0471
3149.00,0.0469
3148.00,0.0467
3147.00,0.0465
3146.00,0.0463
3145.00,0.0462
3144.00,0.0460
3143.00,0.0459
3142.00,0.0457
3141.00,0.0455
3140.00,0.0453
3139.00,0.0452
3138.00,0.0450
3137.00,0.0449
3136.00,0.0447
3135.00,0.0446
3134.00,0.0444
3133.00,0.0442
3132.00,0.0440
3131.00,0.0439
3130.00,0.0437
3129.00,0.0436
3128.00,0.0434
3127.00,0.0432
3126.00,0.0431
3125.00,0.0429
3124.00,0.0427
3123.00,0.0425
3122.00,0.0424
3121.00,0.0422
3120.00,0.0421
3119.00,0.0419
3118.00,0.0418
3117.00,0.0416
3116.00,0.0414
3115.00,0.0413
3114.00,0.0411
3113.00,0.0410
3112.00,0.0408
3111.00,0.0406
3110.00,0.0405
3109.00,0.0403
3108.00,0.0402
3107.00,0.0401
3106.00,0.0400
3105.00,0.0399
3104.00,0.0398
3103.00,0.0396
3102.00,0.0394
3101.00,0.0392
3100.00,0.0390
3099.00,0.0388
3098.00,0.0386
3097.00,0.0385
3096.00,0.0384
3095.00,0.0384
3094.00,0.0383
3093.00,0.0382
3092.00,0.0380
3091.00,0.0379
3090.00,0.0377
3089.00,0.0374
3088.00,0.0372
3087.00,0.0370
3086.00,0.0369
3085.00,0.0368
3084.00,0.0367
3083.00,0.0366
3082.00,0.0364
3081.00,0.0363
3080.00,0.0361
3079.00,0.0360
3078.00,0.0358
3077.00,0.0357
3076.00,0.0355
3075.00,0.0354
3074.00,0.0352
3073.00,0.0351
3072.00,0.0350
3071.00,0.0349
3070.00,0.0348
3069.00,0.0347
3068.00,0.0345
3067.00,0.0344
3066.00,0.0342
3065.00,0.0339
3064.00,0.0337
3063.00,0.0335
3062.00,0.0334
3061.00,0.0333
3060.00,0.0332
3059.00,0.0331
3058.00,0.0329
3057.00,0.0328
3056.00,0.0326
3055.00,0.0325
3054.00,0.0323
3053.00,0.0321
3052.00,0.0320
3051.00,0.0319
3050.00,0.0318
3049.00,0.0318
3048.00,0.0317
3047.00,0.0315
3046.00,0.0314
3045.00,0.0312
3044.00,0.0311
3043.00,0.0309
3042.00,0.0306
3041.00,0.0305
3040.00,0.0303
3039.00,0.0302
3038.00,0.0301
3037.00,0.0301
3036.00,0.0300
3035.00,0.0299
3034.00,0.0298
3033.00,0.0296
3032.00,0.0294
3031.00,0.0293
3030.00,0.0291
3029.00,0.0289
3028.00,0.0288
3027.00,0.0287
3026.00,0.0286
3025.00,0.0285
3024.00,0.0284
3023.00,0.0283
3022.00,0.0282
3021.00,0.0281
3020.00,0.0280
3019.00,0.0278
3018.00,0.0276
3017.00,0.0275
3016.00,0.0274
3015.00,0.0273
3014.00,0.0271
3013.00,0.0270
3012.00,0.0269
3011.00,0.0268
3010.00,0.0267
3009.00,0.0265
3008.00,0.0264
3007.00,0.0262
3006.00,0.0260
3005.00,0.0259
3004.00,0.0258
3003.00,0.0257
3002.00,0.0255
3001.00,0.0254
3000.00,0.0252
2999.00,0.0251
2998.00,0.0249
2997.00,0.0248
2996.00,0.0247
2995.00,0.0247
2994.00,0.0246
2993.00,0.0246
2992.00,0.0245
2991.00,0.0245
2990.00,0.0244
2989.00,0.0244
2988.00,0.0243
2987.00,0.0242
2986.00,0.0240
2985.00,0.0238
2984.00,0.0235
2983.00,0.0234
2982.00,0.0233
2981.00,0.0234
2980.00,0.0235
2979.00,0.0237
2978.00,0.0239
2977.00,0.0242
2976.00,0.0244
2975.00,0.0245
2974.00,0.0246
2973.00,0.0246
2972.00,0.0247
2971.00,0.0248
2970.00,0.0250
2969.00,0.0252
2968.00,0.0254
2967.00,0.0256
2966.00,0.0257
2965.00,0.0258
2964.00,0.0260
2963.00,0.0262
2962.00,0.0263
2961.00,0.0265
2960.00,0.0266
2959.00,0.0267
2958.00,0.0269
2957.00,0.0271
2956.00,0.0273
2955.00,0.0276
2954.00,0.0279
2953.00,0.0281
2952.00,0.0284
2951.00,0.0286
2950.00,0.0288
2949.00,0.0291
2948.00,0.0293
2947.00,0.0295
2946.00,0.0296
2945.00,0.0299
2944.00,0.0301
2943.00,0.0304
2942.00,0.0307
2941.00,0.0309
2940.00,0.0311
2939.00,0.0312
2938.00,0.0314
2937.00,0.0315
2936.00,0.0317
2935.00,0.0319
2934.00,0.0321
2933.00,0.0323
2932.00,0.0325
2931.00,0.0327
2930.00,0.0329
2929.00,0.0331
2928.00,0.0333
2927.00,0.0335
2926.00,0.0336
2925.00,0.0337
2924.00,0.0338
2923.00,0.0340
2922.00,0.0341
2921.00,0.0341
2920.00,0.0341
2919.00,0.0341
2918.00,0.0340
2917.00,0.0340
2916.00,0.0339
2915.00,0.0339
2914.00,0.0339
2913.00,0.0339
2912.00,0.0339
2911.00,0.0339
2910.00,0.0339
2909.00,0.0339
2908.00,0.0339
2907.00,0.0339
2906.00,0.0339
2905.00,0.0339
2904.00,0.0339
2903.00,0.0339
2902.00,0.0339
2901.00,0.0339
2900.00,0.0338
2899.00,0.0338
2898.00,0.0337
2897.00,0.0336
2896.00,0.0336
2895.00,0.0335
2894.00,0.0334
2893.00,0.0334
2892.00,0.0333
2891.00,0.0332
2890.00,0.0331
2889.00,0.0329
2888.00,0.0328
2887.00,0.0327
2886.00,0.0325
2885.00,0.0324
2884.00,0.0322
2883.00,0.0321
2882.00,0.0320
2881.00,0.0319
2880.00,0.0318
2879.00,0.0317
2878.00,0.0316
2877.00,0.0315
2876.00,0.0314
2875.00,0.0313
2874.00,0.0311
2873.00,0.0310
2872.00,0.0309
2871.00,0.0307
2870.00,0.0306
2869.00,0.0305
2868.00,0.0304
2867.00,0.0303
2866.00,0.0301
2865.00,0.0300
2864.00,0.0299
2863.00,0.0297
2862.00,0.0296
2861.00,0.0295
2860.00,0.0295
2859.00,0.0295
2858.00,0.0296
2857.00,0.0295
2856.00,0.0294
2855.00,0.0292
2854.00,0.0289
2853.00,0.0287
2852.00,0.0285
2851.00,0.0283
2850.00,0.0281
2849.00,0.0278
2848.00,0.0275
2847.00,0.0271
2846.00,0.0267
2845.00,0.0263
2844.00,0.0260
2843.00,0.0257
2842.00,0.0254
2841.00,0.0251
2840.00,0.0248
2839.00,0.0245
2838.00,0.0242
2837.00,0.0240
2836.00,0.0239
2835.00,0.0238
2834.00,0.0237
2833.00,0.0235
2832.00,0.0233
2831.00,0.0230
2830.00,0.0229
2829.00,0.0228
2828.00,0.0227
2827.00,0.0226
2826.00,0.0224
2825.00,0.0223
2824.00,0.0222
2823.00,0.0221
2822.00,0.0219
2821.00,0.0218
2820.00,0.0216
2819.00,0.0215
2818.00,0.0214
2817.00,0.0213
2816.00,0.0212
2815.00,0.0211
2814.00,0.0209
2813.00,0.0208
2812.00,0.0207
2811.00,0.0206
2810.00,0.0205
2809.00,0.0204
2808.00,0.0203
2807.00,0.0202
2806.00,0.0202
2805.00,0.0202
2804.00,0.0201
2803.00,0.0200
2802.00,0.0199
2801.00,0.0198
2800.00,0.0198
2799.00,0.0197
2798.00,0.0196
2797.00,0.0195
2796.00,0.0194
2795.00,0.0193
2794.00,0.0193
2793.00,0.0192
2792.00,0.0191
2791.00,0.0191
2790.00,0.0191
2789.00,0.0190
2788.00,0.0190
2787.00,0.0189
2786.00,0.0188
2785.00,0.0187
2784.00,0.0186
2783.00,0.0185
2782.00,0.0184
2781.00,0.0183
2780.00,0.0182
2779.00,0.0182
2778.00,0.0182
2777.00,0.0182
2776.00,0.0182
2775.00,0.0181
2774.00,0.0181
2773.00,0.0180
2772.00,0.0179
2771.00,0.0178
2770.00,0.0177
2769.00,0.0176
2768.00,0.0176
2767.00,0.0175
2766.00,0.0175
2765.00,0.0175
2764.00,0.0175
2763.00,0.0175
2762.00,0.0175
2761.00,0.0174
2760.00,0.0174
2759.00,0.0173
2758.00,0.0173
2757.00,0.0172
2756.00,0.0172
2755.00,0.0171
2754.00,0.0171
2753.00,0.0171
2752.00,0.0170
2751.00,0.0170
2750.00,0.0170
2749.00,0.0170
2748.00,0.0170
2747.00,0.0170
2746.00,0.0169
2745.00,0.0169
2744.00,0.0168
2743.00,0.0168
2742.00,0.0168
2741.00,0.0168
2740.00,0.0167
2739.00,0.0166
2738.00,0.0166
2737.00,0.0165
2736.00,0.0164
2735.00,0.0164
2734.00,0.0164
2733.00,0.0165
2732.00,0.0165
2731.00,0.0164
2730.00,0.0164
2729.00,0.0163
2728.00,0.0163
2727.00,0.0162
2726.00,0.0162
2725.00,0.0162
2724.00,0.0162
2723.00,0.0161
2722.00,0.0161
2721.00,0.0160
2720.00,0.0160
2719.00,0.0160
2718.00,0.0160
2717.00,0.0160
2716.00,0.0160
2715.00,0.0159
2714.00,0.0159
2713.00,0.0158
2712.00,0.0158
2711.00,0.0158
2710.00,0.0157
2709.00,0.0157
2708.00,0.0156
2707.00,0.0155
2706.00,0.0155
2705.00,0.0154
2704.00,0.0154
2703.00,0.0153
2702.00,0.0153
2701.00,0.0152
2700.00,0.0152
2699.00,0.0152
2698.00,0.0151
2697.00,0.0151
2696.00,0.0150
2695.00,0.0150
2694.00,0.0150
2693.00,0.0150
2692.00,0.0150
2691.00,0.0150
2690.00,0.0149
2689.00,0.0149
2688.00,0.0149
2687.00,0.0148
2686.00,0.0148
2685.00,0.0147
2684.00,0.0147
2683.00,0.0146
2682.00,0.0146
2681.00,0.0146
2680.00,0.0145
2679.00,0.0144
2678.00,0.0144
2677.00,0.0143
2676.00,0.0143
2675.00,0.0142
2674.00,0.0142
2673.00,0.0142
2672.00,0.0142
2671.00,0.0141
2670.00,0.0140
2669.00,0.0140
2668.00,0.0140
2667.00,0.0140
2666.00,0.0140
2665.00,0.0140
2664.00,0.0140
2663.00,0.0140
2662.00,0.0140
2661.00,0.0140
2660.00,0.0140
2659.00,0.0140
2658.00,0.0140
2657.00,0.0140
2656.00,0.0139
2655.00,0.0139
2654.00,0.0139
2653.00,0.0139
2652.00,0.0138
2651.00,0.0138
2650.00,0.0138
2649.00,0.0138
2648.00,0.0137
2647.00,0.0137
2646.00,0.0136
2645.00,0.0136
2644.00,0.0136
2643.00,0.0136
2642.00,0.0136
2641.00,0.0136
2640.00,0.0135
2639.00,0.0135
2638.00,0.0135
2637.00,0.0134
2636.00,0.0134
2635.00,0.0134
2634.00,0.0134
2633.00,0.0134
2632.00,0.0133
2631.00,0.0132
2630.00,0.0132
2629.00,0.0131
2628.00,0.0130
2627.00,0.0129
2626.00,0.0130
2625.00,0.0130
2624.00,0.0130
2623.00,0.0131
2622.00,0.0131
2621.00,0.0131
2620.00,0.0131
2619.00,0.0130
2618.00,0.0129
2617.00,0.0129
2616.00,0.0129
2615.00,0.0128
2614.00,0.0128
2613.00,0.0128
2612.00,0.0128
2611.00,0.0129
2610.00,0.0128
2609.00,0.0127
2608.00,0.0126
2607.00,0.0126
2606.00,0.0126
2605.00,0.0127
2604.00,0.0127
2603.00,0.0127
2602.00,0.0127
2601.00,0.0126
2600.00,0.0125
2599.00,0.0125
2598.00,0.0124
2597.00,0.0123
2596.00,0.0123
2595.00,0.0122
2594.00,0.0122
2593.00,0.0122
2592.00,0.0123
2591.00,0.0123
2590.00,0.0123
2589.00,0.0122
2588.00,0.0122
2587.00,0.0122
2586.00,0.0121
2585.00,0.0120
2584.00,0.0119
2583.00,0.0119
2582.00,0.0119
2581.00,0.0120
2580.00,0.0121
2579.00,0.0121
2578.00,0.0121
2577.00,0.0120
2576.00,0.0118
2575.00,0.0118
2574.00,0.0118
2573.00,0.0118
2572.00,0.0118
2571.00,0.0118
2570.00,0.0118
2569.00,0.0117
2568.00,0.0117
2567.00,0.0118
2566.00,0.0119
2565.00,0.0119
2564.00,0.0118
2563.00,0.0118
2562.00,0.0119
2561.00,0.0119
2560.00,0.0119
2559.00,0.0118
2558.00,0.0118
2557.00,0.0118
2556.00,0.0118
2555.00,0.0118
2554.00,0.0117
2553.00,0.0116
2552.00,0.0115
2551.00,0.0114
2550.00,0.0113
2549.00,0.0112
2548.00,0.0111
2547.00,0.0111
2546.00,0.0111
2545.00,0.0112
2544.00,0.0112
2543.00,0.0113
2542.00,0.0112
2541.00,0.0111
2540.00,0.0110
2539.00,0.0109
2538.00,0.0108
2537.00,0.0108
2536.00,0.0108
2535.00,0.0108
2534.00,0.0109
2533.00,0.0110
2532.00,0.0110
2531.00,0.0109
2530.00,0.0109
2529.00,0.0108
2528.00,0.0108
2527.00,0.0108
2526.00,0.0107
2525.00,0.0107
2524.00,0.0106
2523.00,0.0106
2522.00,0.0106
2521.00,0.0107
2520.00,0.0107
2519.00,0.0107
2518.00,0.0109
2517.00,0.0110
2516.00,0.0110
2515.00,0.0110
2514.00,0.0108
2513.00,0.0107
2512.00,0.0106
2511.00,0.0106
2510.00,0.0107
2509.00,0.0107
2508.00,0.0107
2507.00,0.0107
2506.00,0.0107
2505.00,0.0106
2504.00,0.0106
2503.00,0.0105
2502.00,0.0105
2501.00,0.0106
2500.00,0.0106
2499.00,0.0107
2498.00,0.0106
2497.00,0.0106
2496.00,0.0106
2495.00,0.0107
2494.00,0.0107
2493.00,0.0107
2492.00,0.0107
2491.00,0.0106
2490.00,0.0106
2489.00,0.0105
2488.00,0.0105
2487.00,0.0104
2486.00,0.0104
2485.00,0.0103
2484.00,0.0103
2483.00,0.0103
2482.00,0.0103
2481.00,0.0103
2480.00,0.0104
2479.00,0.0104
2478.00,0.0103
2477.00,0.0102
2476.00,0.0102
2475.00,0.0101
2474.00,0.0101
2473.00,0.0101
2472.00,0.0102
2471.00,0.0102
2470.00,0.0102
2469.00,0.0101
2468.00,0.0100
2467.00,0.0099
2466.00,0.0099
2465.00,0.0098
2464.00,0.0098
2463.00,0.0098
2462.00,0.0098
2461.00,0.0098
2460.00,0.0099
2459.00,0.0099
2458.00,0.0100
2457.00,0.0100
2456.00,0.0100
2455.00,0.0100
2454.00,0.0101
2453.00,0.0102
2452.00,0.0102
2451.00,0.0101
2450.00,0.0100
2449.00,0.0099
2448.00,0.0098
2447.00,0.0097
2446.00,0.0096
2445.00,0.0096
2444.00,0.0095
2443.00,0.0095
2442.00,0.0095
2441.00,0.0095
2440.00,0.0096
2439.00,0.0096
2438.00,0.0096
2437.00,0.0096
2436.00,0.0095
2435.00,0.0094
2434.00,0.0094
2433.00,0.0094
2432.00,0.0093
2431.00,0.0094
2430.00,0.0094
2429.00,0.0094
2428.00,0.0094
2427.00,0.0094
2426.00,0.0094
2425.00,0.0093
2424.00,0.0093
2423.00,0.0092
2422.00,0.0092
2421.00,0.0092
2420.00,0.0091
2419.00,0.0091
2418.00,0.0091
2417.00,0.0090
2416.00,0.0090
2415.00,0.0090
2414.00,0.0091
2413.00,0.0091
2412.00,0.0091
2411.00,0.0091
2410.00,0.0091
2409.00,0.0090
2408.00,0.0090
2407.00,0.0090
2406.00,0.0090
2405.00,0.0089
2404.00,0.0089
2403.00,0.0088
2402.00,0.0088
2401.00,0.0087
2400.00,0.0087
2399.00,0.0087
2398.00,0.0086
2397.00,0.0086
2396.00,0.0086
2395.00,0.0086
2394.00,0.0086
2393.00,0.0086
2392.00,0.0086
2391.00,0.0085
2390.00,0.0085
2389.00,0.0085
2388.00,0.0085
2387.00,0.0084
2386.00,0.0084
2385.00,0.0083
2384.00,0.0082
2383.00,0.0081
2382.00,0.0080
2381.00,0.0081
2380.00,0.0082
2379.00,0.0082
2378.00,0.0082
2377.00,0.0081
2376.00,0.0080
2375.00,0.0080
2374.00,0.0079
2373.00,0.0079
2372.00,0.0079
2371.00,0.0078
2370.00,0.0076
2369.00,0.0073
2368.00,0.0071
2367.00,0.0071
2366.00,0.0074
2365.00,0.0078
2364.00,0.0079
2363.00,0.0078
2362.00,0.0077
2361.00,0.0077
2360.00,0.0078
2359.00,0.0078
2358.00,0.0078
2357.00,0.0077
2356.00,0.0077
2355.00,0.0076
2354.00,0.0075
2353.00,0.0075
2352.00,0.0076
2351.00,0.0077
2350.00,0.0076
2349.00,0.0077
2348.00,0.0077
2347.00,0.0076
2346.00,0.0075
2345.00,0.0075
2344.00,0.0076
2343.00,0.0079
2342.00,0.0081
2341.00,0.0082
2340.00,0.0082
2339.00,0.0080
2338.00,0.0077
2337.00,0.0076
2336.00,0.0075
2335.00,0.0076
2334.00,0.0077
2333.00,0.0078
2332.00,0.0078
2331.00,0.0077
2330.00,0.0075
2329.00,0.0076
2328.00,0.0077
2327.00,0.0080
2326.00,0.0082
2325.00,0.0082
2324.00,0.0081
2323.00,0.0080
2322.00,0.0080
2321.00,0.0079
2320.00,0.0079
2319.00,0.0078
2318.00,0.0078
2317.00,0.0078
2316.00,0.0079
2315.00,0.0079
2314.00,0.0079
2313.00,0.0079
2312.00,0.0078
2311.00,0.0078
2310.00,0.0079
2309.00,0.0080
2308.00,0.0081
2307.00,0.0081
2306.00,0.0082
2305.00,0.0082
2304.00,0.0081
2303.00,0.0080
2302.00,0.0079
2301.00,0.0079
2300.00,0.0079
2299.00,0.0080
2298.00,0.0081
2297.00,0.0081
2296.00,0.0081
2295.00,0.0082
2294.00,0.0083
2293.00,0.0085
2292.00,0.0087
2291.00,0.0088
2290.00,0.0088
2289.00,0.0088
2288.00,0.0088
2287.00,0.0089
2286.00,0.0090
2285.00,0.0091
2284.00,0.0092
2283.00,0.0092
2282.00,0.0091
2281.00,0.0091
2280.00,0.0091
2279.00,0.0090
2278.00,0.0090
2277.00,0.0089
2276.00,0.0088
2275.00,0.0087
2274.00,0.0085
2273.00,0.0085
2272.00,0.0085
2271.00,0.0086
2270.00,0.0087
2269.00,0.0087
2268.00,0.0086
2267.00,0.0085
2266.00,0.0084
2265.00,0.0084
2264.00,0.0085
2263.00,0.0086
2262.00,0.0087
2261.00,0.0087
2260.00,0.0088
2259.00,0.0087
2258.00,0.0085
2257.00,0.0083
2256.00,0.0082
2255.00,0.0082
2254.00,0.0082
2253.00,0.0082
2252.00,0.0082
2251.00,0.0082
2250.00,0.0083
2249.00,0.0083
2248.00,0.0084
2247.00,0.0084
2246.00,0.0086
2245.00,0.0087
2244.00,0.0088
2243.00,0.0088
2242.00,0.0087
2241.00,0.0086
2240.00,0.0085
2239.00,0.0084
2238.00,0.0084
2237.00,0.0084
2236.00,0.0084
2235.00,0.0085
2234.00,0.0085
2233.00,0.0086
2232.00,0.0086
2231.00,0.0085
2230.00,0.0084
2229.00,0.0084
2228.00,0.0085
2227.00,0.0085
2226.00,0.0085
2225.00,0.0084
2224.00,0.0083
2223.00,0.0081
2222.00,0.0080
2221.00,0.0081
2220.00,0.0081
2219.00,0.0082
2218.00,0.0083
2217.00,0.0083
2216.00,0.0084
2215.00,0.0085
2214.00,0.0085
2213.00,0.0085
2212.00,0.0083
2211.00,0.0082
2210.00,0.0082
2209.00,0.0083
2208.00,0.0084
2207.00,0.0084
2206.00,0.0084
2205.00,0.0084
2204.00,0.0084
2203.00,0.0084
2202.00,0.0084
2201.00,0.0084
2200.00,0.0084
2199.00,0.0084
2198.00,0.0084
2197.00,0.0084
2196.00,0.0084
2195.00,0.0083
2194.00,0.0081
2193.00,0.0081
2192.00,0.0080
2191.00,0.0080
2190.00,0.0080
2189.00,0.0080
2188.00,0.0082
2187.00,0.0085
2186.00,0.0089
2185.00,0.0091
2184.00,0.0089
2183.00,0.0085
2182.00,0.0081
2181.00,0.0081
2180.00,0.0082
2179.00,0.0084
2178.00,0.0085
2177.00,0.0086
2176.00,0.0086
2175.00,0.0085
2174.00,0.0085
2173.00,0.0084
2172.00,0.0083
2171.00,0.0084
2170.00,0.0087
2169.00,0.0091
2168.00,0.0094
2167.00,0.0096
2166.00,0.0098
2165.00,0.0100
2164.00,0.0103
2163.00,0.0105
2162.00,0.0104
2161.00,0.0098
2160.00,0.0087
2159.00,0.0075
2158.00,0.0065
2157.00,0.0062
2156.00,0.0062
2155.00,0.0065
2154.00,0.0070
2153.00,0.0075
2152.00,0.0077
2151.00,0.0076
2150.00,0.0073
2149.00,0.0071
2148.00,0.0072
2147.00,0.0074
2146.00,0.0077
2145.00,0.0079
2144.00,0.0080
2143.00,0.0080
2142.00,0.0080
2141.00,0.0080
2140.00,0.0080
2139.00,0.0078
2138.00,0.0076
2137.00,0.0074
2136.00,0.0072
2135.00,0.0070
2134.00,0.0069
2133.00,0.0069
2132.00,0.0070
2131.00,0.0071
2130.00,0.0073
2129.00,0.0075
2128.00,0.0078
2127.00,0.0079
2126.00,0.0080
2125.00,0.0079
2124.00,0.0079
2123.00,0.0079
2122.00,0.0079
2121.00,0.0079
2120.00,0.0079
2119.00,0.0079
2118.00,0.0079
2117.00,0.0080
2116.00,0.0080
2115.00,0.0078
2114.00,0.0077
2113.00,0.0076
2112.00,0.0077
2111.00,0.0078
2110.00,0.0080
2109.00,0.0082
2108.00,0.0084
2107.00,0.0085
2106.00,0.0085
2105.00,0.0084
2104.00,0.0083
2103.00,0.0083
2102.00,0.0083
2101.00,0.0083
2100.00,0.0081
2099.00,0.0078
2098.00,0.0075
2097.00,0.0074
2096.00,0.0074
2095.00,0.0075
2094.00,0.0076
2093.00,0.0076
2092.00,0.0077
2091.00,0.0076
2090.00,0.0076
2089.00,0.0076
2088.00,0.0076
2087.00,0.0077
2086.00,0.0078
2085.00,0.0080
2084.00,0.0082
2083.00,0.0082
2082.00,0.0082
2081.00,0.0082
2080.00,0.0083
2079.00,0.0082
2078.00,0.0081
2077.00,0.0081
2076.00,0.0081
2075.00,0.0081
2074.00,0.0081
2073.00,0.0081
2072.00,0.0081
2071.00,0.0081
2070.00,0.0081
2069.00,0.0079
2068.00,0.0078
2067.00,0.0076
2066.00,0.0076
2065.00,0.0077
2064.00,0.0078
2063.00,0.0079
2062.00,0.0080
2061.00,0.0081
2060.00,0.0080
2059.00,0.0078
2058.00,0.0078
2057.00,0.0078
2056.00,0.0079
2055.00,0.0079
2054.00,0.0081
2053.00,0.0084
2052.00,0.0087
2051.00,0.0088
2050.00,0.0085
2049.00,0.0081
2048.00,0.0078
2047.00,0.0077
2046.00,0.0077
2045.00,0.0079
2044.00,0.0081
2043.00,0.0081
2042.00,0.0080
2041.00,0.0079
2040.00,0.0077
2039.00,0.0075
2038.00,0.0076
2037.00,0.0080
2036.00,0.0083
2035.00,0.0083
2034.00,0.0081
2033.00,0.0079
2032.00,0.0080
2031.00,0.0082
2030.00,0.0081
2029.00,0.0080
2028.00,0.0077
2027.00,0.0075
2026.00,0.0073
2025.00,0.0072
2024.00,0.0070
2023.00,0.0068
2022.00,0.0068
2021.00,0.0068
2020.00,0.0068
2019.00,0.0066
2018.00,0.0063
2017.00,0.0061
2016.00,0.0060
2015.00,0.0062
2014.00,0.0063
2013.00,0.0065
2012.00,0.0065
2011.00,0.0066
2010.00,0.0067
2009.00,0.0068
2008.00,0.0067
2007.00,0.0065
2006.00,0.0062
2005.00,0.0061
2004.00,0.0062
2003.00,0.0065
2002.00,0.0070
2001.00,0.0074
2000.00,0.0075
1999.00,0.0074
1998.00,0.0072
1997.00,0.0072
1996.00,0.0075
1995.00,0.0079
1994.00,0.0081
1993.00,0.0082
1992.00,0.0081
1991.00,0.0078
1990.00,0.0074
1989.00,0.0071
1988.00,0.0071
1987.00,0.0072
1986.00,0.0072
1985.00,0.0073
1984.00,0.0074
1983.00,0.0075
1982.00,0.0075
1981.00,0.0075
1980.00,0.0073
1979.00,0.0068
1978.00,0.0062
1977.00,0.0058
1976.00,0.0058
1975.00,0.0061
1974.00,0.0064
1973.00,0.0064
1972.00,0.0062
1971.00,0.0059
1970.00,0.0059
1969.00,0.0062
1968.00,0.0065
1967.00,0.0065
1966.00,0.0063
1965.00,0.0061
1964.00,0.0060
1963.00,0.0060
1962.00,0.0061
1961.00,0.0062
1960.00,0.0063
1959.00,0.0064
1958.00,0.0064
1957.00,0.0063
1956.00,0.0061
1955.00,0.0060
1954.00,0.0060
1953.00,0.0062
1952.00,0.0062
1951.00,0.0061
1950.00,0.0060
1949.00,0.0060
1948.00,0.0061
1947.00,0.0062
1946.00,0.0063
1945.00,0.0062
1944.00,0.0060
1943.00,0.0058
1942.00,0.0057
1941.00,0.0056
1940.00,0.0055
1939.00,0.0053
1938.00,0.0052
1937.00,0.0053
1936.00,0.0054
1935.00,0.0054
1934.00,0.0053
1933.00,0.0053
1932.00,0.0054
1931.00,0.0055
1930.00,0.0057
1929.00,0.0059
1928.00,0.0060
1927.00,0.0061
1926.00,0.0062
1925.00,0.0062
1924.00,0.0061
1923.00,0.0060
1922.00,0.0060
1921.00,0.0060
1920.00,0.0060
1919.00,0.0058
1918.00,0.0057
1917.00,0.0056
1916.00,0.0057
1915.00,0.0057
1914.00,0.0057
1913.00,0.0057
1912.00,0.0058
1911.00,0.0057
1910.00,0.0056
1909.00,0.0055
1908.00,0.0054
1907.00,0.0053
1906.00,0.0054
1905.00,0.0055
1904.00,0.0056
1903.00,0.0057
1902.00,0.0057
1901.00,0.0056
1900.00,0.0056
1899.00,0.0056
1898.00,0.0057
1897.00,0.0057
1896.00,0.0055
1895.00,0.0054
1894.00,0.0053
1893.00,0.0054
1892.00,0.0056
1891.00,0.0057
1890.00,0.0057
1889.00,0.0057
1888.00,0.0056
1887.00,0.0055
1886.00,0.0054
1885.00,0.0054
1884.00,0.0055
1883.00,0.0055
1882.00,0.0055
1881.00,0.0055
1880.00,0.0056
1879.00,0.0056
1878.00,0.0055
1877.00,0.0055
1876.00,0.0055
1875.00,0.0055
1874.00,0.0056
1873.00,0.0058
1872.00,0.0059
1871.00,0.0060
1870.00,0.0060
1869.00,0.0058
1868.00,0.0056
1867.00,0.0055
1866.00,0.0055
1865.00,0.0055
1864.00,0.0055
1863.00,0.0054
1862.00,0.0053
1861.00,0.0052
1860.00,0.0052
1859.00,0.0052
1858.00,0.0053
1857.00,0.0053
1856.00,0.0054
1855.00,0.0055
1854.00,0.0054
1853.00,0.0054
1852.00,0.0053
1851.00,0.0054
1850.00,0.0054
1849.00,0.0055
1848.00,0.0056
1847.00,0.0056
1846.00,0.0057
1845.00,0.0057
1844.00,0.0055
1843.00,0.0054
1842.00,0.0053
1841.00,0.0054
1840.00,0.0054
1839.00,0.0053
1838.00,0.0053
1837.00,0.0053
1836.00,0.0053
1835.00,0.0054
1834.00,0.0054
1833.00,0.0056
1832.00,0.0057
1831.00,0.0058
1830.00,0.0057
1829.00,0.0055
1828.00,0.0055
1827.00,0.0056
1826.00,0.0056
1825.00,0.0056
1824.00,0.0055
1823.00,0.0055
1822.00,0.0054
1821.00,0.0054
1820.00,0.0054
1819.00,0.0054
1818.00,0.0053
1817.00,0.0053
1816.00,0.0053
1815.00,0.0053
1814.00,0.0054
1813.00,0.0055
1812.00,0.0055
1811.00,0.0055
1810.00,0.0055
1809.00,0.0055
1808.00,0.0056
1807.00,0.0057
1806.00,0.0057
1805.00,0.0058
1804.00,0.0060
1803.00,0.0061
1802.00,0.0062
1801.00,0.0062
1800.00,0.0061
1799.00,0.0061
1798.00,0.0061
1797.00,0.0062
1796.00,0.0063
1795.00,0.0064
1794.00,0.0065
1793.00,0.0066
1792.00,0.0067
1791.00,0.0066
1790.00,0.0065
1789.00,0.0066
1788.00,0.0067
1787.00,0.0069
1786.00,0.0071
1785.00,0.0072
1784.00,0.0073
1783.00,0.0074
1782.00,0.0074
1781.00,0.0073
1780.00,0.0073
1779.00,0.0074
1778.00,0.0076
1777.00,0.0078
1776.00,0.0081
1775.00,0.0083
1774.00,0.0084
1773.00,0.0084
1772.00,0.0084
1771.00,0.0084
1770.00,0.0086
1769.00,0.0089
1768.00,0.0091
1767.00,0.0093
1766.00,0.0094
1765.00,0.0097
1764.00,0.0099
1763.00,0.0102
1762.00,0.0103
1761.00,0.0105
1760.00,0.0108
1759.00,0.0111
1758.00,0.0114
1757.00,0.0117
1756.00,0.0121
1755.00,0.0125
1754.00,0.0129
1753.00,0.0133
1752.00,0.0137
1751.00,0.0141
1750.00,0.0144
1749.00,0.0147
1748.00,0.0151
1747.00,0.0155
1746.00,0.0159
1745.00,0.0163
1744.00,0.0168
1743.00,0.0172
1742.00,0.0176
1741.00,0.0181
1740.00,0.0185
1739.00,0.0189
1738.00,0.0192
1737.00,0.0196
1736.00,0.0200
1735.00,0.0204
1734.00,0.0208
1733.00,0.0209
1732.00,0.0210
1731.00,0.0213
1730.00,0.0215
1729.00,0.0218
1728.00,0.0221
1727.00,0.0224
1726.00,0.0226
1725.00,0.0229
1724.00,0.0233
1723.00,0.0236
1722.00,0.0238
1721.00,0.0241
1720.00,0.0242
1719.00,0.0243
1718.00,0.0244
1717.00,0.0246
1716.00,0.0249
1715.00,0.0251
1714.00,0.0253
1713.00,0.0255
1712.00,0.0257
1711.00,0.0258
1710.00,0.0260
1709.00,0.0262
1708.00,0.0265
1707.00,0.0267
1706.00,0.0269
1705.00,0.0272
1704.00,0.0275
1703.00,0.0279
1702.00,0.0283
1701.00,0.0288
1700.00,0.0292
1699.00,0.0293
1698.00,0.0293
1697.00,0.0295
1696.00,0.0298
1695.00,0.0301
1694.00,0.0305
1693.00,0.0308
1692.00,0.0311
1691.00,0.0314
1690.00,0.0318
1689.00,0.0323
1688.00,0.0326
1687.00,0.0328
1686.00,0.0329
1685.00,0.0334
1684.00,0.0340
1683.00,0.0346
1682.00,0.0350
1681.00,0.0354
1680.00,0.0357
1679.00,0.0361
1678.00,0.0366
1677.00,0.0371
1676.00,0.0379
1675.00,0.0385
1674.00,0.0389
1673.00,0.0391
1672.00,0.0393
1671.00,0.0397
1670.00,0.0404
1669.00,0.0410
1668.00,0.0415
1667.00,0.0418
1666.00,0.0421
1665.00,0.0424
1664.00,0.0428
1663.00,0.0434
1662.00,0.0439
1661.00,0.0444
1660.00,0.0448
1659.00,0.0453
1658.00,0.0456
1657.00,0.0458
1656.00,0.0459
1655.00,0.0459
1654.00,0.0464
1653.00,0.0473
1652.00,0.0479
1651.00,0.0481
1650.00,0.0481
1649.00,0.0481
1648.00,0.0484
1647.00,0.0489
1646.00,0.0494
1645.00,0.0497
1644.00,0.0499
1643.00,0.0500
1642.00,0.0500
1641.00,0.0501
1640.00,0.0502
1639.00,0.0503
1638.00,0.0502
1637.00,0.0504
1636.00,0.0509
1635.00,0.0514
1634.00,0.0515
1633.00,0.0513
1632.00,0.0510
1631.00,0.0508
1630.00,0.0508
1629.00,0.0508
1628.00,0.0508
1627.00,0.0508
1626.00,0.0508
1625.00,0.0509
1624.00,0.0509
1623.00,0.0509
1622.00,0.0508
1621.00,0.0506
1620.00,0.0504
1619.00,0.0501
1618.00,0.0499
1617.00,0.0497
1616.00,0.0497
1615.00,0.0498
1614.00,0.0498
1613.00,0.0497
1612.00,0.0496
1611.00,0.0495
1610.00,0.0494
1609.00,0.0492
1608.00,0.0491
1607.00,0.0491
1606.00,0.0492
1605.00,0.0491
1604.00,0.0491
1603.00,0.0490
1602.00,0.0488
1601.00,0.0486
1600.00,0.0484
1599.00,0.0484
1598.00,0.0483
1597.00,0.0482
1596.00,0.0482
1595.00,0.0481
1594.00,0.0481
1593.00,0.0480
1592.00,0.0478
1591.00,0.0477
1590.00,0.0476
1589.00,0.0475
1588.00,0.0475
1587.00,0.0475
1586.00,0.0475
1585.00,0.0474
1584.00,0.0473
1583.00,0.0472
1582.00,0.0471
1581.00,0.0470
1580.00,0.0468
1579.00,0.0467
1578.00,0.0466
1577.00,0.0465
1576.00,0.0463
1575.00,0.0462
1574.00,0.0462
1573.00,0.0460
1572.00,0.0459
1571.00,0.0458
1570.00,0.0457
1569.00,0.0455
1568.00,0.0454
1567.00,0.0453
1566.00,0.0451
1565.00,0.0448
1564.00,0.0446
1563.00,0.0445
1562.00,0.0443
1561.00,0.0440
1560.00,0.0440
1559.00,0.0440
1558.00,0.0438
1557.00,0.0436
1556.00,0.0434
1555.00,0.0431
1554.00,0.0429
1553.00,0.0427
1552.00,0.0425
1551.00,0.0423
1550.00,0.0420
1549.00,0.0416
1548.00,0.0413
1547.00,0.0411
1546.00,0.0409
1545.00,0.0407
1544.00,0.0405
1543.00,0.0402
1542.00,0.0398
1541.00,0.0393
1540.00,0.0387
1539.00,0.0382
1538.00,0.0380
1537.00,0.0380
1536.00,0.0379
1535.00,0.0378
1534.00,0.0375
1533.00,0.0372
1532.00,0.0369
1531.00,0.0366
1530.00,0.0363
1529.00,0.0362
1528.00,0.0360
1527.00,0.0358
1526.00,0.0355
1525.00,0.0353
1524.00,0.0350
1523.00,0.0348
1522.00,0.0347
1521.00,0.0347
1520.00,0.0348
1519.00,0.0348
1518.00,0.0348
1517.00,0.0346
1516.00,0.0346
1515.00,0.0346
1514.00,0.0346
1513.00,0.0346
1512.00,0.0346
1511.00,0.0347
1510.00,0.0346
1509.00,0.0346
1508.00,0.0347
1507.00,0.0347
1506.00,0.0348
1505.00,0.0349
1504.00,0.0350
1503.00,0.0350
1502.00,0.0350
1501.00,0.0351
1500.00,0.0353
1499.00,0.0355
1498.00,0.0357
1497.00,0.0358
1496.00,0.0359
1495.00,0.0358
1494.00,0.0358
1493.00,0.0357
1492.00,0.0358
1491.00,0.0358
1490.00,0.0359
1489.00,0.0359
1488.00,0.0359
1487.00,0.0359
1486.00,0.0359
1485.00,0.0359
1484.00,0.0359
1483.00,0.0359
1482.00,0.0359
1481.00,0.0360
1480.00,0.0361
1479.00,0.0362
1478.00,0.0364
1477.00,0.0367
1476.00,0.0369
1475.00,0.0372
1474.00,0.0375
1473.00,0.0380
1472.00,0.0385
1471.00,0.0388
1470.00,0.0391
1469.00,0.0394
1468.00,0.0397
1467.00,0.0400
1466.00,0.0404
1465.00,0.0409
1464.00,0.0413
1463.00,0.0415
1462.00,0.0416
1461.00,0.0417
1460.00,0.0419
1459.00,0.0422
1458.00,0.0429
1457.00,0.0438
1456.00,0.0444
1455.00,0.0445
1454.00,0.0445
1453.00,0.0446
1452.00,0.0448
1451.00,0.0451
1450.00,0.0453
1449.00,0.0457
1448.00,0.0461
1447.00,0.0464
1446.00,0.0466
1445.00,0.0467
1444.00,0.0469
1443.00,0.0471
1442.00,0.0473
1441.00,0.0475
1440.00,0.0479
1439.00,0.0483
1438.00,0.0489
1437.00,0.0497
1436.00,0.0503
1435.00,0.0505
1434.00,0.0505
1433.00,0.0506
1432.00,0.0508
1431.00,0.0511
1430.00,0.0514
1429.00,0.0517
1428.00,0.0518
1427.00,0.0519
1426.00,0.0520
1425.00,0.0521
1424.00,0.0522
1423.00,0.0523
1422.00,0.0523
1421.00,0.0523
1420.00,0.0524
1419.00,0.0525
1418.00,0.0525
1417.00,0.0524
1416.00,0.0522
1415.00,0.0519
1414.00,0.0516
1413.00,0.0513
1412.00,0.0512
1411.00,0.0511
1410.00,0.0510
1409.00,0.0509
1408.00,0.0509
1407.00,0.0508
1406.00,0.0507
1405.00,0.0507
1404.00,0.0506
1403.00,0.0505
1402.00,0.0504
1401.00,0.0503
1400.00,0.0503
1399.00,0.0504
1398.00,0.0504
1397.00,0.0504
1396.00,0.0505
1395.00,0.0505
1394.00,0.0505
1393.00,0.0505
1392.00,0.0506
1391.00,0.0507
1390.00,0.0509
1389.00,0.0512
1388.00,0.0517
1387.00,0.0522
1386.00,0.0525
1385.00,0.0528
1384.00,0.0531
1383.00,0.0535
1382.00,0.0540
1381.00,0.0546
1380.00,0.0551
1379.00,0.0557
1378.00,0.0563
1377.00,0.0568
1376.00,0.0572
1375.00,0.0577
1374.00,0.0582
1373.00,0.0586
1372.00,0.0588
1371.00,0.0589
1370.00,0.0589
1369.00,0.0589
1368.00,0.0588
1367.00,0.0587
1366.00,0.0585
1365.00,0.0583
1364.00,0.0582
1363.00,0.0581
1362.00,0.0579
1361.00,0.0577
1360.00,0.0574
1359.00,0.0570
1358.00,0.0567
1357.00,0.0564
1356.00,0.0561
1355.00,0.0558
1354.00,0.0555
1353.00,0.0552
1352.00,0.0549
1351.00,0.0546
1350.00,0.0544
1349.00,0.0543
1348.00,0.0543
1347.00,0.0544
1346.00,0.0546
1345.00,0.0547
1344.00,0.0549
1343.00,0.0551
1342.00,0.0554
1341.00,0.0558
1340.00,0.0562
1339.00,0.0566
1338.00,0.0569
1337.00,0.0570
1336.00,0.0571
1335.00,0.0571
1334.00,0.0570
1333.00,0.0569
1332.00,0.0568
1331.00,0.0567
1330.00,0.0566
1329.00,0.0566
1328.00,0.0566
1327.00,0.0567
1326.00,0.0568
1325.00,0.0571
1324.00,0.0575
1323.00,0.0580
1322.00,0.0585
1321.00,0.0591
1320.00,0.0596
1319.00,0.0600
1318.00,0.0603
1317.00,0.0604
1316.00,0.0605
1315.00,0.0605
1314.00,0.0605
1313.00,0.0604
1312.00,0.0602
1311.00,0.0599
1310.00,0.0595
1309.00,0.0591
1308.00,0.0585
1307.00,0.0580
1306.00,0.0574
1305.00,0.0570
1304.00,0.0565
1303.00,0.0561
1302.00,0.0557
1301.00,0.0552
1300.00,0.0547
1299.00,0.0543
1298.00,0.0539
1297.00,0.0535
1296.00,0.0532
1295.00,0.0530
1294.00,0.0529
1293.00,0.0528
1292.00,0.0527
1291.00,0.0525
1290.00,0.0524
1289.00,0.0523
1288.00,0.0523
1287.00,0.0522
1286.00,0.0521
1285.00,0.0522
1284.00,0.0524
1283.00,0.0526
1282.00,0.0528
1281.00,0.0528
1280.00,0.0528
1279.00,0.0527
1278.00,0.0527
1277.00,0.0527
1276.00,0.0527
1275.00,0.0528
1274.00,0.0528
1273.00,0.0529
1272.00,0.0529
1271.00,0.0529
1270.00,0.0530
1269.00,0.0530
1268.00,0.0531
1267.00,0.0532
1266.00,0.0533
1265.00,0.0534
1264.00,0.0534
1263.00,0.0534
1262.00,0.0534
1261.00,0.0534
1260.00,0.0534
1259.00,0.0535
1258.00,0.0535
1257.00,0.0535
1256.00,0.0535
1255.00,0.0534
1254.00,0.0534
1253.00,0.0536
1252.00,0.0537
1251.00,0.0538
1250.00,0.0538
1249.00,0.0539
1248.00,0.0539
1247.00,0.0540
1246.00,0.0540
1245.00,0.0540
1244.00,0.0539
1243.00,0.0538
1242.00,0.0537
1241.00,0.0534
1240.00,0.0533
1239.00,0.0531
1238.00,0.0531
1237.00,0.0530
1236.00,0.0528
1235.00,0.0526
1234.00,0.0523
1233.00,0.0519
1232.00,0.0516
1231.00,0.0512
1230.00,0.0507
1229.00,0.0503
1228.00,0.0498
1227.00,0.0494
1226.00,0.0489
1225.00,0.0484
1224.00,0.0479
1223.00,0.0475
1222.00,0.0471
1221.00,0.0468
1220.00,0.0465
1219.00,0.0463
1218.00,0.0460
1217.00,0.0458
1216.00,0.0456
1215.00,0.0455
1214.00,0.0455
1213.00,0.0455
1212.00,0.0457
1211.00,0.0461
1210.00,0.0465
1209.00,0.0470
1208.00,0.0474
1207.00,0.0476
1206.00,0.0478
1205.00,0.0478
1204.00,0.0478
1203.00,0.0478
1202.00,0.0477
1201.00,0.0475
1200.00,0.0473
1199.00,0.0470
1198.00,0.0466
1197.00,0.0461
1196.00,0.0456
1195.00,0.0451
1194.00,0.0447
1193.00,0.0443
1192.00,0.0440
1191.00,0.0438
1190.00,0.0436
1189.00,0.0435
1188.00,0.0434
1187.00,0.0435
1186.00,0.0437
1185.00,0.0439
1184.00,0.0442
1183.00,0.0446
1182.00,0.0449
1181.00,0.0453
1180.00,0.0459
1179.00,0.0465
1178.00,0.0474
1177.00,0.0483
1176.00,0.0493
1175.00,0.0505
1174.00,0.0517
1173.00,0.0531
1172.00,0.0545
1171.00,0.0559
1170.00,0.0574
1169.00,0.0588
1168.00,0.0604
1167.00,0.0619
1166.00,0.0634
1165.00,0.0647
1164.00,0.0658
1163.00,0.0666
1162.00,0.0673
1161.00,0.0678
1160.00,0.0681
1159.00,0.0683
1158.00,0.0683
1157.00,0.0683
1156.00,0.0683
1155.00,0.0683
1154.00,0.0682
1153.00,0.0681
1152.00,0.0678
1151.00,0.0675
1150.00,0.0672
1149.00,0.0670
1148.00,0.0667
1147.00,0.0664
1146.00,0.0661
1145.00,0.0659
1144.00,0.0656
1143.00,0.0654
1142.00,0.0653
1141.00,0.0651
1140.00,0.0651
1139.00,0.0651
1138.00,0.0653
1137.00,0.0657
1136.00,0.0662
1135.00,0.0669
1134.00,0.0677
1133.00,0.0686
1132.00,0.0695
1131.00,0.0704
1130.00,0.0715
1129.00,0.0728
1128.00,0.0742
1127.00,0.0754
1126.00,0.0766
1125.00,0.0777
1124.00,0.0790
1123.00,0.0805
1122.00,0.0821
1121.00,0.0837
1120.00,0.0853
1119.00,0.0868
1118.00,0.0883
1117.00,0.0899
1116.00,0.0917
1115.00,0.0937
1114.00,0.0956
1113.00,0.0972
1112.00,0.0987
1111.00,0.1000
1110.00,0.1013
1109.00,0.1025
1108.00,0.1037
1107.00,0.1046
1106.00,0.1053
1105.00,0.1059
1104.00,0.1065
1103.00,0.1071
1102.00,0.1077
1101.00,0.1081
1100.00,0.1085
1099.00,0.1087
1098.00,0.1089
1097.00,0.1092
1096.00,0.1094
1095.00,0.1095
1094.00,0.1097
1093.00,0.1100
1092.00,0.1104
1091.00,0.1109
1090.00,0.1111
1089.00,0.1114
1088.00,0.1116
1087.00,0.1120
1086.00,0.1126
1085.00,0.1133
1084.00,0.1141
1083.00,0.1149
1082.00,0.1159
1081.00,0.1171
1080.00,0.1184
1079.00,0.1197
1078.00,0.1211
1077.00,0.1225
1076.00,0.1238
1075.00,0.1249
1074.00,0.1259
1073.00,0.1272
1072.00,0.1287
1071.00,0.1302
1070.00,0.1318
1069.00,0.1335
1068.00,0.1355
1067.00,0.1377
1066.00,0.1400
1065.00,0.1425
1064.00,0.1451
1063.00,0.1476
1062.00,0.1497
1061.00,0.1515
1060.00,0.1531
1059.00,0.1545
1058.00,0.1557
1057.00,0.1567
1056.00,0.1576
1055.00,0.1581
1054.00,0.1586
1053.00,0.1590
1052.00,0.1592
1051.00,0.1592
1050.00,0.1591
1049.00,0.1591
1048.00,0.1591
1047.00,0.1589
1046.00,0.1587
1045.00,0.1587
1044.00,0.1589
1043.00,0.1593
1042.00,0.1599
1041.00,0.1606
1040.00,0.1618
1039.00,0.1631
1038.00,0.1647
1037.00,0.1663
1036.00,0.1679
1035.00,0.1693
1034.00,0.1704
1033.00,0.1712
1032.00,0.1718
1031.00,0.1721
1030.00,0.1720
1029.00,0.1717
1028.00,0.1713
1027.00,0.1707
1026.00,0.1701
1025.00,0.1695
1024.00,0.1690
1023.00,0.1683
1022.00,0.1676
1021.00,0.1669
1020.00,0.1662
1019.00,0.1654
1018.00,0.1645
1017.00,0.1637
1016.00,0.1631
1015.00,0.1625
1014.00,0.1618
1013.00,0.1611
1012.00,0.1604
1011.00,0.1596
1010.00,0.1589
1009.00,0.1582
1008.00,0.1576
1007.00,0.1569
1006.00,0.1561
1005.00,0.1555
1004.00,0.1548
1003.00,0.1539
1002.00,0.1527
1001.00,0.1514
1000.00,0.1499
999.00,0.1482
998.00,0.1464
997.00,0.1448
996.00,0.1434
995.00,0.1420
994.00,0.1405
993.00,0.1389
992.00,0.1373
991.00,0.1359
990.00,0.1345
989.00,0.1333
988.00,0.1321
987.00,0.1309
986.00,0.1294
985.00,0.1277
984.00,0.1257
983.00,0.1233
982.00,0.1208
981.00,0.1183
980.00,0.1159
979.00,0.1134
978.00,0.1110
977.00,0.1086
976.00,0.1065
975.00,0.1046
974.00,0.1030
973.00,0.1014
972.00,0.1000
971.00,0.0984
970.00,0.0968
969.00,0.0954
968.00,0.0941
967.00,0.0930
966.00,0.0919
965.00,0.0908
964.00,0.0897
963.00,0.0888
962.00,0.0879
961.00,0.0870
960.00,0.0861
959.00,0.0852
958.00,0.0843
957.00,0.0835
956.00,0.0829
955.00,0.0821
954.00,0.0814
953.00,0.0806
952.00,0.0801
951.00,0.0797
950.00,0.0793
949.00,0.0790
948.00,0.0786
947.00,0.0781
946.00,0.0776
945.00,0.0771
944.00,0.0766
943.00,0.0761
942.00,0.0756
941.00,0.0751
940.00,0.0747
939.00,0.0742
938.00,0.0738
937.00,0.0732
936.00,0.0725
935.00,0.0717
934.00,0.0711
933.00,0.0707
932.00,0.0704
931.00,0.0701
930.00,0.0697
929.00,0.0692
928.00,0.0689
927.00,0.0687
926.00,0.0684
925.00,0.0681
924.00,0.0679
923.00,0.0677
922.00,0.0675
921.00,0.0674
920.00,0.0673
919.00,0.0672
918.00,0.0672
917.00,0.0673
916.00,0.0675
915.00,0.0677
914.00,0.0678
913.00,0.0677
912.00,0.0676
911.00,0.0675
910.00,0.0674
909.00,0.0672
908.00,0.0670
907.00,0.0669
906.00,0.0671
905.00,0.0675
904.00,0.0681
903.00,0.0686
902.00,0.0689
901.00,0.0689
900.00,0.0688
899.00,0.0687
898.00,0.0686
897.00,0.0687
896.00,0.0686
895.00,0.0685
894.00,0.0682
893.00,0.0679
892.00,0.0675
891.00,0.0671
890.00,0.0667
889.00,0.0666
888.00,0.0664
887.00,0.0661
886.00,0.0656
885.00,0.0651
884.00,0.0649
883.00,0.0650
882.00,0.0652
881.00,0.0653
880.00,0.0653
879.00,0.0652
878.00,0.0650
877.00,0.0646
876.00,0.0643
875.00,0.0642
874.00,0.0642
873.00,0.0642
872.00,0.0644
871.00,0.0644
870.00,0.0644
869.00,0.0642
868.00,0.0638
867.00,0.0635
866.00,0.0632
865.00,0.0630
864.00,0.0628
863.00,0.0625
862.00,0.0622
861.00,0.0620
860.00,0.0616
859.00,0.0612
858.00,0.0608
857.00,0.0604
856.00,0.0603
855.00,0.0603
854.00,0.0603
853.00,0.0602
852.00,0.0601
851.00,0.0600
850.00,0.0600
849.00,0.0602
848.00,0.0603
847.00,0.0604
846.00,0.0605
845.00,0.0607
844.00,0.0608
843.00,0.0607
842.00,0.0606
841.00,0.0604
840.00,0.0604
839.00,0.0604
838.00,0.0605
837.00,0.0607
836.00,0.0610
835.00,0.0613
834.00,0.0614
833.00,0.0616
832.00,0.0618
831.00,0.0620
830.00,0.0622
829.00,0.0625
828.00,0.0629
827.00,0.0634
826.00,0.0640
825.00,0.0649
824.00,0.0657
823.00,0.0665
822.00,0.0671
821.00,0.0678
820.00,0.0686
819.00,0.0694
818.00,0.0700
817.00,0.0703
816.00,0.0706
815.00,0.0711
814.00,0.0718
813.00,0.0725
812.00,0.0730
811.00,0.0733
810.00,0.0736
809.00,0.0738
808.00,0.0739
807.00,0.0740
806.00,0.0739
805.00,0.0739
804.00,0.0740
803.00,0.0741
802.00,0.0743
801.00,0.0747
800.00,0.0752
799.00,0.0755
798.00,0.0756
797.00,0.0755
796.00,0.0754
795.00,0.0752
794.00,0.0750
793.00,0.0750
792.00,0.0751
791.00,0.0754
790.00,0.0757
789.00,0.0759
788.00,0.0760
787.00,0.0760
786.00,0.0761
785.00,0.0764
784.00,0.0769
783.00,0.0772
782.00,0.0774
781.00,0.0774
780.00,0.0773
779.00,0.0772
778.00,0.0771
777.00,0.0771
776.00,0.0772
775.00,0.0772
774.00,0.0772
773.00,0.0771
772.00,0.0772
771.00,0.0773
770.00,0.0775
769.00,0.0777
768.00,0.0779
767.00,0.0781
766.00,0.0782
765.00,0.0784
764.00,0.0788
763.00,0.0791
762.00,0.0791
761.00,0.0791
760.00,0.0793
759.00,0.0797
758.00,0.0802
757.00,0.0806
756.00,0.0808
755.00,0.0808
754.00,0.0808
753.00,0.0810
752.00,0.0814
751.00,0.0820
750.00,0.0825
749.00,0.0828
748.00,0.0830
747.00,0.0830
746.00,0.0829
745.00,0.0829
744.00,0.0829
743.00,0.0831
742.00,0.0834
741.00,0.0837
740.00,0.0838
739.00,0.0837
738.00,0.0838
737.00,0.0839
736.00,0.0842
735.00,0.0843
734.00,0.0846
733.00,0.0849
732.00,0.0854
731.00,0.0859
730.00,0.0863
729.00,0.0868
728.00,0.0874
727.00,0.0882
726.00,0.0889
725.00,0.0895
724.00,0.0899
723.00,0.0901
722.00,0.0903
721.00,0.0906
720.00,0.0912
719.00,0.0917
718.00,0.0923
717.00,0.0927
716.00,0.0932
715.00,0.0935
714.00,0.0938
713.00,0.0945
712.00,0.0953
711.00,0.0960
710.00,0.0965
709.00,0.0969
708.00,0.0973
707.00,0.0977
706.00,0.0983
705.00,0.0990
704.00,0.1000
703.00,0.1008
702.00,0.1012
701.00,0.1013
700.00,0.1014
699.00,0.1017
698.00,0.1022
697.00,0.1028
696.00,0.1032
695.00,0.1035
694.00,0.1037
693.00,0.1040
692.00,0.1044
691.00,0.1048
690.00,0.1052
689.00,0.1058
688.00,0.1062
687.00,0.1064
686.00,0.1065
685.00,0.1070
684.00,0.1076
683.00,0.1080
682.00,0.1081
681.00,0.1083
680.00,0.1090
679.00,0.1102
678.00,0.1115
677.00,0.1127
676.00,0.1139
675.00,0.1148
674.00,0.1156
673.00,0.1165
672.00,0.1174
671.00,0.1182
670.00,0.1190
669.00,0.1205
668.00,0.1229
667.00,0.1241
666.00,0.1241
665.00,0.1237
664.00,0.1234
663.00,0.1231
662.00,0.1226
661.00,0.1220
660.00,0.1213
659.00,0.1207
658.00,0.1207
657.00,0.1212
656.00,0.1220
655.00,0.1225
654.00,0.1226
653.00,0.1224
652.00,0.1222
651.00,0.1221
650.00,0.1223
