Created as New Dataset,Monday, April 03 2023
cm-1,A
4000.00,0.0059
3999.00,0.0059
3998.00,0.0059
3997.00,0.0058
3996.00,0.0058
3995.00,0.0058
3994.00,0.0058
3993.00,0.0057
3992.00,0.0057
3991.00,0.0058
3990.00,0.0058
3989.00,0.0058
3988.00,0.0058
3987.00,0.0058
3986.00,0.0057
3985.00,0.0058
3984.00,0.0058
3983.00,0.0058
3982.00,0.0058
3981.00,0.0058
3980.00,0.0058
3979.00,0.0058
3978.00,0.0058
3977.00,0.0058
3976.00,0.0057
3975.00,0.0057
3974.00,0.0057
3973.00,0.0057
3972.00,0.0058
3971.00,0.0058
3970.00,0.0058
3969.00,0.0058
3968.00,0.0058
3967.00,0.0057
3966.00,0.0057
3965.00,0.0057
3964.00,0.0058
3963.00,0.0059
3962.00,0.0059
3961.00,0.0059
3960.00,0.0058
3959.00,0.0058
3958.00,0.0057
3957.00,0.0058
3956.00,0.0058
3955.00,0.0057
3954.00,0.0057
3953.00,0.0057
3952.00,0.0057
3951.00,0.0058
3950.00,0.0059
3949.00,0.0060
3948.00,0.0060
3947.00,0.0060
3946.00,0.0059
3945.00,0.0059
3944.00,0.0058
3943.00,0.0057
3942.00,0.0056
3941.00,0.0056
3940.00,0.0056
3939.00,0.0057
3938.00,0.0057
3937.00,0.0057
3936.00,0.0057
3935.00,0.0058
3934.00,0.0058
3933.00,0.0058
3932.00,0.0058
3931.00,0.0058
3930.00,0.0058
3929.00,0.0058
3928.00,0.0059
3927.00,0.0059
3926.00,0.0059
3925.00,0.0059
3924.00,0.0059
3923.00,0.0059
3922.00,0.0058
3921.00,0.0058
3920.00,0.0058
3919.00,0.0058
3918.00,0.0058
3917.00,0.0058
3916.00,0.0058
3915.00,0.0057
3914.00,0.0057
3913.00,0.0057
3912.00,0.0057
3911.00,0.0058
3910.00,0.0058
3909.00,0.0058
3908.00,0.0058
3907.00,0.0058
3906.00,0.0057
3905.00,0.0057
3904.00,0.0057
3903.00,0.0057
3902.00,0.0057
3901.00,0.0058
3900.00,0.0058
3899.00,0.0057
3898.00,0.0057
3897.00,0.0057
3896.00,0.0058
3895.00,0.0059
3894.00,0.0059
3893.00,0.0058
3892.00,0.0057
3891.00,0.0056
3890.00,0.0055
3889.00,0.0055
3888.00,0.0055
3887.00,0.0055
3886.00,0.0055
3885.00,0.0055
3884.00,0.0056
3883.00,0.0057
3882.00,0.0056
3881.00,0.0055
3880.00,0.0054
3879.00,0.0054
3878.00,0.0056
3877.00,0.0058
3876.00,0.0059
3875.00,0.0058
3874.00,0.0058
3873.00,0.0057
3872.00,0.0057
3871.00,0.0058
3870.00,0.0058
3869.00,0.0058
3868.00,0.0058
3867.00,0.0059
3866.00,0.0059
3865.00,0.0060
3864.00,0.0060
3863.00,0.0059
3862.00,0.0059
3861.00,0.0060
3860.00,0.0060
3859.00,0.0059
3858.00,0.0058
3857.00,0.0056
3856.00,0.0054
3855.00,0.0053
3854.00,0.0055
3853.00,0.0056
3852.00,0.0056
3851.00,0.0057
3850.00,0.0057
3849.00,0.0057
3848.00,0.0057
3847.00,0.0057
3846.00,0.0058
3845.00,0.0058
3844.00,0.0058
3843.00,0.0058
3842.00,0.0058
3841.00,0.0059
3840.00,0.0060
3839.00,0.0061
3838.00,0.0060
3837.00,0.0059
3836.00,0.0059
3835.00,0.0058
3834.00,0.0058
3833.00,0.0058
3832.00,0.0058
3831.00,0.0059
3830.00,0.0059
3829.00,0.0059
3828.00,0.0059
3827.00,0.0058
3826.00,0.0058
3825.00,0.0058
3824.00,0.0059
3823.00,0.0061
3822.00,0.0061
3821.00,0.0060
3820.00,0.0059
3819.00,0.0059
3818.00,0.0059
3817.00,0.0059
3816.00,0.0059
3815.00,0.0059
3814.00,0.0059
3813.00,0.0059
3812.00,0.0058
3811.00,0.0057
3810.00,0.0056
3809.00,0.0056
3808.00,0.0057
3807.00,0.0058
3806.00,0.0060
3805.00,0.0062
3804.00,0.0063
3803.00,0.0063
3802.00,0.0063
3801.00,0.0062
3800.00,0.0062
3799.00,0.0061
3798.00,0.0060
3797.00,0.0059
3796.00,0.0057
3795.00,0.0057
3794.00,0.0057
3793.00,0.0057
3792.00,0.0058
3791.00,0.0058
3790.00,0.0058
3789.00,0.0058
3788.00,0.0059
3787.00,0.0060
3786.00,0.0061
3785.00,0.0061
3784.00,0.0060
3783.00,0.0060
3782.00,0.0059
3781.00,0.0059
3780.00,0.0058
3779.00,0.0058
3778.00,0.0058
3777.00,0.0058
3776.00,0.0058
3775.00,0.0058
3774.00,0.0058
3773.00,0.0058
3772.00,0.0058
3771.00,0.0058
3770.00,0.0058
3769.00,0.0057
3768.00,0.0057
3767.00,0.0057
3766.00,0.0058
3765.00,0.0058
3764.00,0.0058
3763.00,0.0059
3762.00,0.0060
3761.00,0.0060
3760.00,0.0060
3759.00,0.0060
3758.00,0.0059
3757.00,0.0059
3756.00,0.0058
3755.00,0.0058
3754.00,0.0058
3753.00,0.0058
3752.00,0.0060
3751.00,0.0061
3750.00,0.0061
3749.00,0.0061
3748.00,0.0061
3747.00,0.0061
3746.00,0.0059
3745.00,0.0057
3744.00,0.0056
3743.00,0.0057
3742.00,0.0059
3741.00,0.0061
3740.00,0.0062
3739.00,0.0062
3738.00,0.0063
3737.00,0.0063
3736.00,0.0063
3735.00,0.0061
3734.00,0.0058
3733.00,0.0057
3732.00,0.0056
3731.00,0.0056
3730.00,0.0057
3729.00,0.0059
3728.00,0.0059
3727.00,0.0060
3726.00,0.0059
3725.00,0.0059
3724.00,0.0058
3723.00,0.0057
3722.00,0.0057
3721.00,0.0057
3720.00,0.0058
3719.00,0.0059
3718.00,0.0059
3717.00,0.0058
3716.00,0.0058
3715.00,0.0059
3714.00,0.0060
3713.00,0.0062
3712.00,0.0063
3711.00,0.0062
3710.00,0.0060
3709.00,0.0058
3708.00,0.0058
3707.00,0.0060
3706.00,0.0061
3705.00,0.0062
3704.00,0.0062
3703.00,0.0061
3702.00,0.0060
3701.00,0.0059
3700.00,0.0060
3699.00,0.0061
3698.00,0.0062
3697.00,0.0062
3696.00,0.0061
3695.00,0.0060
3694.00,0.0060
3693.00,0.0060
3692.00,0.0060
3691.00,0.0062
3690.00,0.0063
3689.00,0.0064
3688.00,0.0063
3687.00,0.0063
3686.00,0.0063
3685.00,0.0062
3684.00,0.0062
3683.00,0.0061
3682.00,0.0061
3681.00,0.0060
3680.00,0.0059
3679.00,0.0058
3678.00,0.0057
3677.00,0.0057
3676.00,0.0057
3675.00,0.0056
3674.00,0.0056
3673.00,0.0057
3672.00,0.0058
3671.00,0.0059
3670.00,0.0060
3669.00,0.0060
3668.00,0.0060
3667.00,0.0060
3666.00,0.0060
3665.00,0.0060
3664.00,0.0060
3663.00,0.0060
3662.00,0.0061
3661.00,0.0061
3660.00,0.0062
3659.00,0.0063
3658.00,0.0063
3657.00,0.0063
3656.00,0.0063
3655.00,0.0064
3654.00,0.0064
3653.00,0.0065
3652.00,0.0065
3651.00,0.0066
3650.00,0.0066
3649.00,0.0066
3648.00,0.0064
3647.00,0.0063
3646.00,0.0063
3645.00,0.0064
3644.00,0.0065
3643.00,0.0066
3642.00,0.0066
3641.00,0.0066
3640.00,0.0067
3639.00,0.0067
3638.00,0.0067
3637.00,0.0067
3636.00,0.0067
3635.00,0.0067
3634.00,0.0067
3633.00,0.0067
3632.00,0.0066
3631.00,0.0066
3630.00,0.0067
3629.00,0.0068
3628.00,0.0069
3627.00,0.0069
3626.00,0.0069
3625.00,0.0069
3624.00,0.0070
3623.00,0.0070
3622.00,0.0070
3621.00,0.0071
3620.00,0.0072
3619.00,0.0073
3618.00,0.0073
3617.00,0.0074
3616.00,0.0074
3615.00,0.0075
3614.00,0.0074
3613.00,0.0073
3612.00,0.0073
3611.00,0.0073
3610.00,0.0074
3609.00,0.0075
3608.00,0.0075
3607.00,0.0074
3606.00,0.0073
3605.00,0.0073
3604.00,0.0073
3603.00,0.0074
3602.00,0.0076
3601.00,0.0077
3600.00,0.0078
3599.00,0.0078
3598.00,0.0077
3597.00,0.0076
3596.00,0.0076
3595.00,0.0075
3594.00,0.0074
3593.00,0.0073
3592.00,0.0073
3591.00,0.0073
3590.00,0.0073
3589.00,0.0074
3588.00,0.0074
3587.00,0.0075
3586.00,0.0075
3585.00,0.0075
3584.00,0.0076
3583.00,0.0076
3582.00,0.0076
3581.00,0.0076
3580.00,0.0076
3579.00,0.0076
3578.00,0.0076
3577.00,0.0076
3576.00,0.0077
3575.00,0.0077
3574.00,0.0078
3573.00,0.0078
3572.00,0.0079
3571.00,0.0078
3570.00,0.0078
3569.00,0.0079
3568.00,0.0080
3567.00,0.0081
3566.00,0.0081
3565.00,0.0080
3564.00,0.0079
3563.00,0.0079
3562.00,0.0079
3561.00,0.0080
3560.00,0.0080
3559.00,0.0080
3558.00,0.0080
3557.00,0.0081
3556.00,0.0082
3555.00,0.0082
3554.00,0.0082
3553.00,0.0082
3552.00,0.0083
3551.00,0.0083
3550.00,0.0084
3549.00,0.0084
3548.00,0.0085
3547.00,0.0085
3546.00,0.0085
3545.00,0.0085
3544.00,0.0085
3543.00,0.0085
3542.00,0.0084
3541.00,0.0084
3540.00,0.0083
3539.00,0.0082
3538.00,0.0082
3537.00,0.0082
3536.00,0.0082
3535.00,0.0082
3534.00,0.0083
3533.00,0.0084
3532.00,0.0085
3531.00,0.0085
3530.00,0.0085
3529.00,0.0084
3528.00,0.0084
3527.00,0.0084
3526.00,0.0085
3525.00,0.0086
3524.00,0.0087
3523.00,0.0087
3522.00,0.0087
3521.00,0.0086
3520.00,0.0085
3519.00,0.0084
3518.00,0.0083
3517.00,0.0082
3516.00,0.0082
3515.00,0.0082
3514.00,0.0083
3513.00,0.0085
3512.00,0.0086
3511.00,0.0086
3510.00,0.0086
3509.00,0.0086
3508.00,0.0086
3507.00,0.0086
3506.00,0.0087
3505.00,0.0087
3504.00,0.0088
3503.00,0.0088
3502.00,0.0088
3501.00,0.0087
3500.00,0.0087
3499.00,0.0087
3498.00,0.0087
3497.00,0.0088
3496.00,0.0088
3495.00,0.0088
3494.00,0.0087
3493.00,0.0087
3492.00,0.0087
3491.00,0.0087
3490.00,0.0086
3489.00,0.0086
3488.00,0.0086
3487.00,0.0086
3486.00,0.0086
3485.00,0.0086
3484.00,0.0086
3483.00,0.0087
3482.00,0.0087
3481.00,0.0087
3480.00,0.0087
3479.00,0.0087
3478.00,0.0087
3477.00,0.0088
3476.00,0.0088
3475.00,0.0089
3474.00,0.0089
3473.00,0.0089
3472.00,0.0089
3471.00,0.0089
3470.00,0.0090
3469.00,0.0090
3468.00,0.0090
3467.00,0.0090
3466.00,0.0091
3465.00,0.0091
3464.00,0.0092
3463.00,0.0091
3462.00,0.0089
3461.00,0.0088
3460.00,0.0088
3459.00,0.0089
3458.00,0.0090
3457.00,0.0090
3456.00,0.0089
3455.00,0.0089
3454.00,0.0088
3453.00,0.0088
3452.00,0.0089
3451.00,0.0090
3450.00,0.0091
3449.00,0.0091
3448.00,0.0091
3447.00,0.0091
3446.00,0.0091
3445.00,0.0091
3444.00,0.0091
3443.00,0.0091
3442.00,0.0090
3441.00,0.0089
3440.00,0.0089
3439.00,0.0088
3438.00,0.0089
3437.00,0.0089
3436.00,0.0089
3435.00,0.0089
3434.00,0.0088
3433.00,0.0089
3432.00,0.0089
3431.00,0.0090
3430.00,0.0090
3429.00,0.0090
3428.00,0.0089
3427.00,0.0089
3426.00,0.0090
3425.00,0.0091
3424.00,0.0092
3423.00,0.0093
3422.00,0.0094
3421.00,0.0093
3420.00,0.0093
3419.00,0.0092
3418.00,0.0092
3417.00,0.0092
3416.00,0.0091
3415.00,0.0090
3414.00,0.0090
3413.00,0.0091
3412.00,0.0092
3411.00,0.0093
3410.00,0.0093
3409.00,0.0093
3408.00,0.0093
3407.00,0.0093
3406.00,0.0092
3405.00,0.0092
3404.00,0.0092
3403.00,0.0091
3402.00,0.0091
3401.00,0.0092
3400.00,0.0092
3399.00,0.0093
3398.00,0.0093
3397.00,0.0092
3396.00,0.0092
3395.00,0.0092
3394.00,0.0092
3393.00,0.0092
3392.00,0.0093
3391.00,0.0093
3390.00,0.0094
3389.00,0.0094
3388.00,0.0094
3387.00,0.0093
3386.00,0.0093
3385.00,0.0092
3384.00,0.0093
3383.00,0.0093
3382.00,0.0093
3381.00,0.0093
3380.00,0.0094
3379.00,0.0094
3378.00,0.0094
3377.00,0.0094
3376.00,0.0093
3375.00,0.0093
3374.00,0.0092
3373.00,0.0092
3372.00,0.0092
3371.00,0.0092
3370.00,0.0092
3369.00,0.0092
3368.00,0.0093
3367.00,0.0093
3366.00,0.0093
3365.00,0.0092
3364.00,0.0092
3363.00,0.0092
3362.00,0.0093
3361.00,0.0094
3360.00,0.0095
3359.00,0.0095
3358.00,0.0095
3357.00,0.0094
3356.00,0.0094
3355.00,0.0095
3354.00,0.0095
3353.00,0.0096
3352.00,0.0096
3351.00,0.0095
3350.00,0.0095
3349.00,0.0095
3348.00,0.0095
3347.00,0.0095
3346.00,0.0094
3345.00,0.0094
3344.00,0.0094
3343.00,0.0094
3342.00,0.0094
3341.00,0.0094
3340.00,0.0095
3339.00,0.0095
3338.00,0.0095
3337.00,0.0095
3336.00,0.0095
3335.00,0.0094
3334.00,0.0094
3333.00,0.0094
3332.00,0.0094
3331.00,0.0093
3330.00,0.0093
3329.00,0.0092
3328.00,0.0093
3327.00,0.0093
3326.00,0.0094
3325.00,0.0095
3324.00,0.0096
3323.00,0.0095
3322.00,0.0095
3321.00,0.0094
3320.00,0.0094
3319.00,0.0094
3318.00,0.0094
3317.00,0.0094
3316.00,0.0094
3315.00,0.0094
3314.00,0.0094
3313.00,0.0094
3312.00,0.0094
3311.00,0.0094
3310.00,0.0094
3309.00,0.0095
3308.00,0.0096
3307.00,0.0096
3306.00,0.0096
3305.00,0.0095
3304.00,0.0095
3303.00,0.0094
3302.00,0.0094
3301.00,0.0094
3300.00,0.0094
3299.00,0.0094
3298.00,0.0094
3297.00,0.0095
3296.00,0.0096
3295.00,0.0096
3294.00,0.0097
3293.00,0.0096
3292.00,0.0096
3291.00,0.0095
3290.00,0.0095
3289.00,0.0095
3288.00,0.0095
3287.00,0.0095
3286.00,0.0096
3285.00,0.0096
3284.00,0.0097
3283.00,0.0096
3282.00,0.0096
3281.00,0.0096
3280.00,0.0096
3279.00,0.0096
3278.00,0.0096
3277.00,0.0096
3276.00,0.0096
3275.00,0.0096
3274.00,0.0096
3273.00,0.0096
3272.00,0.0097
3271.00,0.0098
3270.00,0.0098
3269.00,0.0098
3268.00,0.0098
3267.00,0.0098
3266.00,0.0098
3265.00,0.0097
3264.00,0.0096
3263.00,0.0095
3262.00,0.0095
3261.00,0.0096
3260.00,0.0096
3259.00,0.0096
3258.00,0.0097
3257.00,0.0096
3256.00,0.0096
3255.00,0.0096
3254.00,0.0096
3253.00,0.0097
3252.00,0.0097
3251.00,0.0097
3250.00,0.0097
3249.00,0.0096
3248.00,0.0096
3247.00,0.0096
3246.00,0.0096
3245.00,0.0096
3244.00,0.0096
3243.00,0.0096
3242.00,0.0095
3241.00,0.0095
3240.00,0.0095
3239.00,0.0095
3238.00,0.0096
3237.00,0.0097
3236.00,0.0098
3235.00,0.0099
3234.00,0.0100
3233.00,0.0099
3232.00,0.0099
3231.00,0.0098
3230.00,0.0098
3229.00,0.0097
3228.00,0.0097
3227.00,0.0097
3226.00,0.0097
3225.00,0.0097
3224.00,0.0096
3223.00,0.0096
3222.00,0.0097
3221.00,0.0097
3220.00,0.0097
3219.00,0.0096
3218.00,0.0096
3217.00,0.0097
3216.00,0.0098
3215.00,0.0098
3214.00,0.0098
3213.00,0.0098
3212.00,0.0097
3211.00,0.0096
3210.00,0.0096
3209.00,0.0096
3208.00,0.0096
3207.00,0.0096
3206.00,0.0096
3205.00,0.0097
3204.00,0.0097
3203.00,0.0098
3202.00,0.0098
3201.00,0.0098
3200.00,0.0097
3199.00,0.0097
3198.00,0.0097
3197.00,0.0097
3196.00,0.0097
3195.00,0.0097
3194.00,0.0097
3193.00,0.0097
3192.00,0.0096
3191.00,0.0096
3190.00,0.0095
3189.00,0.0095
3188.00,0.0094
3187.00,0.0094
3186.00,0.0094
3185.00,0.0095
3184.00,0.0096
3183.00,0.0097
3182.00,0.0097
3181.00,0.0098
3180.00,0.0098
3179.00,0.0097
3178.00,0.0096
3177.00,0.0095
3176.00,0.0095
3175.00,0.0095
3174.00,0.0095
3173.00,0.0095
3172.00,0.0095
3171.00,0.0095
3170.00,0.0095
3169.00,0.0095
3168.00,0.0095
3167.00,0.0095
3166.00,0.0095
3165.00,0.0096
3164.00,0.0097
3163.00,0.0097
3162.00,0.0097
3161.00,0.0096
3160.00,0.0094
3159.00,0.0093
3158.00,0.0093
3157.00,0.0092
3156.00,0.0093
3155.00,0.0094
3154.00,0.0095
3153.00,0.0096
3152.00,0.0096
3151.00,0.0096
3150.00,0.0095
3149.00,0.0095
3148.00,0.0094
3147.00,0.0094
3146.00,0.0094
3145.00,0.0094
3144.00,0.0094
3143.00,0.0095
3142.00,0.0095
3141.00,0.0095
3140.00,0.0094
3139.00,0.0094
3138.00,0.0094
3137.00,0.0095
3136.00,0.0095
3135.00,0.0095
3134.00,0.0095
3133.00,0.0095
3132.00,0.0095
3131.00,0.0095
3130.00,0.0095
3129.00,0.0095
3128.00,0.0094
3127.00,0.0094
3126.00,0.0094
3125.00,0.0094
3124.00,0.0094
3123.00,0.0094
3122.00,0.0094
3121.00,0.0094
3120.00,0.0094
3119.00,0.0094
3118.00,0.0095
3117.00,0.0095
3116.00,0.0095
3115.00,0.0094
3114.00,0.0094
3113.00,0.0094
3112.00,0.0094
3111.00,0.0094
3110.00,0.0094
3109.00,0.0094
3108.00,0.0094
3107.00,0.0094
3106.00,0.0094
3105.00,0.0095
3104.00,0.0095
3103.00,0.0094
3102.00,0.0094
3101.00,0.0093
3100.00,0.0093
3099.00,0.0093
3098.00,0.0093
3097.00,0.0093
3096.00,0.0094
3095.00,0.0095
3094.00,0.0095
3093.00,0.0095
3092.00,0.0095
3091.00,0.0095
3090.00,0.0094
3089.00,0.0092
3088.00,0.0091
3087.00,0.0091
3086.00,0.0092
3085.00,0.0093
3084.00,0.0094
3083.00,0.0094
3082.00,0.0094
3081.00,0.0094
3080.00,0.0094
3079.00,0.0094
3078.00,0.0094
3077.00,0.0094
3076.00,0.0094
3075.00,0.0094
3074.00,0.0094
3073.00,0.0094
3072.00,0.0094
3071.00,0.0095
3070.00,0.0095
3069.00,0.0095
3068.00,0.0095
3067.00,0.0095
3066.00,0.0094
3065.00,0.0094
3064.00,0.0093
3063.00,0.0092
3062.00,0.0092
3061.00,0.0093
3060.00,0.0093
3059.00,0.0093
3058.00,0.0093
3057.00,0.0093
3056.00,0.0093
3055.00,0.0093
3054.00,0.0093
3053.00,0.0093
3052.00,0.0093
3051.00,0.0093
3050.00,0.0094
3049.00,0.0094
3048.00,0.0094
3047.00,0.0094
3046.00,0.0094
3045.00,0.0093
3044.00,0.0093
3043.00,0.0092
3042.00,0.0091
3041.00,0.0091
3040.00,0.0091
3039.00,0.0091
3038.00,0.0092
3037.00,0.0092
3036.00,0.0093
3035.00,0.0093
3034.00,0.0093
3033.00,0.0093
3032.00,0.0093
3031.00,0.0092
3030.00,0.0091
3029.00,0.0091
3028.00,0.0090
3027.00,0.0090
3026.00,0.0091
3025.00,0.0091
3024.00,0.0090
3023.00,0.0090
3022.00,0.0090
3021.00,0.0090
3020.00,0.0090
3019.00,0.0090
3018.00,0.0089
3017.00,0.0089
3016.00,0.0089
3015.00,0.0089
3014.00,0.0089
3013.00,0.0088
3012.00,0.0088
3011.00,0.0087
3010.00,0.0087
3009.00,0.0086
3008.00,0.0085
3007.00,0.0084
3006.00,0.0083
3005.00,0.0083
3004.00,0.0082
3003.00,0.0081
3002.00,0.0079
3001.00,0.0078
3000.00,0.0077
2999.00,0.0076
2998.00,0.0076
2997.00,0.0075
2996.00,0.0075
2995.00,0.0074
2994.00,0.0074
2993.00,0.0074
2992.00,0.0073
2991.00,0.0072
2990.00,0.0072
2989.00,0.0071
2988.00,0.0070
2987.00,0.0069
2986.00,0.0067
2985.00,0.0065
2984.00,0.0062
2983.00,0.0060
2982.00,0.0060
2981.00,0.0060
2980.00,0.0062
2979.00,0.0063
2978.00,0.0065
2977.00,0.0066
2976.00,0.0067
2975.00,0.0067
2974.00,0.0066
2973.00,0.0065
2972.00,0.0064
2971.00,0.0065
2970.00,0.0066
2969.00,0.0068
2968.00,0.0069
2967.00,0.0070
2966.00,0.0071
2965.00,0.0071
2964.00,0.0072
2963.00,0.0073
2962.00,0.0074
2961.00,0.0074
2960.00,0.0074
2959.00,0.0074
2958.00,0.0074
2957.00,0.0074
2956.00,0.0075
2955.00,0.0077
2954.00,0.0078
2953.00,0.0078
2952.00,0.0078
2951.00,0.0079
2950.00,0.0079
2949.00,0.0079
2948.00,0.0080
2947.00,0.0080
2946.00,0.0080
2945.00,0.0081
2944.00,0.0081
2943.00,0.0082
2942.00,0.0083
2941.00,0.0084
2940.00,0.0084
2939.00,0.0084
2938.00,0.0083
2937.00,0.0083
2936.00,0.0084
2935.00,0.0084
2934.00,0.0084
2933.00,0.0084
2932.00,0.0084
2931.00,0.0085
2930.00,0.0085
2929.00,0.0085
2928.00,0.0085
2927.00,0.0085
2926.00,0.0085
2925.00,0.0085
2924.00,0.0084
2923.00,0.0084
2922.00,0.0083
2921.00,0.0083
2920.00,0.0082
2919.00,0.0081
2918.00,0.0079
2917.00,0.0079
2916.00,0.0079
2915.00,0.0079
2914.00,0.0079
2913.00,0.0080
2912.00,0.0080
2911.00,0.0080
2910.00,0.0081
2909.00,0.0081
2908.00,0.0080
2907.00,0.0080
2906.00,0.0080
2905.00,0.0079
2904.00,0.0079
2903.00,0.0079
2902.00,0.0079
2901.00,0.0079
2900.00,0.0079
2899.00,0.0079
2898.00,0.0079
2897.00,0.0078
2896.00,0.0078
2895.00,0.0078
2894.00,0.0078
2893.00,0.0078
2892.00,0.0078
2891.00,0.0078
2890.00,0.0078
2889.00,0.0078
2888.00,0.0078
2887.00,0.0078
2886.00,0.0078
2885.00,0.0078
2884.00,0.0077
2883.00,0.0077
2882.00,0.0077
2881.00,0.0077
2880.00,0.0077
2879.00,0.0078
2878.00,0.0079
2877.00,0.0079
2876.00,0.0079
2875.00,0.0079
2874.00,0.0078
2873.00,0.0078
2872.00,0.0078
2871.00,0.0078
2870.00,0.0079
2869.00,0.0079
2868.00,0.0079
2867.00,0.0079
2866.00,0.0079
2865.00,0.0080
2864.00,0.0080
2863.00,0.0080
2862.00,0.0081
2861.00,0.0081
2860.00,0.0082
2859.00,0.0083
2858.00,0.0084
2857.00,0.0084
2856.00,0.0085
2855.00,0.0084
2854.00,0.0083
2853.00,0.0083
2852.00,0.0083
2851.00,0.0083
2850.00,0.0083
2849.00,0.0083
2848.00,0.0083
2847.00,0.0083
2846.00,0.0082
2845.00,0.0082
2844.00,0.0082
2843.00,0.0082
2842.00,0.0082
2841.00,0.0082
2840.00,0.0081
2839.00,0.0080
2838.00,0.0080
2837.00,0.0080
2836.00,0.0081
2835.00,0.0082
2834.00,0.0082
2833.00,0.0082
2832.00,0.0081
2831.00,0.0080
2830.00,0.0080
2829.00,0.0081
2828.00,0.0081
2827.00,0.0081
2826.00,0.0081
2825.00,0.0081
2824.00,0.0081
2823.00,0.0081
2822.00,0.0081
2821.00,0.0080
2820.00,0.0080
2819.00,0.0080
2818.00,0.0079
2817.00,0.0079
2816.00,0.0079
2815.00,0.0079
2814.00,0.0079
2813.00,0.0079
2812.00,0.0079
2811.00,0.0079
2810.00,0.0079
2809.00,0.0079
2808.00,0.0079
2807.00,0.0079
2806.00,0.0079
2805.00,0.0080
2804.00,0.0080
2803.00,0.0079
2802.00,0.0079
2801.00,0.0079
2800.00,0.0079
2799.00,0.0079
2798.00,0.0079
2797.00,0.0079
2796.00,0.0079
2795.00,0.0079
2794.00,0.0079
2793.00,0.0079
2792.00,0.0079
2791.00,0.0079
2790.00,0.0080
2789.00,0.0079
2788.00,0.0079
2787.00,0.0079
2786.00,0.0078
2785.00,0.0078
2784.00,0.0078
2783.00,0.0078
2782.00,0.0078
2781.00,0.0077
2780.00,0.0077
2779.00,0.0077
2778.00,0.0077
2777.00,0.0077
2776.00,0.0078
2775.00,0.0078
2774.00,0.0078
2773.00,0.0078
2772.00,0.0078
2771.00,0.0077
2770.00,0.0076
2769.00,0.0075
2768.00,0.0075
2767.00,0.0075
2766.00,0.0075
2765.00,0.0076
2764.00,0.0076
2763.00,0.0077
2762.00,0.0077
2761.00,0.0077
2760.00,0.0077
2759.00,0.0076
2758.00,0.0076
2757.00,0.0076
2756.00,0.0076
2755.00,0.0076
2754.00,0.0076
2753.00,0.0076
2752.00,0.0076
2751.00,0.0076
2750.00,0.0076
2749.00,0.0076
2748.00,0.0076
2747.00,0.0076
2746.00,0.0076
2745.00,0.0076
2744.00,0.0076
2743.00,0.0076
2742.00,0.0077
2741.00,0.0076
2740.00,0.0076
2739.00,0.0075
2738.00,0.0075
2737.00,0.0074
2736.00,0.0074
2735.00,0.0075
2734.00,0.0075
2733.00,0.0076
2732.00,0.0076
2731.00,0.0076
2730.00,0.0076
2729.00,0.0075
2728.00,0.0075
2727.00,0.0075
2726.00,0.0075
2725.00,0.0075
2724.00,0.0075
2723.00,0.0074
2722.00,0.0074
2721.00,0.0074
2720.00,0.0074
2719.00,0.0074
2718.00,0.0074
2717.00,0.0075
2716.00,0.0075
2715.00,0.0075
2714.00,0.0075
2713.00,0.0075
2712.00,0.0074
2711.00,0.0074
2710.00,0.0074
2709.00,0.0074
2708.00,0.0074
2707.00,0.0073
2706.00,0.0073
2705.00,0.0073
2704.00,0.0073
2703.00,0.0073
2702.00,0.0073
2701.00,0.0073
2700.00,0.0073
2699.00,0.0073
2698.00,0.0074
2697.00,0.0074
2696.00,0.0073
2695.00,0.0073
2694.00,0.0074
2693.00,0.0074
2692.00,0.0074
2691.00,0.0074
2690.00,0.0074
2689.00,0.0073
2688.00,0.0073
2687.00,0.0074
2686.00,0.0074
2685.00,0.0074
2684.00,0.0074
2683.00,0.0074
2682.00,0.0074
2681.00,0.0073
2680.00,0.0073
2679.00,0.0073
2678.00,0.0072
2677.00,0.0072
2676.00,0.0072
2675.00,0.0072
2674.00,0.0072
2673.00,0.0072
2672.00,0.0072
2671.00,0.0072
2670.00,0.0071
2669.00,0.0071
2668.00,0.0071
2667.00,0.0072
2666.00,0.0072
2665.00,0.0072
2664.00,0.0073
2663.00,0.0073
2662.00,0.0073
2661.00,0.0073
2660.00,0.0073
2659.00,0.0073
2658.00,0.0074
2657.00,0.0074
2656.00,0.0074
2655.00,0.0074
2654.00,0.0074
2653.00,0.0074
2652.00,0.0074
2651.00,0.0074
2650.00,0.0075
2649.00,0.0074
2648.00,0.0074
2647.00,0.0073
2646.00,0.0073
2645.00,0.0073
2644.00,0.0073
2643.00,0.0074
2642.00,0.0074
2641.00,0.0074
2640.00,0.0074
2639.00,0.0074
2638.00,0.0074
2637.00,0.0073
2636.00,0.0073
2635.00,0.0073
2634.00,0.0073
2633.00,0.0074
2632.00,0.0074
2631.00,0.0074
2630.00,0.0073
2629.00,0.0073
2628.00,0.0072
2627.00,0.0072
2626.00,0.0072
2625.00,0.0073
2624.00,0.0073
2623.00,0.0074
2622.00,0.0074
2621.00,0.0074
2620.00,0.0075
2619.00,0.0074
2618.00,0.0074
2617.00,0.0074
2616.00,0.0074
2615.00,0.0073
2614.00,0.0073
2613.00,0.0073
2612.00,0.0074
2611.00,0.0074
2610.00,0.0074
2609.00,0.0074
2608.00,0.0073
2607.00,0.0073
2606.00,0.0073
2605.00,0.0074
2604.00,0.0074
2603.00,0.0074
2602.00,0.0074
2601.00,0.0074
2600.00,0.0073
2599.00,0.0073
2598.00,0.0073
2597.00,0.0073
2596.00,0.0072
2595.00,0.0072
2594.00,0.0072
2593.00,0.0073
2592.00,0.0073
2591.00,0.0074
2590.00,0.0074
2589.00,0.0074
2588.00,0.0074
2587.00,0.0073
2586.00,0.0072
2585.00,0.0072
2584.00,0.0072
2583.00,0.0072
2582.00,0.0072
2581.00,0.0073
2580.00,0.0073
2579.00,0.0073
2578.00,0.0073
2577.00,0.0072
2576.00,0.0072
2575.00,0.0071
2574.00,0.0071
2573.00,0.0072
2572.00,0.0072
2571.00,0.0072
2570.00,0.0072
2569.00,0.0071
2568.00,0.0072
2567.00,0.0073
2566.00,0.0074
2565.00,0.0074
2564.00,0.0074
2563.00,0.0074
2562.00,0.0074
2561.00,0.0074
2560.00,0.0074
2559.00,0.0074
2558.00,0.0074
2557.00,0.0074
2556.00,0.0074
2555.00,0.0074
2554.00,0.0073
2553.00,0.0073
2552.00,0.0072
2551.00,0.0071
2550.00,0.0070
2549.00,0.0069
2548.00,0.0068
2547.00,0.0068
2546.00,0.0069
2545.00,0.0070
2544.00,0.0071
2543.00,0.0071
2542.00,0.0071
2541.00,0.0070
2540.00,0.0068
2539.00,0.0067
2538.00,0.0067
2537.00,0.0067
2536.00,0.0067
2535.00,0.0067
2534.00,0.0068
2533.00,0.0069
2532.00,0.0069
2531.00,0.0069
2530.00,0.0068
2529.00,0.0068
2528.00,0.0068
2527.00,0.0068
2526.00,0.0068
2525.00,0.0068
2524.00,0.0067
2523.00,0.0068
2522.00,0.0068
2521.00,0.0068
2520.00,0.0068
2519.00,0.0069
2518.00,0.0069
2517.00,0.0071
2516.00,0.0071
2515.00,0.0071
2514.00,0.0070
2513.00,0.0069
2512.00,0.0068
2511.00,0.0069
2510.00,0.0070
2509.00,0.0071
2508.00,0.0071
2507.00,0.0071
2506.00,0.0071
2505.00,0.0070
2504.00,0.0070
2503.00,0.0070
2502.00,0.0070
2501.00,0.0071
2500.00,0.0071
2499.00,0.0071
2498.00,0.0071
2497.00,0.0070
2496.00,0.0070
2495.00,0.0070
2494.00,0.0070
2493.00,0.0071
2492.00,0.0071
2491.00,0.0072
2490.00,0.0072
2489.00,0.0072
2488.00,0.0071
2487.00,0.0071
2486.00,0.0071
2485.00,0.0070
2484.00,0.0069
2483.00,0.0068
2482.00,0.0069
2481.00,0.0070
2480.00,0.0070
2479.00,0.0070
2478.00,0.0070
2477.00,0.0069
2476.00,0.0069
2475.00,0.0069
2474.00,0.0069
2473.00,0.0070
2472.00,0.0070
2471.00,0.0070
2470.00,0.0069
2469.00,0.0069
2468.00,0.0069
2467.00,0.0069
2466.00,0.0068
2465.00,0.0068
2464.00,0.0068
2463.00,0.0068
2462.00,0.0068
2461.00,0.0068
2460.00,0.0069
2459.00,0.0069
2458.00,0.0069
2457.00,0.0069
2456.00,0.0069
2455.00,0.0070
2454.00,0.0070
2453.00,0.0071
2452.00,0.0071
2451.00,0.0071
2450.00,0.0070
2449.00,0.0070
2448.00,0.0069
2447.00,0.0069
2446.00,0.0069
2445.00,0.0069
2444.00,0.0068
2443.00,0.0068
2442.00,0.0067
2441.00,0.0067
2440.00,0.0068
2439.00,0.0068
2438.00,0.0068
2437.00,0.0069
2436.00,0.0069
2435.00,0.0068
2434.00,0.0068
2433.00,0.0068
2432.00,0.0068
2431.00,0.0068
2430.00,0.0068
2429.00,0.0069
2428.00,0.0069
2427.00,0.0068
2426.00,0.0068
2425.00,0.0068
2424.00,0.0068
2423.00,0.0068
2422.00,0.0068
2421.00,0.0068
2420.00,0.0068
2419.00,0.0067
2418.00,0.0067
2417.00,0.0067
2416.00,0.0066
2415.00,0.0066
2414.00,0.0066
2413.00,0.0066
2412.00,0.0067
2411.00,0.0067
2410.00,0.0067
2409.00,0.0067
2408.00,0.0067
2407.00,0.0067
2406.00,0.0066
2405.00,0.0066
2404.00,0.0066
2403.00,0.0066
2402.00,0.0065
2401.00,0.0065
2400.00,0.0066
2399.00,0.0066
2398.00,0.0066
2397.00,0.0065
2396.00,0.0065
2395.00,0.0065
2394.00,0.0065
2393.00,0.0065
2392.00,0.0064
2391.00,0.0064
2390.00,0.0064
2389.00,0.0064
2388.00,0.0064
2387.00,0.0063
2386.00,0.0063
2385.00,0.0062
2384.00,0.0062
2383.00,0.0061
2382.00,0.0061
2381.00,0.0062
2380.00,0.0062
2379.00,0.0063
2378.00,0.0063
2377.00,0.0062
2376.00,0.0061
2375.00,0.0061
2374.00,0.0061
2373.00,0.0061
2372.00,0.0061
2371.00,0.0061
2370.00,0.0059
2369.00,0.0057
2368.00,0.0055
2367.00,0.0055
2366.00,0.0057
2365.00,0.0059
2364.00,0.0060
2363.00,0.0059
2362.00,0.0059
2361.00,0.0059
2360.00,0.0059
2359.00,0.0059
2358.00,0.0059
2357.00,0.0059
2356.00,0.0059
2355.00,0.0058
2354.00,0.0057
2353.00,0.0057
2352.00,0.0057
2351.00,0.0058
2350.00,0.0058
2349.00,0.0059
2348.00,0.0060
2347.00,0.0059
2346.00,0.0058
2345.00,0.0058
2344.00,0.0059
2343.00,0.0060
2342.00,0.0062
2341.00,0.0062
2340.00,0.0061
2339.00,0.0059
2338.00,0.0056
2337.00,0.0055
2336.00,0.0055
2335.00,0.0057
2334.00,0.0059
2333.00,0.0061
2332.00,0.0060
2331.00,0.0059
2330.00,0.0057
2329.00,0.0057
2328.00,0.0057
2327.00,0.0058
2326.00,0.0060
2325.00,0.0060
2324.00,0.0060
2323.00,0.0059
2322.00,0.0059
2321.00,0.0059
2320.00,0.0058
2319.00,0.0058
2318.00,0.0058
2317.00,0.0058
2316.00,0.0058
2315.00,0.0059
2314.00,0.0059
2313.00,0.0059
2312.00,0.0059
2311.00,0.0059
2310.00,0.0060
2309.00,0.0061
2308.00,0.0061
2307.00,0.0061
2306.00,0.0061
2305.00,0.0061
2304.00,0.0060
2303.00,0.0059
2302.00,0.0058
2301.00,0.0058
2300.00,0.0059
2299.00,0.0060
2298.00,0.0060
2297.00,0.0060
2296.00,0.0060
2295.00,0.0061
2294.00,0.0062
2293.00,0.0064
2292.00,0.0066
2291.00,0.0067
2290.00,0.0066
2289.00,0.0066
2288.00,0.0066
2287.00,0.0067
2286.00,0.0068
2285.00,0.0069
2284.00,0.0070
2283.00,0.0070
2282.00,0.0070
2281.00,0.0069
2280.00,0.0068
2279.00,0.0068
2278.00,0.0069
2277.00,0.0069
2276.00,0.0069
2275.00,0.0067
2274.00,0.0066
2273.00,0.0064
2272.00,0.0064
2271.00,0.0063
2270.00,0.0064
2269.00,0.0064
2268.00,0.0064
2267.00,0.0064
2266.00,0.0064
2265.00,0.0065
2264.00,0.0066
2263.00,0.0066
2262.00,0.0067
2261.00,0.0067
2260.00,0.0068
2259.00,0.0067
2258.00,0.0065
2257.00,0.0062
2256.00,0.0061
2255.00,0.0060
2254.00,0.0061
2253.00,0.0062
2252.00,0.0062
2251.00,0.0062
2250.00,0.0062
2249.00,0.0062
2248.00,0.0063
2247.00,0.0063
2246.00,0.0065
2245.00,0.0066
2244.00,0.0066
2243.00,0.0066
2242.00,0.0065
2241.00,0.0064
2240.00,0.0063
2239.00,0.0062
2238.00,0.0062
2237.00,0.0062
2236.00,0.0062
2235.00,0.0062
2234.00,0.0063
2233.00,0.0064
2232.00,0.0063
2231.00,0.0061
2230.00,0.0060
2229.00,0.0059
2228.00,0.0060
2227.00,0.0062
2226.00,0.0063
2225.00,0.0063
2224.00,0.0063
2223.00,0.0061
2222.00,0.0060
2221.00,0.0060
2220.00,0.0060
2219.00,0.0061
2218.00,0.0062
2217.00,0.0063
2216.00,0.0064
2215.00,0.0065
2214.00,0.0065
2213.00,0.0065
2212.00,0.0064
2211.00,0.0062
2210.00,0.0060
2209.00,0.0060
2208.00,0.0061
2207.00,0.0062
2206.00,0.0062
2205.00,0.0062
2204.00,0.0061
2203.00,0.0060
2202.00,0.0060
2201.00,0.0060
2200.00,0.0060
2199.00,0.0060
2198.00,0.0061
2197.00,0.0061
2196.00,0.0062
2195.00,0.0061
2194.00,0.0060
2193.00,0.0059
2192.00,0.0058
2191.00,0.0057
2190.00,0.0056
2189.00,0.0055
2188.00,0.0056
2187.00,0.0059
2186.00,0.0062
2185.00,0.0063
2184.00,0.0062
2183.00,0.0059
2182.00,0.0057
2181.00,0.0058
2180.00,0.0060
2179.00,0.0062
2178.00,0.0063
2177.00,0.0064
2176.00,0.0063
2175.00,0.0061
2174.00,0.0060
2173.00,0.0059
2172.00,0.0059
2171.00,0.0060
2170.00,0.0062
2169.00,0.0064
2168.00,0.0065
2167.00,0.0065
2166.00,0.0067
2165.00,0.0069
2164.00,0.0071
2163.00,0.0073
2162.00,0.0073
2161.00,0.0071
2160.00,0.0065
2159.00,0.0059
2158.00,0.0053
2157.00,0.0050
2156.00,0.0050
2155.00,0.0052
2154.00,0.0055
2153.00,0.0058
2152.00,0.0058
2151.00,0.0056
2150.00,0.0053
2149.00,0.0051
2148.00,0.0051
2147.00,0.0054
2146.00,0.0058
2145.00,0.0060
2144.00,0.0061
2143.00,0.0061
2142.00,0.0062
2141.00,0.0063
2140.00,0.0063
2139.00,0.0061
2138.00,0.0058
2137.00,0.0056
2136.00,0.0054
2135.00,0.0053
2134.00,0.0052
2133.00,0.0053
2132.00,0.0054
2131.00,0.0054
2130.00,0.0056
2129.00,0.0058
2128.00,0.0060
2127.00,0.0061
2126.00,0.0060
2125.00,0.0060
2124.00,0.0060
2123.00,0.0059
2122.00,0.0059
2121.00,0.0059
2120.00,0.0058
2119.00,0.0058
2118.00,0.0058
2117.00,0.0059
2116.00,0.0059
2115.00,0.0058
2114.00,0.0057
2113.00,0.0056
2112.00,0.0056
2111.00,0.0057
2110.00,0.0058
2109.00,0.0060
2108.00,0.0062
2107.00,0.0063
2106.00,0.0063
2105.00,0.0064
2104.00,0.0063
2103.00,0.0063
2102.00,0.0063
2101.00,0.0062
2100.00,0.0061
2099.00,0.0058
2098.00,0.0056
2097.00,0.0056
2096.00,0.0056
2095.00,0.0058
2094.00,0.0059
2093.00,0.0060
2092.00,0.0059
2091.00,0.0058
2090.00,0.0057
2089.00,0.0057
2088.00,0.0057
2087.00,0.0058
2086.00,0.0060
2085.00,0.0061
2084.00,0.0063
2083.00,0.0063
2082.00,0.0063
2081.00,0.0062
2080.00,0.0062
2079.00,0.0062
2078.00,0.0062
2077.00,0.0062
2076.00,0.0063
2075.00,0.0063
2074.00,0.0063
2073.00,0.0062
2072.00,0.0062
2071.00,0.0062
2070.00,0.0062
2069.00,0.0061
2068.00,0.0059
2067.00,0.0057
2066.00,0.0056
2065.00,0.0057
2064.00,0.0058
2063.00,0.0060
2062.00,0.0061
2061.00,0.0061
2060.00,0.0060
2059.00,0.0059
2058.00,0.0058
2057.00,0.0059
2056.00,0.0059
2055.00,0.0059
2054.00,0.0060
2053.00,0.0063
2052.00,0.0064
2051.00,0.0064
2050.00,0.0062
2049.00,0.0060
2048.00,0.0059
2047.00,0.0059
2046.00,0.0061
2045.00,0.0063
2044.00,0.0065
2043.00,0.0067
2042.00,0.0067
2041.00,0.0065
2040.00,0.0063
2039.00,0.0061
2038.00,0.0061
2037.00,0.0062
2036.00,0.0064
2035.00,0.0063
2034.00,0.0062
2033.00,0.0062
2032.00,0.0065
2031.00,0.0070
2030.00,0.0072
2029.00,0.0070
2028.00,0.0067
2027.00,0.0064
2026.00,0.0062
2025.00,0.0059
2024.00,0.0056
2023.00,0.0054
2022.00,0.0054
2021.00,0.0055
2020.00,0.0055
2019.00,0.0054
2018.00,0.0051
2017.00,0.0050
2016.00,0.0051
2015.00,0.0054
2014.00,0.0056
2013.00,0.0057
2012.00,0.0056
2011.00,0.0056
2010.00,0.0057
2009.00,0.0059
2008.00,0.0060
2007.00,0.0059
2006.00,0.0057
2005.00,0.0056
2004.00,0.0057
2003.00,0.0060
2002.00,0.0063
2001.00,0.0064
2000.00,0.0064
1999.00,0.0061
1998.00,0.0060
1997.00,0.0062
1996.00,0.0065
1995.00,0.0068
1994.00,0.0070
1993.00,0.0070
1992.00,0.0069
1991.00,0.0067
1990.00,0.0064
1989.00,0.0062
1988.00,0.0061
1987.00,0.0060
1986.00,0.0061
1985.00,0.0061
1984.00,0.0061
1983.00,0.0062
1982.00,0.0062
1981.00,0.0061
1980.00,0.0058
1979.00,0.0053
1978.00,0.0049
1977.00,0.0047
1976.00,0.0049
1975.00,0.0053
1974.00,0.0057
1973.00,0.0058
1972.00,0.0057
1971.00,0.0055
1970.00,0.0054
1969.00,0.0056
1968.00,0.0058
1967.00,0.0058
1966.00,0.0056
1965.00,0.0056
1964.00,0.0056
1963.00,0.0056
1962.00,0.0056
1961.00,0.0055
1960.00,0.0055
1959.00,0.0056
1958.00,0.0056
1957.00,0.0056
1956.00,0.0056
1955.00,0.0056
1954.00,0.0057
1953.00,0.0058
1952.00,0.0058
1951.00,0.0057
1950.00,0.0055
1949.00,0.0054
1948.00,0.0054
1947.00,0.0055
1946.00,0.0055
1945.00,0.0053
1944.00,0.0051
1943.00,0.0049
1942.00,0.0049
1941.00,0.0050
1940.00,0.0051
1939.00,0.0050
1938.00,0.0050
1937.00,0.0050
1936.00,0.0050
1935.00,0.0049
1934.00,0.0048
1933.00,0.0048
1932.00,0.0049
1931.00,0.0051
1930.00,0.0054
1929.00,0.0056
1928.00,0.0058
1927.00,0.0058
1926.00,0.0057
1925.00,0.0057
1924.00,0.0056
1923.00,0.0055
1922.00,0.0054
1921.00,0.0054
1920.00,0.0053
1919.00,0.0052
1918.00,0.0051
1917.00,0.0051
1916.00,0.0052
1915.00,0.0052
1914.00,0.0053
1913.00,0.0053
1912.00,0.0054
1911.00,0.0054
1910.00,0.0053
1909.00,0.0051
1908.00,0.0050
1907.00,0.0050
1906.00,0.0050
1905.00,0.0051
1904.00,0.0051
1903.00,0.0052
1902.00,0.0051
1901.00,0.0051
1900.00,0.0051
1899.00,0.0052
1898.00,0.0053
1897.00,0.0053
1896.00,0.0051
1895.00,0.0050
1894.00,0.0050
1893.00,0.0051
1892.00,0.0052
1891.00,0.0052
1890.00,0.0052
1889.00,0.0051
1888.00,0.0050
1887.00,0.0050
1886.00,0.0049
1885.00,0.0050
1884.00,0.0050
1883.00,0.0050
1882.00,0.0050
1881.00,0.0050
1880.00,0.0050
1879.00,0.0050
1878.00,0.0050
1877.00,0.0049
1876.00,0.0049
1875.00,0.0049
1874.00,0.0050
1873.00,0.0052
1872.00,0.0052
1871.00,0.0053
1870.00,0.0052
1869.00,0.0051
1868.00,0.0050
1867.00,0.0050
1866.00,0.0050
1865.00,0.0050
1864.00,0.0049
1863.00,0.0048
1862.00,0.0047
1861.00,0.0047
1860.00,0.0046
1859.00,0.0047
1858.00,0.0047
1857.00,0.0048
1856.00,0.0049
1855.00,0.0049
1854.00,0.0048
1853.00,0.0047
1852.00,0.0047
1851.00,0.0047
1850.00,0.0048
1849.00,0.0048
1848.00,0.0048
1847.00,0.0048
1846.00,0.0049
1845.00,0.0049
1844.00,0.0048
1843.00,0.0047
1842.00,0.0047
1841.00,0.0047
1840.00,0.0047
1839.00,0.0047
1838.00,0.0047
1837.00,0.0048
1836.00,0.0048
1835.00,0.0048
1834.00,0.0049
1833.00,0.0049
1832.00,0.0050
1831.00,0.0050
1830.00,0.0050
1829.00,0.0048
1828.00,0.0047
1827.00,0.0047
1826.00,0.0047
1825.00,0.0047
1824.00,0.0047
1823.00,0.0046
1822.00,0.0046
1821.00,0.0046
1820.00,0.0046
1819.00,0.0046
1818.00,0.0046
1817.00,0.0045
1816.00,0.0045
1815.00,0.0045
1814.00,0.0045
1813.00,0.0046
1812.00,0.0046
1811.00,0.0045
1810.00,0.0045
1809.00,0.0046
1808.00,0.0046
1807.00,0.0047
1806.00,0.0047
1805.00,0.0047
1804.00,0.0048
1803.00,0.0048
1802.00,0.0048
1801.00,0.0048
1800.00,0.0047
1799.00,0.0047
1798.00,0.0048
1797.00,0.0048
1796.00,0.0049
1795.00,0.0049
1794.00,0.0049
1793.00,0.0049
1792.00,0.0050
1791.00,0.0049
1790.00,0.0049
1789.00,0.0048
1788.00,0.0049
1787.00,0.0049
1786.00,0.0050
1785.00,0.0050
1784.00,0.0051
1783.00,0.0051
1782.00,0.0051
1781.00,0.0051
1780.00,0.0051
1779.00,0.0051
1778.00,0.0051
1777.00,0.0052
1776.00,0.0053
1775.00,0.0053
1774.00,0.0054
1773.00,0.0054
1772.00,0.0054
1771.00,0.0053
1770.00,0.0053
1769.00,0.0054
1768.00,0.0054
1767.00,0.0055
1766.00,0.0055
1765.00,0.0056
1764.00,0.0057
1763.00,0.0057
1762.00,0.0056
1761.00,0.0057
1760.00,0.0057
1759.00,0.0057
1758.00,0.0058
1757.00,0.0058
1756.00,0.0059
1755.00,0.0060
1754.00,0.0061
1753.00,0.0061
1752.00,0.0061
1751.00,0.0061
1750.00,0.0061
1749.00,0.0062
1748.00,0.0062
1747.00,0.0063
1746.00,0.0064
1745.00,0.0064
1744.00,0.0064
1743.00,0.0064
1742.00,0.0065
1741.00,0.0065
1740.00,0.0066
1739.00,0.0066
1738.00,0.0066
1737.00,0.0066
1736.00,0.0067
1735.00,0.0068
1734.00,0.0069
1733.00,0.0069
1732.00,0.0069
1731.00,0.0068
1730.00,0.0068
1729.00,0.0068
1728.00,0.0068
1727.00,0.0069
1726.00,0.0069
1725.00,0.0070
1724.00,0.0071
1723.00,0.0072
1722.00,0.0073
1721.00,0.0073
1720.00,0.0072
1719.00,0.0072
1718.00,0.0073
1717.00,0.0075
1716.00,0.0077
1715.00,0.0077
1714.00,0.0077
1713.00,0.0077
1712.00,0.0077
1711.00,0.0078
1710.00,0.0078
1709.00,0.0078
1708.00,0.0078
1707.00,0.0078
1706.00,0.0078
1705.00,0.0078
1704.00,0.0078
1703.00,0.0078
1702.00,0.0078
1701.00,0.0079
1700.00,0.0080
1699.00,0.0080
1698.00,0.0080
1697.00,0.0080
1696.00,0.0080
1695.00,0.0080
1694.00,0.0081
1693.00,0.0081
1692.00,0.0081
1691.00,0.0081
1690.00,0.0082
1689.00,0.0083
1688.00,0.0083
1687.00,0.0082
1686.00,0.0081
1685.00,0.0081
1684.00,0.0081
1683.00,0.0080
1682.00,0.0080
1681.00,0.0080
1680.00,0.0079
1679.00,0.0079
1678.00,0.0080
1677.00,0.0081
1676.00,0.0083
1675.00,0.0084
1674.00,0.0084
1673.00,0.0083
1672.00,0.0083
1671.00,0.0082
1670.00,0.0083
1669.00,0.0082
1668.00,0.0082
1667.00,0.0082
1666.00,0.0082
1665.00,0.0082
1664.00,0.0082
1663.00,0.0083
1662.00,0.0083
1661.00,0.0083
1660.00,0.0084
1659.00,0.0085
1658.00,0.0086
1657.00,0.0085
1656.00,0.0083
1655.00,0.0081
1654.00,0.0080
1653.00,0.0081
1652.00,0.0083
1651.00,0.0085
1650.00,0.0086
1649.00,0.0085
1648.00,0.0085
1647.00,0.0086
1646.00,0.0087
1645.00,0.0089
1644.00,0.0090
1643.00,0.0090
1642.00,0.0090
1641.00,0.0089
1640.00,0.0089
1639.00,0.0088
1638.00,0.0088
1637.00,0.0089
1636.00,0.0091
1635.00,0.0092
1634.00,0.0092
1633.00,0.0091
1632.00,0.0090
1631.00,0.0089
1630.00,0.0089
1629.00,0.0090
1628.00,0.0090
1627.00,0.0091
1626.00,0.0092
1625.00,0.0093
1624.00,0.0094
1623.00,0.0095
1622.00,0.0094
1621.00,0.0094
1620.00,0.0094
1619.00,0.0093
1618.00,0.0093
1617.00,0.0094
1616.00,0.0094
1615.00,0.0095
1614.00,0.0095
1613.00,0.0095
1612.00,0.0095
1611.00,0.0096
1610.00,0.0096
1609.00,0.0096
1608.00,0.0096
1607.00,0.0096
1606.00,0.0097
1605.00,0.0098
1604.00,0.0098
1603.00,0.0098
1602.00,0.0097
1601.00,0.0096
1600.00,0.0096
1599.00,0.0096
1598.00,0.0097
1597.00,0.0098
1596.00,0.0099
1595.00,0.0099
1594.00,0.0100
1593.00,0.0100
1592.00,0.0100
1591.00,0.0099
1590.00,0.0099
1589.00,0.0100
1588.00,0.0101
1587.00,0.0102
1586.00,0.0102
1585.00,0.0102
1584.00,0.0102
1583.00,0.0102
1582.00,0.0102
1581.00,0.0102
1580.00,0.0103
1579.00,0.0104
1578.00,0.0105
1577.00,0.0106
1576.00,0.0106
1575.00,0.0104
1574.00,0.0103
1573.00,0.0102
1572.00,0.0102
1571.00,0.0103
1570.00,0.0103
1569.00,0.0104
1568.00,0.0104
1567.00,0.0104
1566.00,0.0104
1565.00,0.0103
1564.00,0.0103
1563.00,0.0102
1562.00,0.0101
1561.00,0.0100
1560.00,0.0101
1559.00,0.0103
1558.00,0.0102
1557.00,0.0102
1556.00,0.0102
1555.00,0.0102
1554.00,0.0103
1553.00,0.0103
1552.00,0.0103
1551.00,0.0103
1550.00,0.0102
1549.00,0.0101
1548.00,0.0101
1547.00,0.0101
1546.00,0.0101
1545.00,0.0101
1544.00,0.0101
1543.00,0.0100
1542.00,0.0100
1541.00,0.0100
1540.00,0.0099
1539.00,0.0097
1538.00,0.0097
1537.00,0.0097
1536.00,0.0097
1535.00,0.0096
1534.00,0.0096
1533.00,0.0096
1532.00,0.0095
1531.00,0.0095
1530.00,0.0096
1529.00,0.0096
1528.00,0.0096
1527.00,0.0095
1526.00,0.0095
1525.00,0.0094
1524.00,0.0093
1523.00,0.0093
1522.00,0.0093
1521.00,0.0093
1520.00,0.0093
1519.00,0.0093
1518.00,0.0093
1517.00,0.0092
1516.00,0.0092
1515.00,0.0092
1514.00,0.0092
1513.00,0.0092
1512.00,0.0091
1511.00,0.0091
1510.00,0.0090
1509.00,0.0089
1508.00,0.0090
1507.00,0.0089
1506.00,0.0088
1505.00,0.0089
1504.00,0.0089
1503.00,0.0089
1502.00,0.0089
1501.00,0.0088
1500.00,0.0088
1499.00,0.0088
1498.00,0.0089
1497.00,0.0090
1496.00,0.0090
1495.00,0.0089
1494.00,0.0089
1493.00,0.0088
1492.00,0.0087
1491.00,0.0087
1490.00,0.0087
1489.00,0.0086
1488.00,0.0085
1487.00,0.0084
1486.00,0.0084
1485.00,0.0084
1484.00,0.0084
1483.00,0.0084
1482.00,0.0084
1481.00,0.0084
1480.00,0.0084
1479.00,0.0083
1478.00,0.0083
1477.00,0.0083
1476.00,0.0083
1475.00,0.0083
1474.00,0.0084
1473.00,0.0084
1472.00,0.0085
1471.00,0.0085
1470.00,0.0086
1469.00,0.0087
1468.00,0.0087
1467.00,0.0087
1466.00,0.0087
1465.00,0.0086
1464.00,0.0085
1463.00,0.0085
1462.00,0.0084
1461.00,0.0083
1460.00,0.0083
1459.00,0.0082
1458.00,0.0084
1457.00,0.0085
1456.00,0.0085
1455.00,0.0084
1454.00,0.0084
1453.00,0.0084
1452.00,0.0084
1451.00,0.0085
1450.00,0.0086
1449.00,0.0087
1448.00,0.0087
1447.00,0.0088
1446.00,0.0088
1445.00,0.0089
1444.00,0.0089
1443.00,0.0088
1442.00,0.0088
1441.00,0.0088
1440.00,0.0088
1439.00,0.0088
1438.00,0.0089
1437.00,0.0090
1436.00,0.0090
1435.00,0.0090
1434.00,0.0090
1433.00,0.0090
1432.00,0.0090
1431.00,0.0089
1430.00,0.0089
1429.00,0.0088
1428.00,0.0088
1427.00,0.0089
1426.00,0.0089
1425.00,0.0089
1424.00,0.0089
1423.00,0.0090
1422.00,0.0090
1421.00,0.0089
1420.00,0.0089
1419.00,0.0089
1418.00,0.0090
1417.00,0.0090
1416.00,0.0091
1415.00,0.0091
1414.00,0.0090
1413.00,0.0089
1412.00,0.0089
1411.00,0.0088
1410.00,0.0088
1409.00,0.0088
1408.00,0.0088
1407.00,0.0088
1406.00,0.0087
1405.00,0.0087
1404.00,0.0086
1403.00,0.0085
1402.00,0.0085
1401.00,0.0084
1400.00,0.0083
1399.00,0.0083
1398.00,0.0083
1397.00,0.0083
1396.00,0.0082
1395.00,0.0082
1394.00,0.0081
1393.00,0.0081
1392.00,0.0081
1391.00,0.0082
1390.00,0.0082
1389.00,0.0082
1388.00,0.0082
1387.00,0.0082
1386.00,0.0082
1385.00,0.0081
1384.00,0.0081
1383.00,0.0081
1382.00,0.0081
1381.00,0.0082
1380.00,0.0082
1379.00,0.0083
1378.00,0.0083
1377.00,0.0083
1376.00,0.0084
1375.00,0.0084
1374.00,0.0084
1373.00,0.0085
1372.00,0.0085
1371.00,0.0086
1370.00,0.0086
1369.00,0.0087
1368.00,0.0087
1367.00,0.0087
1366.00,0.0087
1365.00,0.0086
1364.00,0.0086
1363.00,0.0086
1362.00,0.0087
1361.00,0.0087
1360.00,0.0088
1359.00,0.0088
1358.00,0.0088
1357.00,0.0089
1356.00,0.0090
1355.00,0.0090
1354.00,0.0090
1353.00,0.0090
1352.00,0.0090
1351.00,0.0089
1350.00,0.0088
1349.00,0.0088
1348.00,0.0088
1347.00,0.0088
1346.00,0.0088
1345.00,0.0088
1344.00,0.0088
1343.00,0.0088
1342.00,0.0088
1341.00,0.0089
1340.00,0.0090
1339.00,0.0090
1338.00,0.0090
1337.00,0.0090
1336.00,0.0090
1335.00,0.0090
1334.00,0.0090
1333.00,0.0089
1332.00,0.0089
1331.00,0.0089
1330.00,0.0089
1329.00,0.0089
1328.00,0.0089
1327.00,0.0088
1326.00,0.0088
1325.00,0.0089
1324.00,0.0089
1323.00,0.0090
1322.00,0.0091
1321.00,0.0092
1320.00,0.0092
1319.00,0.0092
1318.00,0.0090
1317.00,0.0089
1316.00,0.0088
1315.00,0.0087
1314.00,0.0088
1313.00,0.0088
1312.00,0.0090
1311.00,0.0091
1310.00,0.0091
1309.00,0.0091
1308.00,0.0091
1307.00,0.0090
1306.00,0.0090
1305.00,0.0090
1304.00,0.0090
1303.00,0.0091
1302.00,0.0092
1301.00,0.0092
1300.00,0.0092
1299.00,0.0091
1298.00,0.0090
1297.00,0.0089
1296.00,0.0089
1295.00,0.0089
1294.00,0.0089
1293.00,0.0090
1292.00,0.0090
1291.00,0.0091
1290.00,0.0091
1289.00,0.0091
1288.00,0.0091
1287.00,0.0090
1286.00,0.0090
1285.00,0.0090
1284.00,0.0090
1283.00,0.0091
1282.00,0.0092
1281.00,0.0091
1280.00,0.0091
1279.00,0.0090
1278.00,0.0089
1277.00,0.0089
1276.00,0.0088
1275.00,0.0088
1274.00,0.0088
1273.00,0.0089
1272.00,0.0089
1271.00,0.0089
1270.00,0.0089
1269.00,0.0089
1268.00,0.0089
1267.00,0.0088
1266.00,0.0088
1265.00,0.0088
1264.00,0.0088
1263.00,0.0087
1262.00,0.0087
1261.00,0.0086
1260.00,0.0087
1259.00,0.0087
1258.00,0.0088
1257.00,0.0088
1256.00,0.0087
1255.00,0.0087
1254.00,0.0087
1253.00,0.0088
1252.00,0.0088
1251.00,0.0088
1250.00,0.0088
1249.00,0.0087
1248.00,0.0087
1247.00,0.0088
1246.00,0.0089
1245.00,0.0090
1244.00,0.0091
1243.00,0.0091
1242.00,0.0090
1241.00,0.0089
1240.00,0.0089
1239.00,0.0089
1238.00,0.0090
1237.00,0.0091
1236.00,0.0092
1235.00,0.0092
1234.00,0.0092
1233.00,0.0092
1232.00,0.0091
1231.00,0.0091
1230.00,0.0091
1229.00,0.0091
1228.00,0.0092
1227.00,0.0093
1226.00,0.0093
1225.00,0.0092
1224.00,0.0092
1223.00,0.0091
1222.00,0.0092
1221.00,0.0092
1220.00,0.0093
1219.00,0.0093
1218.00,0.0093
1217.00,0.0094
1216.00,0.0094
1215.00,0.0094
1214.00,0.0094
1213.00,0.0094
1212.00,0.0094
1211.00,0.0095
1210.00,0.0096
1209.00,0.0096
1208.00,0.0097
1207.00,0.0097
1206.00,0.0096
1205.00,0.0095
1204.00,0.0095
1203.00,0.0095
1202.00,0.0096
1201.00,0.0097
1200.00,0.0098
1199.00,0.0098
1198.00,0.0097
1197.00,0.0096
1196.00,0.0095
1195.00,0.0095
1194.00,0.0095
1193.00,0.0095
1192.00,0.0096
1191.00,0.0095
1190.00,0.0095
1189.00,0.0094
1188.00,0.0094
1187.00,0.0094
1186.00,0.0095
1185.00,0.0095
1184.00,0.0095
1183.00,0.0094
1182.00,0.0093
1181.00,0.0092
1180.00,0.0091
1179.00,0.0091
1178.00,0.0091
1177.00,0.0091
1176.00,0.0092
1175.00,0.0093
1174.00,0.0093
1173.00,0.0093
1172.00,0.0092
1171.00,0.0091
1170.00,0.0090
1169.00,0.0090
1168.00,0.0090
1167.00,0.0090
1166.00,0.0090
1165.00,0.0090
1164.00,0.0090
1163.00,0.0090
1162.00,0.0090
1161.00,0.0090
1160.00,0.0090
1159.00,0.0089
1158.00,0.0089
1157.00,0.0089
1156.00,0.0090
1155.00,0.0091
1154.00,0.0092
1153.00,0.0092
1152.00,0.0091
1151.00,0.0090
1150.00,0.0089
1149.00,0.0088
1148.00,0.0088
1147.00,0.0088
1146.00,0.0088
1145.00,0.0088
1144.00,0.0089
1143.00,0.0091
1142.00,0.0092
1141.00,0.0092
1140.00,0.0091
1139.00,0.0091
1138.00,0.0091
1137.00,0.0092
1136.00,0.0093
1135.00,0.0094
1134.00,0.0095
1133.00,0.0095
1132.00,0.0095
1131.00,0.0094
1130.00,0.0095
1129.00,0.0096
1128.00,0.0097
1127.00,0.0098
1126.00,0.0096
1125.00,0.0095
1124.00,0.0095
1123.00,0.0097
1122.00,0.0099
1121.00,0.0102
1120.00,0.0104
1119.00,0.0104
1118.00,0.0103
1117.00,0.0103
1116.00,0.0104
1115.00,0.0105
1114.00,0.0106
1113.00,0.0105
1112.00,0.0104
1111.00,0.0104
1110.00,0.0105
1109.00,0.0106
1108.00,0.0107
1107.00,0.0106
1106.00,0.0105
1105.00,0.0104
1104.00,0.0105
1103.00,0.0106
1102.00,0.0108
1101.00,0.0110
1100.00,0.0110
1099.00,0.0109
1098.00,0.0108
1097.00,0.0107
1096.00,0.0106
1095.00,0.0106
1094.00,0.0106
1093.00,0.0106
1092.00,0.0107
1091.00,0.0108
1090.00,0.0107
1089.00,0.0105
1088.00,0.0103
1087.00,0.0103
1086.00,0.0104
1085.00,0.0105
1084.00,0.0105
1083.00,0.0106
1082.00,0.0107
1081.00,0.0108
1080.00,0.0109
1079.00,0.0110
1078.00,0.0112
1077.00,0.0114
1076.00,0.0113
1075.00,0.0110
1074.00,0.0107
1073.00,0.0105
1072.00,0.0105
1071.00,0.0105
1070.00,0.0104
1069.00,0.0103
1068.00,0.0103
1067.00,0.0103
1066.00,0.0105
1065.00,0.0107
1064.00,0.0109
1063.00,0.0110
1062.00,0.0110
1061.00,0.0109
1060.00,0.0107
1059.00,0.0106
1058.00,0.0106
1057.00,0.0107
1056.00,0.0108
1055.00,0.0109
1054.00,0.0110
1053.00,0.0112
1052.00,0.0113
1051.00,0.0114
1050.00,0.0115
1049.00,0.0115
1048.00,0.0116
1047.00,0.0117
1046.00,0.0116
1045.00,0.0116
1044.00,0.0117
1043.00,0.0118
1042.00,0.0117
1041.00,0.0116
1040.00,0.0115
1039.00,0.0115
1038.00,0.0116
1037.00,0.0117
1036.00,0.0118
1035.00,0.0117
1034.00,0.0117
1033.00,0.0117
1032.00,0.0118
1031.00,0.0118
1030.00,0.0117
1029.00,0.0115
1028.00,0.0114
1027.00,0.0113
1026.00,0.0113
1025.00,0.0113
1024.00,0.0113
1023.00,0.0113
1022.00,0.0112
1021.00,0.0111
1020.00,0.0111
1019.00,0.0111
1018.00,0.0111
1017.00,0.0111
1016.00,0.0112
1015.00,0.0114
1014.00,0.0115
1013.00,0.0115
1012.00,0.0115
1011.00,0.0115
1010.00,0.0115
1009.00,0.0116
1008.00,0.0115
1007.00,0.0114
1006.00,0.0114
1005.00,0.0114
1004.00,0.0115
1003.00,0.0116
1002.00,0.0116
1001.00,0.0116
1000.00,0.0113
999.00,0.0110
998.00,0.0108
997.00,0.0108
996.00,0.0109
995.00,0.0110
994.00,0.0110
993.00,0.0108
992.00,0.0106
991.00,0.0104
990.00,0.0103
989.00,0.0103
988.00,0.0103
987.00,0.0104
986.00,0.0105
985.00,0.0105
984.00,0.0104
983.00,0.0102
982.00,0.0100
981.00,0.0099
980.00,0.0099
979.00,0.0099
978.00,0.0098
977.00,0.0096
976.00,0.0095
975.00,0.0094
974.00,0.0094
973.00,0.0095
972.00,0.0095
971.00,0.0095
970.00,0.0093
969.00,0.0091
968.00,0.0090
967.00,0.0089
966.00,0.0088
965.00,0.0087
964.00,0.0087
963.00,0.0087
962.00,0.0087
961.00,0.0087
960.00,0.0087
959.00,0.0086
958.00,0.0085
957.00,0.0085
956.00,0.0084
955.00,0.0083
954.00,0.0082
953.00,0.0081
952.00,0.0081
951.00,0.0083
950.00,0.0085
949.00,0.0086
948.00,0.0086
947.00,0.0085
946.00,0.0083
945.00,0.0082
944.00,0.0082
943.00,0.0081
942.00,0.0081
941.00,0.0081
940.00,0.0082
939.00,0.0084
938.00,0.0085
937.00,0.0085
936.00,0.0084
935.00,0.0082
934.00,0.0081
933.00,0.0083
932.00,0.0086
931.00,0.0089
930.00,0.0090
929.00,0.0091
928.00,0.0091
927.00,0.0091
926.00,0.0091
925.00,0.0091
924.00,0.0091
923.00,0.0092
922.00,0.0093
921.00,0.0093
920.00,0.0092
919.00,0.0091
918.00,0.0092
917.00,0.0093
916.00,0.0095
915.00,0.0097
914.00,0.0097
913.00,0.0096
912.00,0.0095
911.00,0.0094
910.00,0.0093
909.00,0.0091
908.00,0.0089
907.00,0.0088
906.00,0.0089
905.00,0.0091
904.00,0.0094
903.00,0.0097
902.00,0.0098
901.00,0.0097
900.00,0.0094
899.00,0.0093
898.00,0.0094
897.00,0.0095
896.00,0.0096
895.00,0.0095
894.00,0.0094
893.00,0.0092
892.00,0.0090
891.00,0.0089
890.00,0.0090
889.00,0.0091
888.00,0.0092
887.00,0.0091
886.00,0.0087
885.00,0.0085
884.00,0.0085
883.00,0.0088
882.00,0.0091
881.00,0.0092
880.00,0.0092
879.00,0.0091
878.00,0.0088
877.00,0.0086
876.00,0.0084
875.00,0.0084
874.00,0.0084
873.00,0.0083
872.00,0.0082
871.00,0.0082
870.00,0.0083
869.00,0.0082
868.00,0.0081
867.00,0.0079
866.00,0.0078
865.00,0.0079
864.00,0.0081
863.00,0.0082
862.00,0.0084
861.00,0.0085
860.00,0.0086
859.00,0.0085
858.00,0.0082
857.00,0.0079
856.00,0.0078
855.00,0.0079
854.00,0.0081
853.00,0.0082
852.00,0.0081
851.00,0.0080
850.00,0.0080
849.00,0.0082
848.00,0.0085
847.00,0.0087
846.00,0.0088
845.00,0.0090
844.00,0.0090
843.00,0.0090
842.00,0.0088
841.00,0.0085
840.00,0.0082
839.00,0.0079
838.00,0.0078
837.00,0.0079
836.00,0.0081
835.00,0.0082
834.00,0.0081
833.00,0.0080
832.00,0.0079
831.00,0.0079
830.00,0.0079
829.00,0.0078
828.00,0.0078
827.00,0.0079
826.00,0.0081
825.00,0.0082
824.00,0.0083
823.00,0.0084
822.00,0.0084
821.00,0.0085
820.00,0.0087
819.00,0.0087
818.00,0.0087
817.00,0.0084
816.00,0.0081
815.00,0.0079
814.00,0.0080
813.00,0.0082
812.00,0.0084
811.00,0.0084
810.00,0.0083
809.00,0.0084
808.00,0.0084
807.00,0.0084
806.00,0.0084
805.00,0.0082
804.00,0.0081
803.00,0.0081
802.00,0.0083
801.00,0.0086
800.00,0.0090
799.00,0.0092
798.00,0.0092
797.00,0.0090
796.00,0.0088
795.00,0.0087
794.00,0.0087
793.00,0.0088
792.00,0.0089
791.00,0.0090
790.00,0.0090
789.00,0.0090
788.00,0.0090
787.00,0.0090
786.00,0.0090
785.00,0.0091
784.00,0.0092
783.00,0.0092
782.00,0.0093
781.00,0.0093
780.00,0.0093
779.00,0.0092
778.00,0.0092
777.00,0.0092
776.00,0.0093
775.00,0.0092
774.00,0.0090
773.00,0.0087
772.00,0.0086
771.00,0.0087
770.00,0.0089
769.00,0.0090
768.00,0.0090
767.00,0.0089
766.00,0.0087
765.00,0.0086
764.00,0.0086
763.00,0.0085
762.00,0.0083
761.00,0.0081
760.00,0.0081
759.00,0.0083
758.00,0.0087
757.00,0.0089
756.00,0.0088
755.00,0.0086
754.00,0.0084
753.00,0.0084
752.00,0.0084
751.00,0.0086
750.00,0.0087
749.00,0.0089
748.00,0.0089
747.00,0.0090
746.00,0.0089
745.00,0.0088
744.00,0.0086
743.00,0.0086
742.00,0.0085
741.00,0.0084
740.00,0.0082
739.00,0.0080
738.00,0.0079
737.00,0.0079
736.00,0.0079
735.00,0.0079
734.00,0.0079
733.00,0.0077
732.00,0.0076
731.00,0.0075
730.00,0.0075
729.00,0.0077
728.00,0.0080
727.00,0.0084
726.00,0.0087
725.00,0.0087
724.00,0.0085
723.00,0.0082
722.00,0.0081
721.00,0.0081
720.00,0.0083
719.00,0.0083
718.00,0.0084
717.00,0.0083
716.00,0.0082
715.00,0.0081
714.00,0.0079
713.00,0.0080
712.00,0.0082
711.00,0.0083
710.00,0.0082
709.00,0.0081
708.00,0.0081
707.00,0.0082
706.00,0.0083
705.00,0.0084
704.00,0.0086
703.00,0.0089
702.00,0.0089
701.00,0.0088
700.00,0.0085
699.00,0.0083
698.00,0.0083
697.00,0.0084
696.00,0.0085
695.00,0.0087
694.00,0.0090
693.00,0.0091
692.00,0.0092
691.00,0.0092
690.00,0.0092
689.00,0.0092
688.00,0.0091
687.00,0.0089
686.00,0.0088
685.00,0.0088
684.00,0.0086
683.00,0.0082
682.00,0.0077
681.00,0.0075
680.00,0.0075
679.00,0.0077
678.00,0.0079
677.00,0.0081
676.00,0.0084
675.00,0.0087
674.00,0.0089
673.00,0.0090
672.00,0.0090
671.00,0.0092
670.00,0.0095
669.00,0.0098
668.00,0.0099
667.00,0.0098
666.00,0.0097
665.00,0.0097
664.00,0.0095
663.00,0.0093
662.00,0.0088
661.00,0.0081
660.00,0.0075
659.00,0.0072
658.00,0.0074
657.00,0.0080
656.00,0.0085
655.00,0.0086
654.00,0.0083
653.00,0.0076
652.00,0.0070
651.00,0.0067
650.00,0.0068
