Created as New Dataset,Monday, April 03 2023
cm-1,A
4000.00,0.0137
3999.00,0.0137
3998.00,0.0137
3997.00,0.0137
3996.00,0.0136
3995.00,0.0136
3994.00,0.0135
3993.00,0.0135
3992.00,0.0136
3991.00,0.0136
3990.00,0.0136
3989.00,0.0136
3988.00,0.0135
3987.00,0.0135
3986.00,0.0135
3985.00,0.0135
3984.00,0.0135
3983.00,0.0135
3982.00,0.0135
3981.00,0.0135
3980.00,0.0135
3979.00,0.0135
3978.00,0.0135
3977.00,0.0135
3976.00,0.0134
3975.00,0.0134
3974.00,0.0134
3973.00,0.0134
3972.00,0.0135
3971.00,0.0135
3970.00,0.0136
3969.00,0.0136
3968.00,0.0135
3967.00,0.0134
3966.00,0.0134
3965.00,0.0134
3964.00,0.0134
3963.00,0.0135
3962.00,0.0136
3961.00,0.0136
3960.00,0.0135
3959.00,0.0134
3958.00,0.0134
3957.00,0.0134
3956.00,0.0134
3955.00,0.0133
3954.00,0.0133
3953.00,0.0133
3952.00,0.0133
3951.00,0.0134
3950.00,0.0135
3949.00,0.0135
3948.00,0.0135
3947.00,0.0135
3946.00,0.0135
3945.00,0.0134
3944.00,0.0133
3943.00,0.0132
3942.00,0.0132
3941.00,0.0132
3940.00,0.0133
3939.00,0.0133
3938.00,0.0134
3937.00,0.0134
3936.00,0.0133
3935.00,0.0133
3934.00,0.0133
3933.00,0.0132
3932.00,0.0132
3931.00,0.0133
3930.00,0.0133
3929.00,0.0133
3928.00,0.0133
3927.00,0.0134
3926.00,0.0133
3925.00,0.0133
3924.00,0.0133
3923.00,0.0133
3922.00,0.0133
3921.00,0.0133
3920.00,0.0133
3919.00,0.0133
3918.00,0.0133
3917.00,0.0134
3916.00,0.0134
3915.00,0.0134
3914.00,0.0133
3913.00,0.0133
3912.00,0.0133
3911.00,0.0133
3910.00,0.0133
3909.00,0.0132
3908.00,0.0132
3907.00,0.0131
3906.00,0.0130
3905.00,0.0130
3904.00,0.0130
3903.00,0.0131
3902.00,0.0132
3901.00,0.0133
3900.00,0.0133
3899.00,0.0132
3898.00,0.0132
3897.00,0.0132
3896.00,0.0132
3895.00,0.0133
3894.00,0.0132
3893.00,0.0132
3892.00,0.0131
3891.00,0.0130
3890.00,0.0129
3889.00,0.0129
3888.00,0.0129
3887.00,0.0129
3886.00,0.0129
3885.00,0.0129
3884.00,0.0130
3883.00,0.0130
3882.00,0.0130
3881.00,0.0129
3880.00,0.0128
3879.00,0.0128
3878.00,0.0130
3877.00,0.0132
3876.00,0.0133
3875.00,0.0132
3874.00,0.0131
3873.00,0.0130
3872.00,0.0130
3871.00,0.0131
3870.00,0.0130
3869.00,0.0129
3868.00,0.0130
3867.00,0.0130
3866.00,0.0131
3865.00,0.0131
3864.00,0.0132
3863.00,0.0132
3862.00,0.0132
3861.00,0.0132
3860.00,0.0132
3859.00,0.0131
3858.00,0.0129
3857.00,0.0127
3856.00,0.0124
3855.00,0.0124
3854.00,0.0125
3853.00,0.0125
3852.00,0.0125
3851.00,0.0125
3850.00,0.0127
3849.00,0.0128
3848.00,0.0129
3847.00,0.0129
3846.00,0.0130
3845.00,0.0130
3844.00,0.0129
3843.00,0.0129
3842.00,0.0129
3841.00,0.0129
3840.00,0.0130
3839.00,0.0130
3838.00,0.0129
3837.00,0.0128
3836.00,0.0127
3835.00,0.0128
3834.00,0.0128
3833.00,0.0129
3832.00,0.0130
3831.00,0.0130
3830.00,0.0131
3829.00,0.0131
3828.00,0.0131
3827.00,0.0130
3826.00,0.0129
3825.00,0.0129
3824.00,0.0130
3823.00,0.0131
3822.00,0.0131
3821.00,0.0130
3820.00,0.0129
3819.00,0.0128
3818.00,0.0129
3817.00,0.0128
3816.00,0.0128
3815.00,0.0128
3814.00,0.0128
3813.00,0.0129
3812.00,0.0129
3811.00,0.0128
3810.00,0.0127
3809.00,0.0126
3808.00,0.0127
3807.00,0.0128
3806.00,0.0129
3805.00,0.0130
3804.00,0.0131
3803.00,0.0131
3802.00,0.0130
3801.00,0.0129
3800.00,0.0128
3799.00,0.0128
3798.00,0.0128
3797.00,0.0127
3796.00,0.0127
3795.00,0.0127
3794.00,0.0128
3793.00,0.0128
3792.00,0.0128
3791.00,0.0128
3790.00,0.0128
3789.00,0.0129
3788.00,0.0129
3787.00,0.0130
3786.00,0.0130
3785.00,0.0129
3784.00,0.0129
3783.00,0.0129
3782.00,0.0129
3781.00,0.0128
3780.00,0.0128
3779.00,0.0127
3778.00,0.0127
3777.00,0.0127
3776.00,0.0127
3775.00,0.0127
3774.00,0.0127
3773.00,0.0127
3772.00,0.0127
3771.00,0.0127
3770.00,0.0126
3769.00,0.0125
3768.00,0.0125
3767.00,0.0126
3766.00,0.0126
3765.00,0.0126
3764.00,0.0127
3763.00,0.0127
3762.00,0.0128
3761.00,0.0128
3760.00,0.0127
3759.00,0.0127
3758.00,0.0126
3757.00,0.0125
3756.00,0.0124
3755.00,0.0124
3754.00,0.0123
3753.00,0.0123
3752.00,0.0124
3751.00,0.0125
3750.00,0.0125
3749.00,0.0125
3748.00,0.0126
3747.00,0.0126
3746.00,0.0126
3745.00,0.0125
3744.00,0.0124
3743.00,0.0124
3742.00,0.0125
3741.00,0.0127
3740.00,0.0127
3739.00,0.0128
3738.00,0.0128
3737.00,0.0129
3736.00,0.0129
3735.00,0.0127
3734.00,0.0125
3733.00,0.0124
3732.00,0.0124
3731.00,0.0124
3730.00,0.0125
3729.00,0.0126
3728.00,0.0126
3727.00,0.0127
3726.00,0.0127
3725.00,0.0127
3724.00,0.0126
3723.00,0.0126
3722.00,0.0126
3721.00,0.0127
3720.00,0.0127
3719.00,0.0128
3718.00,0.0128
3717.00,0.0127
3716.00,0.0126
3715.00,0.0126
3714.00,0.0127
3713.00,0.0129
3712.00,0.0130
3711.00,0.0130
3710.00,0.0129
3709.00,0.0128
3708.00,0.0129
3707.00,0.0132
3706.00,0.0134
3705.00,0.0135
3704.00,0.0136
3703.00,0.0137
3702.00,0.0137
3701.00,0.0137
3700.00,0.0138
3699.00,0.0139
3698.00,0.0140
3697.00,0.0140
3696.00,0.0139
3695.00,0.0139
3694.00,0.0138
3693.00,0.0137
3692.00,0.0137
3691.00,0.0138
3690.00,0.0140
3689.00,0.0140
3688.00,0.0140
3687.00,0.0139
3686.00,0.0139
3685.00,0.0138
3684.00,0.0138
3683.00,0.0137
3682.00,0.0137
3681.00,0.0136
3680.00,0.0135
3679.00,0.0133
3678.00,0.0132
3677.00,0.0131
3676.00,0.0131
3675.00,0.0130
3674.00,0.0130
3673.00,0.0131
3672.00,0.0133
3671.00,0.0134
3670.00,0.0135
3669.00,0.0136
3668.00,0.0136
3667.00,0.0137
3666.00,0.0138
3665.00,0.0138
3664.00,0.0138
3663.00,0.0139
3662.00,0.0139
3661.00,0.0140
3660.00,0.0142
3659.00,0.0143
3658.00,0.0144
3657.00,0.0146
3656.00,0.0146
3655.00,0.0147
3654.00,0.0147
3653.00,0.0147
3652.00,0.0147
3651.00,0.0148
3650.00,0.0149
3649.00,0.0150
3648.00,0.0150
3647.00,0.0149
3646.00,0.0150
3645.00,0.0152
3644.00,0.0153
3643.00,0.0154
3642.00,0.0154
3641.00,0.0155
3640.00,0.0155
3639.00,0.0155
3638.00,0.0156
3637.00,0.0156
3636.00,0.0157
3635.00,0.0157
3634.00,0.0157
3633.00,0.0157
3632.00,0.0156
3631.00,0.0156
3630.00,0.0159
3629.00,0.0162
3628.00,0.0164
3627.00,0.0165
3626.00,0.0166
3625.00,0.0167
3624.00,0.0167
3623.00,0.0167
3622.00,0.0168
3621.00,0.0170
3620.00,0.0172
3619.00,0.0173
3618.00,0.0173
3617.00,0.0173
3616.00,0.0173
3615.00,0.0172
3614.00,0.0171
3613.00,0.0170
3612.00,0.0170
3611.00,0.0171
3610.00,0.0173
3609.00,0.0174
3608.00,0.0175
3607.00,0.0175
3606.00,0.0174
3605.00,0.0173
3604.00,0.0174
3603.00,0.0174
3602.00,0.0176
3601.00,0.0177
3600.00,0.0178
3599.00,0.0178
3598.00,0.0177
3597.00,0.0177
3596.00,0.0176
3595.00,0.0176
3594.00,0.0176
3593.00,0.0176
3592.00,0.0175
3591.00,0.0175
3590.00,0.0176
3589.00,0.0178
3588.00,0.0180
3587.00,0.0182
3586.00,0.0183
3585.00,0.0183
3584.00,0.0183
3583.00,0.0183
3582.00,0.0183
3581.00,0.0182
3580.00,0.0183
3579.00,0.0183
3578.00,0.0184
3577.00,0.0184
3576.00,0.0184
3575.00,0.0185
3574.00,0.0185
3573.00,0.0186
3572.00,0.0186
3571.00,0.0186
3570.00,0.0185
3569.00,0.0186
3568.00,0.0188
3567.00,0.0191
3566.00,0.0192
3565.00,0.0192
3564.00,0.0191
3563.00,0.0191
3562.00,0.0191
3561.00,0.0192
3560.00,0.0192
3559.00,0.0193
3558.00,0.0194
3557.00,0.0195
3556.00,0.0196
3555.00,0.0197
3554.00,0.0197
3553.00,0.0197
3552.00,0.0198
3551.00,0.0199
3550.00,0.0199
3549.00,0.0200
3548.00,0.0201
3547.00,0.0202
3546.00,0.0202
3545.00,0.0203
3544.00,0.0203
3543.00,0.0204
3542.00,0.0204
3541.00,0.0204
3540.00,0.0204
3539.00,0.0203
3538.00,0.0202
3537.00,0.0202
3536.00,0.0202
3535.00,0.0204
3534.00,0.0205
3533.00,0.0207
3532.00,0.0208
3531.00,0.0208
3530.00,0.0207
3529.00,0.0207
3528.00,0.0206
3527.00,0.0206
3526.00,0.0207
3525.00,0.0209
3524.00,0.0210
3523.00,0.0212
3522.00,0.0212
3521.00,0.0211
3520.00,0.0210
3519.00,0.0209
3518.00,0.0208
3517.00,0.0208
3516.00,0.0209
3515.00,0.0210
3514.00,0.0211
3513.00,0.0212
3512.00,0.0214
3511.00,0.0214
3510.00,0.0215
3509.00,0.0215
3508.00,0.0215
3507.00,0.0215
3506.00,0.0215
3505.00,0.0216
3504.00,0.0217
3503.00,0.0218
3502.00,0.0219
3501.00,0.0219
3500.00,0.0219
3499.00,0.0220
3498.00,0.0220
3497.00,0.0221
3496.00,0.0222
3495.00,0.0221
3494.00,0.0221
3493.00,0.0221
3492.00,0.0221
3491.00,0.0221
3490.00,0.0222
3489.00,0.0222
3488.00,0.0222
3487.00,0.0223
3486.00,0.0223
3485.00,0.0223
3484.00,0.0224
3483.00,0.0224
3482.00,0.0225
3481.00,0.0225
3480.00,0.0226
3479.00,0.0226
3478.00,0.0226
3477.00,0.0226
3476.00,0.0227
3475.00,0.0228
3474.00,0.0228
3473.00,0.0229
3472.00,0.0230
3471.00,0.0231
3470.00,0.0231
3469.00,0.0232
3468.00,0.0232
3467.00,0.0232
3466.00,0.0233
3465.00,0.0233
3464.00,0.0234
3463.00,0.0233
3462.00,0.0232
3461.00,0.0232
3460.00,0.0232
3459.00,0.0234
3458.00,0.0235
3457.00,0.0235
3456.00,0.0235
3455.00,0.0234
3454.00,0.0234
3453.00,0.0235
3452.00,0.0235
3451.00,0.0236
3450.00,0.0237
3449.00,0.0237
3448.00,0.0237
3447.00,0.0238
3446.00,0.0239
3445.00,0.0239
3444.00,0.0240
3443.00,0.0240
3442.00,0.0239
3441.00,0.0238
3440.00,0.0238
3439.00,0.0238
3438.00,0.0238
3437.00,0.0239
3436.00,0.0239
3435.00,0.0239
3434.00,0.0239
3433.00,0.0240
3432.00,0.0241
3431.00,0.0241
3430.00,0.0242
3429.00,0.0241
3428.00,0.0241
3427.00,0.0241
3426.00,0.0242
3425.00,0.0243
3424.00,0.0244
3423.00,0.0245
3422.00,0.0246
3421.00,0.0246
3420.00,0.0246
3419.00,0.0246
3418.00,0.0246
3417.00,0.0246
3416.00,0.0245
3415.00,0.0244
3414.00,0.0244
3413.00,0.0244
3412.00,0.0245
3411.00,0.0247
3410.00,0.0248
3409.00,0.0249
3408.00,0.0249
3407.00,0.0249
3406.00,0.0249
3405.00,0.0248
3404.00,0.0248
3403.00,0.0248
3402.00,0.0248
3401.00,0.0248
3400.00,0.0249
3399.00,0.0250
3398.00,0.0250
3397.00,0.0250
3396.00,0.0250
3395.00,0.0249
3394.00,0.0249
3393.00,0.0250
3392.00,0.0251
3391.00,0.0251
3390.00,0.0252
3389.00,0.0252
3388.00,0.0252
3387.00,0.0251
3386.00,0.0251
3385.00,0.0251
3384.00,0.0252
3383.00,0.0252
3382.00,0.0253
3381.00,0.0253
3380.00,0.0253
3379.00,0.0254
3378.00,0.0254
3377.00,0.0254
3376.00,0.0254
3375.00,0.0254
3374.00,0.0253
3373.00,0.0253
3372.00,0.0253
3371.00,0.0253
3370.00,0.0253
3369.00,0.0253
3368.00,0.0253
3367.00,0.0254
3366.00,0.0253
3365.00,0.0253
3364.00,0.0253
3363.00,0.0254
3362.00,0.0255
3361.00,0.0256
3360.00,0.0257
3359.00,0.0257
3358.00,0.0257
3357.00,0.0256
3356.00,0.0256
3355.00,0.0256
3354.00,0.0257
3353.00,0.0257
3352.00,0.0257
3351.00,0.0258
3350.00,0.0258
3349.00,0.0258
3348.00,0.0258
3347.00,0.0258
3346.00,0.0257
3345.00,0.0256
3344.00,0.0256
3343.00,0.0256
3342.00,0.0256
3341.00,0.0256
3340.00,0.0257
3339.00,0.0258
3338.00,0.0258
3337.00,0.0258
3336.00,0.0258
3335.00,0.0257
3334.00,0.0257
3333.00,0.0257
3332.00,0.0257
3331.00,0.0256
3330.00,0.0256
3329.00,0.0255
3328.00,0.0255
3327.00,0.0256
3326.00,0.0257
3325.00,0.0257
3324.00,0.0258
3323.00,0.0258
3322.00,0.0258
3321.00,0.0257
3320.00,0.0257
3319.00,0.0257
3318.00,0.0257
3317.00,0.0257
3316.00,0.0257
3315.00,0.0257
3314.00,0.0257
3313.00,0.0257
3312.00,0.0256
3311.00,0.0256
3310.00,0.0256
3309.00,0.0257
3308.00,0.0257
3307.00,0.0258
3306.00,0.0258
3305.00,0.0257
3304.00,0.0257
3303.00,0.0257
3302.00,0.0257
3301.00,0.0257
3300.00,0.0257
3299.00,0.0257
3298.00,0.0257
3297.00,0.0257
3296.00,0.0258
3295.00,0.0259
3294.00,0.0259
3293.00,0.0258
3292.00,0.0257
3291.00,0.0256
3290.00,0.0256
3289.00,0.0256
3288.00,0.0257
3287.00,0.0257
3286.00,0.0258
3285.00,0.0258
3284.00,0.0259
3283.00,0.0258
3282.00,0.0258
3281.00,0.0257
3280.00,0.0257
3279.00,0.0257
3278.00,0.0257
3277.00,0.0257
3276.00,0.0257
3275.00,0.0258
3274.00,0.0258
3273.00,0.0258
3272.00,0.0258
3271.00,0.0259
3270.00,0.0259
3269.00,0.0260
3268.00,0.0260
3267.00,0.0260
3266.00,0.0259
3265.00,0.0258
3264.00,0.0257
3263.00,0.0256
3262.00,0.0257
3261.00,0.0257
3260.00,0.0258
3259.00,0.0258
3258.00,0.0258
3257.00,0.0258
3256.00,0.0257
3255.00,0.0257
3254.00,0.0257
3253.00,0.0257
3252.00,0.0257
3251.00,0.0258
3250.00,0.0257
3249.00,0.0257
3248.00,0.0257
3247.00,0.0257
3246.00,0.0257
3245.00,0.0257
3244.00,0.0256
3243.00,0.0256
3242.00,0.0256
3241.00,0.0256
3240.00,0.0256
3239.00,0.0257
3238.00,0.0257
3237.00,0.0257
3236.00,0.0258
3235.00,0.0258
3234.00,0.0259
3233.00,0.0259
3232.00,0.0259
3231.00,0.0258
3230.00,0.0257
3229.00,0.0256
3228.00,0.0256
3227.00,0.0256
3226.00,0.0256
3225.00,0.0256
3224.00,0.0256
3223.00,0.0256
3222.00,0.0256
3221.00,0.0255
3220.00,0.0255
3219.00,0.0255
3218.00,0.0255
3217.00,0.0255
3216.00,0.0256
3215.00,0.0257
3214.00,0.0257
3213.00,0.0256
3212.00,0.0255
3211.00,0.0254
3210.00,0.0253
3209.00,0.0253
3208.00,0.0253
3207.00,0.0254
3206.00,0.0254
3205.00,0.0255
3204.00,0.0255
3203.00,0.0255
3202.00,0.0255
3201.00,0.0255
3200.00,0.0255
3199.00,0.0255
3198.00,0.0255
3197.00,0.0254
3196.00,0.0254
3195.00,0.0254
3194.00,0.0254
3193.00,0.0253
3192.00,0.0253
3191.00,0.0252
3190.00,0.0251
3189.00,0.0251
3188.00,0.0250
3187.00,0.0250
3186.00,0.0250
3185.00,0.0250
3184.00,0.0251
3183.00,0.0252
3182.00,0.0252
3181.00,0.0252
3180.00,0.0251
3179.00,0.0250
3178.00,0.0249
3177.00,0.0249
3176.00,0.0248
3175.00,0.0248
3174.00,0.0248
3173.00,0.0249
3172.00,0.0248
3171.00,0.0248
3170.00,0.0248
3169.00,0.0248
3168.00,0.0248
3167.00,0.0247
3166.00,0.0248
3165.00,0.0248
3164.00,0.0249
3163.00,0.0249
3162.00,0.0248
3161.00,0.0248
3160.00,0.0246
3159.00,0.0245
3158.00,0.0244
3157.00,0.0243
3156.00,0.0243
3155.00,0.0244
3154.00,0.0245
3153.00,0.0245
3152.00,0.0246
3151.00,0.0245
3150.00,0.0245
3149.00,0.0245
3148.00,0.0245
3147.00,0.0244
3146.00,0.0244
3145.00,0.0244
3144.00,0.0243
3143.00,0.0243
3142.00,0.0243
3141.00,0.0242
3140.00,0.0242
3139.00,0.0242
3138.00,0.0242
3137.00,0.0242
3136.00,0.0242
3135.00,0.0242
3134.00,0.0241
3133.00,0.0241
3132.00,0.0240
3131.00,0.0240
3130.00,0.0240
3129.00,0.0240
3128.00,0.0240
3127.00,0.0240
3126.00,0.0240
3125.00,0.0240
3124.00,0.0240
3123.00,0.0240
3122.00,0.0239
3121.00,0.0238
3120.00,0.0238
3119.00,0.0238
3118.00,0.0239
3117.00,0.0239
3116.00,0.0239
3115.00,0.0239
3114.00,0.0238
3113.00,0.0238
3112.00,0.0238
3111.00,0.0238
3110.00,0.0237
3109.00,0.0237
3108.00,0.0237
3107.00,0.0237
3106.00,0.0237
3105.00,0.0237
3104.00,0.0237
3103.00,0.0236
3102.00,0.0236
3101.00,0.0235
3100.00,0.0235
3099.00,0.0235
3098.00,0.0235
3097.00,0.0235
3096.00,0.0235
3095.00,0.0236
3094.00,0.0236
3093.00,0.0236
3092.00,0.0236
3091.00,0.0235
3090.00,0.0234
3089.00,0.0233
3088.00,0.0232
3087.00,0.0232
3086.00,0.0233
3085.00,0.0233
3084.00,0.0234
3083.00,0.0234
3082.00,0.0233
3081.00,0.0233
3080.00,0.0233
3079.00,0.0233
3078.00,0.0233
3077.00,0.0232
3076.00,0.0232
3075.00,0.0232
3074.00,0.0232
3073.00,0.0232
3072.00,0.0232
3071.00,0.0232
3070.00,0.0232
3069.00,0.0232
3068.00,0.0232
3067.00,0.0232
3066.00,0.0232
3065.00,0.0231
3064.00,0.0230
3063.00,0.0229
3062.00,0.0229
3061.00,0.0229
3060.00,0.0229
3059.00,0.0229
3058.00,0.0229
3057.00,0.0229
3056.00,0.0229
3055.00,0.0229
3054.00,0.0229
3053.00,0.0228
3052.00,0.0228
3051.00,0.0228
3050.00,0.0229
3049.00,0.0229
3048.00,0.0229
3047.00,0.0229
3046.00,0.0228
3045.00,0.0228
3044.00,0.0227
3043.00,0.0226
3042.00,0.0225
3041.00,0.0225
3040.00,0.0224
3039.00,0.0224
3038.00,0.0224
3037.00,0.0224
3036.00,0.0225
3035.00,0.0225
3034.00,0.0225
3033.00,0.0225
3032.00,0.0225
3031.00,0.0224
3030.00,0.0223
3029.00,0.0223
3028.00,0.0222
3027.00,0.0222
3026.00,0.0222
3025.00,0.0222
3024.00,0.0221
3023.00,0.0221
3022.00,0.0221
3021.00,0.0221
3020.00,0.0221
3019.00,0.0220
3018.00,0.0219
3017.00,0.0219
3016.00,0.0219
3015.00,0.0219
3014.00,0.0218
3013.00,0.0217
3012.00,0.0216
3011.00,0.0215
3010.00,0.0215
3009.00,0.0214
3008.00,0.0212
3007.00,0.0211
3006.00,0.0210
3005.00,0.0209
3004.00,0.0208
3003.00,0.0206
3002.00,0.0205
3001.00,0.0203
3000.00,0.0202
2999.00,0.0201
2998.00,0.0200
2997.00,0.0199
2996.00,0.0198
2995.00,0.0197
2994.00,0.0196
2993.00,0.0196
2992.00,0.0195
2991.00,0.0193
2990.00,0.0193
2989.00,0.0192
2988.00,0.0191
2987.00,0.0189
2986.00,0.0187
2985.00,0.0184
2984.00,0.0180
2983.00,0.0177
2982.00,0.0176
2981.00,0.0176
2980.00,0.0178
2979.00,0.0180
2978.00,0.0182
2977.00,0.0184
2976.00,0.0186
2975.00,0.0187
2974.00,0.0186
2973.00,0.0186
2972.00,0.0185
2971.00,0.0186
2970.00,0.0187
2969.00,0.0189
2968.00,0.0191
2967.00,0.0193
2966.00,0.0194
2965.00,0.0195
2964.00,0.0196
2963.00,0.0198
2962.00,0.0199
2961.00,0.0200
2960.00,0.0201
2959.00,0.0201
2958.00,0.0201
2957.00,0.0202
2956.00,0.0204
2955.00,0.0205
2954.00,0.0206
2953.00,0.0207
2952.00,0.0207
2951.00,0.0208
2950.00,0.0208
2949.00,0.0209
2948.00,0.0210
2947.00,0.0210
2946.00,0.0211
2945.00,0.0212
2944.00,0.0213
2943.00,0.0215
2942.00,0.0216
2941.00,0.0217
2940.00,0.0218
2939.00,0.0219
2938.00,0.0219
2937.00,0.0220
2936.00,0.0222
2935.00,0.0223
2934.00,0.0225
2933.00,0.0226
2932.00,0.0227
2931.00,0.0228
2930.00,0.0230
2929.00,0.0231
2928.00,0.0232
2927.00,0.0233
2926.00,0.0233
2925.00,0.0232
2924.00,0.0232
2923.00,0.0231
2922.00,0.0230
2921.00,0.0229
2920.00,0.0226
2919.00,0.0224
2918.00,0.0221
2917.00,0.0219
2916.00,0.0218
2915.00,0.0217
2914.00,0.0216
2913.00,0.0215
2912.00,0.0215
2911.00,0.0214
2910.00,0.0214
2909.00,0.0213
2908.00,0.0212
2907.00,0.0211
2906.00,0.0210
2905.00,0.0209
2904.00,0.0208
2903.00,0.0207
2902.00,0.0206
2901.00,0.0206
2900.00,0.0205
2899.00,0.0205
2898.00,0.0204
2897.00,0.0203
2896.00,0.0203
2895.00,0.0202
2894.00,0.0202
2893.00,0.0201
2892.00,0.0201
2891.00,0.0201
2890.00,0.0200
2889.00,0.0200
2888.00,0.0199
2887.00,0.0199
2886.00,0.0199
2885.00,0.0198
2884.00,0.0197
2883.00,0.0197
2882.00,0.0197
2881.00,0.0198
2880.00,0.0198
2879.00,0.0199
2878.00,0.0200
2877.00,0.0200
2876.00,0.0200
2875.00,0.0200
2874.00,0.0200
2873.00,0.0200
2872.00,0.0200
2871.00,0.0200
2870.00,0.0200
2869.00,0.0200
2868.00,0.0200
2867.00,0.0201
2866.00,0.0201
2865.00,0.0202
2864.00,0.0203
2863.00,0.0204
2862.00,0.0205
2861.00,0.0207
2860.00,0.0208
2859.00,0.0210
2858.00,0.0212
2857.00,0.0213
2856.00,0.0214
2855.00,0.0214
2854.00,0.0214
2853.00,0.0213
2852.00,0.0212
2851.00,0.0211
2850.00,0.0210
2849.00,0.0209
2848.00,0.0207
2847.00,0.0205
2846.00,0.0204
2845.00,0.0203
2844.00,0.0202
2843.00,0.0201
2842.00,0.0200
2841.00,0.0199
2840.00,0.0198
2839.00,0.0196
2838.00,0.0195
2837.00,0.0195
2836.00,0.0196
2835.00,0.0196
2834.00,0.0197
2833.00,0.0196
2832.00,0.0195
2831.00,0.0194
2830.00,0.0193
2829.00,0.0193
2828.00,0.0194
2827.00,0.0193
2826.00,0.0193
2825.00,0.0193
2824.00,0.0193
2823.00,0.0193
2822.00,0.0193
2821.00,0.0192
2820.00,0.0191
2819.00,0.0190
2818.00,0.0190
2817.00,0.0190
2816.00,0.0190
2815.00,0.0190
2814.00,0.0189
2813.00,0.0189
2812.00,0.0189
2811.00,0.0189
2810.00,0.0189
2809.00,0.0189
2808.00,0.0189
2807.00,0.0189
2806.00,0.0189
2805.00,0.0189
2804.00,0.0189
2803.00,0.0189
2802.00,0.0188
2801.00,0.0188
2800.00,0.0188
2799.00,0.0188
2798.00,0.0188
2797.00,0.0188
2796.00,0.0188
2795.00,0.0188
2794.00,0.0187
2793.00,0.0187
2792.00,0.0187
2791.00,0.0187
2790.00,0.0188
2789.00,0.0188
2788.00,0.0187
2787.00,0.0187
2786.00,0.0187
2785.00,0.0186
2784.00,0.0186
2783.00,0.0186
2782.00,0.0185
2781.00,0.0184
2780.00,0.0184
2779.00,0.0184
2778.00,0.0184
2777.00,0.0185
2776.00,0.0185
2775.00,0.0185
2774.00,0.0185
2773.00,0.0185
2772.00,0.0184
2771.00,0.0184
2770.00,0.0183
2769.00,0.0182
2768.00,0.0182
2767.00,0.0182
2766.00,0.0182
2765.00,0.0182
2764.00,0.0183
2763.00,0.0183
2762.00,0.0183
2761.00,0.0183
2760.00,0.0182
2759.00,0.0182
2758.00,0.0182
2757.00,0.0182
2756.00,0.0181
2755.00,0.0181
2754.00,0.0181
2753.00,0.0181
2752.00,0.0181
2751.00,0.0181
2750.00,0.0182
2749.00,0.0182
2748.00,0.0182
2747.00,0.0182
2746.00,0.0181
2745.00,0.0181
2744.00,0.0181
2743.00,0.0181
2742.00,0.0181
2741.00,0.0181
2740.00,0.0181
2739.00,0.0180
2738.00,0.0180
2737.00,0.0179
2736.00,0.0179
2735.00,0.0179
2734.00,0.0180
2733.00,0.0180
2732.00,0.0180
2731.00,0.0180
2730.00,0.0179
2729.00,0.0179
2728.00,0.0179
2727.00,0.0179
2726.00,0.0179
2725.00,0.0179
2724.00,0.0179
2723.00,0.0179
2722.00,0.0179
2721.00,0.0178
2720.00,0.0178
2719.00,0.0178
2718.00,0.0178
2717.00,0.0178
2716.00,0.0178
2715.00,0.0178
2714.00,0.0178
2713.00,0.0178
2712.00,0.0178
2711.00,0.0178
2710.00,0.0178
2709.00,0.0178
2708.00,0.0177
2707.00,0.0177
2706.00,0.0177
2705.00,0.0176
2704.00,0.0176
2703.00,0.0176
2702.00,0.0176
2701.00,0.0176
2700.00,0.0176
2699.00,0.0176
2698.00,0.0176
2697.00,0.0176
2696.00,0.0176
2695.00,0.0176
2694.00,0.0176
2693.00,0.0176
2692.00,0.0176
2691.00,0.0176
2690.00,0.0176
2689.00,0.0175
2688.00,0.0175
2687.00,0.0176
2686.00,0.0176
2685.00,0.0176
2684.00,0.0176
2683.00,0.0176
2682.00,0.0176
2681.00,0.0175
2680.00,0.0175
2679.00,0.0174
2678.00,0.0174
2677.00,0.0173
2676.00,0.0173
2675.00,0.0173
2674.00,0.0174
2673.00,0.0174
2672.00,0.0174
2671.00,0.0174
2670.00,0.0173
2669.00,0.0173
2668.00,0.0173
2667.00,0.0173
2666.00,0.0173
2665.00,0.0173
2664.00,0.0173
2663.00,0.0174
2662.00,0.0174
2661.00,0.0174
2660.00,0.0174
2659.00,0.0175
2658.00,0.0175
2657.00,0.0175
2656.00,0.0175
2655.00,0.0175
2654.00,0.0175
2653.00,0.0175
2652.00,0.0175
2651.00,0.0175
2650.00,0.0175
2649.00,0.0175
2648.00,0.0175
2647.00,0.0174
2646.00,0.0174
2645.00,0.0174
2644.00,0.0174
2643.00,0.0175
2642.00,0.0175
2641.00,0.0175
2640.00,0.0175
2639.00,0.0175
2638.00,0.0175
2637.00,0.0175
2636.00,0.0175
2635.00,0.0175
2634.00,0.0175
2633.00,0.0175
2632.00,0.0175
2631.00,0.0175
2630.00,0.0174
2629.00,0.0173
2628.00,0.0173
2627.00,0.0172
2626.00,0.0173
2625.00,0.0174
2624.00,0.0174
2623.00,0.0175
2622.00,0.0175
2621.00,0.0176
2620.00,0.0176
2619.00,0.0175
2618.00,0.0175
2617.00,0.0174
2616.00,0.0174
2615.00,0.0174
2614.00,0.0174
2613.00,0.0174
2612.00,0.0175
2611.00,0.0176
2610.00,0.0175
2609.00,0.0175
2608.00,0.0174
2607.00,0.0174
2606.00,0.0174
2605.00,0.0175
2604.00,0.0175
2603.00,0.0175
2602.00,0.0175
2601.00,0.0175
2600.00,0.0175
2599.00,0.0174
2598.00,0.0174
2597.00,0.0173
2596.00,0.0173
2595.00,0.0173
2594.00,0.0173
2593.00,0.0174
2592.00,0.0174
2591.00,0.0175
2590.00,0.0175
2589.00,0.0175
2588.00,0.0175
2587.00,0.0174
2586.00,0.0173
2585.00,0.0173
2584.00,0.0172
2583.00,0.0173
2582.00,0.0173
2581.00,0.0174
2580.00,0.0174
2579.00,0.0174
2578.00,0.0174
2577.00,0.0174
2576.00,0.0173
2575.00,0.0172
2574.00,0.0172
2573.00,0.0173
2572.00,0.0173
2571.00,0.0173
2570.00,0.0172
2569.00,0.0172
2568.00,0.0172
2567.00,0.0173
2566.00,0.0174
2565.00,0.0175
2564.00,0.0174
2563.00,0.0174
2562.00,0.0174
2561.00,0.0174
2560.00,0.0174
2559.00,0.0173
2558.00,0.0173
2557.00,0.0174
2556.00,0.0174
2555.00,0.0174
2554.00,0.0174
2553.00,0.0173
2552.00,0.0172
2551.00,0.0171
2550.00,0.0170
2549.00,0.0169
2548.00,0.0168
2547.00,0.0168
2546.00,0.0169
2545.00,0.0170
2544.00,0.0170
2543.00,0.0170
2542.00,0.0170
2541.00,0.0169
2540.00,0.0168
2539.00,0.0167
2538.00,0.0167
2537.00,0.0167
2536.00,0.0167
2535.00,0.0168
2534.00,0.0169
2533.00,0.0170
2532.00,0.0170
2531.00,0.0169
2530.00,0.0168
2529.00,0.0168
2528.00,0.0167
2527.00,0.0167
2526.00,0.0167
2525.00,0.0167
2524.00,0.0167
2523.00,0.0167
2522.00,0.0167
2521.00,0.0167
2520.00,0.0168
2519.00,0.0169
2518.00,0.0170
2517.00,0.0171
2516.00,0.0171
2515.00,0.0171
2514.00,0.0170
2513.00,0.0168
2512.00,0.0168
2511.00,0.0168
2510.00,0.0169
2509.00,0.0169
2508.00,0.0170
2507.00,0.0169
2506.00,0.0169
2505.00,0.0168
2504.00,0.0168
2503.00,0.0168
2502.00,0.0168
2501.00,0.0169
2500.00,0.0169
2499.00,0.0169
2498.00,0.0169
2497.00,0.0169
2496.00,0.0169
2495.00,0.0170
2494.00,0.0170
2493.00,0.0170
2492.00,0.0170
2491.00,0.0170
2490.00,0.0169
2489.00,0.0169
2488.00,0.0169
2487.00,0.0169
2486.00,0.0169
2485.00,0.0168
2484.00,0.0167
2483.00,0.0167
2482.00,0.0167
2481.00,0.0168
2480.00,0.0169
2479.00,0.0169
2478.00,0.0169
2477.00,0.0168
2476.00,0.0167
2475.00,0.0167
2474.00,0.0167
2473.00,0.0168
2472.00,0.0168
2471.00,0.0168
2470.00,0.0168
2469.00,0.0167
2468.00,0.0166
2467.00,0.0166
2466.00,0.0166
2465.00,0.0166
2464.00,0.0166
2463.00,0.0166
2462.00,0.0166
2461.00,0.0165
2460.00,0.0166
2459.00,0.0166
2458.00,0.0167
2457.00,0.0167
2456.00,0.0167
2455.00,0.0167
2454.00,0.0168
2453.00,0.0169
2452.00,0.0169
2451.00,0.0169
2450.00,0.0168
2449.00,0.0167
2448.00,0.0167
2447.00,0.0166
2446.00,0.0166
2445.00,0.0165
2444.00,0.0165
2443.00,0.0165
2442.00,0.0165
2441.00,0.0165
2440.00,0.0165
2439.00,0.0166
2438.00,0.0165
2437.00,0.0165
2436.00,0.0165
2435.00,0.0164
2434.00,0.0164
2433.00,0.0164
2432.00,0.0164
2431.00,0.0164
2430.00,0.0165
2429.00,0.0165
2428.00,0.0164
2427.00,0.0164
2426.00,0.0164
2425.00,0.0164
2424.00,0.0164
2423.00,0.0165
2422.00,0.0165
2421.00,0.0165
2420.00,0.0164
2419.00,0.0164
2418.00,0.0163
2417.00,0.0163
2416.00,0.0163
2415.00,0.0162
2414.00,0.0162
2413.00,0.0162
2412.00,0.0163
2411.00,0.0163
2410.00,0.0163
2409.00,0.0162
2408.00,0.0162
2407.00,0.0162
2406.00,0.0162
2405.00,0.0162
2404.00,0.0162
2403.00,0.0162
2402.00,0.0161
2401.00,0.0161
2400.00,0.0161
2399.00,0.0161
2398.00,0.0161
2397.00,0.0160
2396.00,0.0160
2395.00,0.0159
2394.00,0.0159
2393.00,0.0159
2392.00,0.0159
2391.00,0.0159
2390.00,0.0159
2389.00,0.0159
2388.00,0.0159
2387.00,0.0159
2386.00,0.0158
2385.00,0.0158
2384.00,0.0157
2383.00,0.0156
2382.00,0.0156
2381.00,0.0156
2380.00,0.0157
2379.00,0.0158
2378.00,0.0157
2377.00,0.0157
2376.00,0.0155
2375.00,0.0155
2374.00,0.0154
2373.00,0.0155
2372.00,0.0156
2371.00,0.0156
2370.00,0.0154
2369.00,0.0152
2368.00,0.0151
2367.00,0.0152
2366.00,0.0155
2365.00,0.0158
2364.00,0.0159
2363.00,0.0157
2362.00,0.0154
2361.00,0.0154
2360.00,0.0154
2359.00,0.0155
2358.00,0.0156
2357.00,0.0156
2356.00,0.0156
2355.00,0.0155
2354.00,0.0155
2353.00,0.0156
2352.00,0.0156
2351.00,0.0155
2350.00,0.0153
2349.00,0.0152
2348.00,0.0151
2347.00,0.0150
2346.00,0.0150
2345.00,0.0151
2344.00,0.0154
2343.00,0.0156
2342.00,0.0158
2341.00,0.0159
2340.00,0.0158
2339.00,0.0157
2338.00,0.0154
2337.00,0.0152
2336.00,0.0152
2335.00,0.0153
2334.00,0.0154
2333.00,0.0156
2332.00,0.0157
2331.00,0.0157
2330.00,0.0156
2329.00,0.0156
2328.00,0.0156
2327.00,0.0158
2326.00,0.0160
2325.00,0.0161
2324.00,0.0160
2323.00,0.0159
2322.00,0.0158
2321.00,0.0158
2320.00,0.0158
2319.00,0.0158
2318.00,0.0157
2317.00,0.0157
2316.00,0.0157
2315.00,0.0157
2314.00,0.0157
2313.00,0.0157
2312.00,0.0157
2311.00,0.0158
2310.00,0.0159
2309.00,0.0161
2308.00,0.0162
2307.00,0.0161
2306.00,0.0160
2305.00,0.0159
2304.00,0.0158
2303.00,0.0156
2302.00,0.0155
2301.00,0.0156
2300.00,0.0156
2299.00,0.0157
2298.00,0.0157
2297.00,0.0157
2296.00,0.0157
2295.00,0.0157
2294.00,0.0158
2293.00,0.0160
2292.00,0.0162
2291.00,0.0163
2290.00,0.0163
2289.00,0.0163
2288.00,0.0162
2287.00,0.0163
2286.00,0.0163
2285.00,0.0164
2284.00,0.0164
2283.00,0.0165
2282.00,0.0165
2281.00,0.0165
2280.00,0.0164
2279.00,0.0164
2278.00,0.0165
2277.00,0.0165
2276.00,0.0164
2275.00,0.0163
2274.00,0.0161
2273.00,0.0160
2272.00,0.0159
2271.00,0.0159
2270.00,0.0159
2269.00,0.0159
2268.00,0.0160
2267.00,0.0160
2266.00,0.0160
2265.00,0.0161
2264.00,0.0161
2263.00,0.0161
2262.00,0.0161
2261.00,0.0161
2260.00,0.0162
2259.00,0.0162
2258.00,0.0160
2257.00,0.0158
2256.00,0.0155
2255.00,0.0155
2254.00,0.0156
2253.00,0.0156
2252.00,0.0157
2251.00,0.0157
2250.00,0.0158
2249.00,0.0158
2248.00,0.0158
2247.00,0.0159
2246.00,0.0161
2245.00,0.0162
2244.00,0.0163
2243.00,0.0162
2242.00,0.0161
2241.00,0.0160
2240.00,0.0159
2239.00,0.0158
2238.00,0.0159
2237.00,0.0159
2236.00,0.0159
2235.00,0.0160
2234.00,0.0160
2233.00,0.0161
2232.00,0.0160
2231.00,0.0158
2230.00,0.0157
2229.00,0.0156
2228.00,0.0156
2227.00,0.0157
2226.00,0.0158
2225.00,0.0159
2224.00,0.0159
2223.00,0.0158
2222.00,0.0158
2221.00,0.0158
2220.00,0.0157
2219.00,0.0157
2218.00,0.0156
2217.00,0.0157
2216.00,0.0158
2215.00,0.0161
2214.00,0.0162
2213.00,0.0163
2212.00,0.0162
2211.00,0.0161
2210.00,0.0160
2209.00,0.0161
2208.00,0.0161
2207.00,0.0162
2206.00,0.0161
2205.00,0.0160
2204.00,0.0158
2203.00,0.0157
2202.00,0.0157
2201.00,0.0157
2200.00,0.0157
2199.00,0.0156
2198.00,0.0156
2197.00,0.0156
2196.00,0.0156
2195.00,0.0155
2194.00,0.0155
2193.00,0.0155
2192.00,0.0154
2191.00,0.0152
2190.00,0.0150
2189.00,0.0148
2188.00,0.0149
2187.00,0.0153
2186.00,0.0157
2185.00,0.0159
2184.00,0.0158
2183.00,0.0155
2182.00,0.0153
2181.00,0.0153
2180.00,0.0155
2179.00,0.0157
2178.00,0.0159
2177.00,0.0159
2176.00,0.0158
2175.00,0.0156
2174.00,0.0154
2173.00,0.0153
2172.00,0.0153
2171.00,0.0154
2170.00,0.0157
2169.00,0.0160
2168.00,0.0161
2167.00,0.0161
2166.00,0.0162
2165.00,0.0164
2164.00,0.0167
2163.00,0.0169
2162.00,0.0169
2161.00,0.0165
2160.00,0.0158
2159.00,0.0150
2158.00,0.0144
2157.00,0.0141
2156.00,0.0140
2155.00,0.0141
2154.00,0.0144
2153.00,0.0148
2152.00,0.0151
2151.00,0.0150
2150.00,0.0147
2149.00,0.0144
2148.00,0.0144
2147.00,0.0147
2146.00,0.0150
2145.00,0.0152
2144.00,0.0153
2143.00,0.0153
2142.00,0.0153
2141.00,0.0154
2140.00,0.0154
2139.00,0.0153
2138.00,0.0151
2137.00,0.0148
2136.00,0.0146
2135.00,0.0144
2134.00,0.0144
2133.00,0.0145
2132.00,0.0145
2131.00,0.0146
2130.00,0.0147
2129.00,0.0149
2128.00,0.0151
2127.00,0.0152
2126.00,0.0152
2125.00,0.0151
2124.00,0.0150
2123.00,0.0149
2122.00,0.0149
2121.00,0.0149
2120.00,0.0148
2119.00,0.0148
2118.00,0.0147
2117.00,0.0147
2116.00,0.0146
2115.00,0.0145
2114.00,0.0144
2113.00,0.0144
2112.00,0.0146
2111.00,0.0148
2110.00,0.0150
2109.00,0.0152
2108.00,0.0153
2107.00,0.0154
2106.00,0.0154
2105.00,0.0153
2104.00,0.0152
2103.00,0.0151
2102.00,0.0150
2101.00,0.0149
2100.00,0.0148
2099.00,0.0146
2098.00,0.0144
2097.00,0.0143
2096.00,0.0144
2095.00,0.0145
2094.00,0.0146
2093.00,0.0147
2092.00,0.0147
2091.00,0.0146
2090.00,0.0146
2089.00,0.0145
2088.00,0.0145
2087.00,0.0145
2086.00,0.0146
2085.00,0.0148
2084.00,0.0149
2083.00,0.0149
2082.00,0.0149
2081.00,0.0148
2080.00,0.0148
2079.00,0.0147
2078.00,0.0147
2077.00,0.0147
2076.00,0.0147
2075.00,0.0147
2074.00,0.0148
2073.00,0.0149
2072.00,0.0149
2071.00,0.0150
2070.00,0.0150
2069.00,0.0148
2068.00,0.0145
2067.00,0.0143
2066.00,0.0143
2065.00,0.0144
2064.00,0.0146
2063.00,0.0147
2062.00,0.0149
2061.00,0.0149
2060.00,0.0148
2059.00,0.0148
2058.00,0.0148
2057.00,0.0148
2056.00,0.0147
2055.00,0.0147
2054.00,0.0148
2053.00,0.0149
2052.00,0.0151
2051.00,0.0151
2050.00,0.0149
2049.00,0.0146
2048.00,0.0144
2047.00,0.0145
2046.00,0.0147
2045.00,0.0150
2044.00,0.0154
2043.00,0.0156
2042.00,0.0156
2041.00,0.0153
2040.00,0.0148
2039.00,0.0145
2038.00,0.0145
2037.00,0.0147
2036.00,0.0150
2035.00,0.0151
2034.00,0.0150
2033.00,0.0149
2032.00,0.0149
2031.00,0.0150
2030.00,0.0150
2029.00,0.0148
2028.00,0.0146
2027.00,0.0145
2026.00,0.0143
2025.00,0.0140
2024.00,0.0138
2023.00,0.0137
2022.00,0.0136
2021.00,0.0136
2020.00,0.0135
2019.00,0.0134
2018.00,0.0132
2017.00,0.0132
2016.00,0.0133
2015.00,0.0136
2014.00,0.0139
2013.00,0.0140
2012.00,0.0141
2011.00,0.0141
2010.00,0.0141
2009.00,0.0141
2008.00,0.0140
2007.00,0.0139
2006.00,0.0137
2005.00,0.0136
2004.00,0.0137
2003.00,0.0140
2002.00,0.0144
2001.00,0.0147
2000.00,0.0147
1999.00,0.0144
1998.00,0.0141
1997.00,0.0141
1996.00,0.0143
1995.00,0.0146
1994.00,0.0149
1993.00,0.0150
1992.00,0.0149
1991.00,0.0146
1990.00,0.0143
1989.00,0.0140
1988.00,0.0139
1987.00,0.0138
1986.00,0.0139
1985.00,0.0141
1984.00,0.0143
1983.00,0.0145
1982.00,0.0145
1981.00,0.0145
1980.00,0.0142
1979.00,0.0138
1978.00,0.0134
1977.00,0.0130
1976.00,0.0129
1975.00,0.0131
1974.00,0.0134
1973.00,0.0136
1972.00,0.0135
1971.00,0.0132
1970.00,0.0131
1969.00,0.0132
1968.00,0.0134
1967.00,0.0133
1966.00,0.0131
1965.00,0.0130
1964.00,0.0131
1963.00,0.0132
1962.00,0.0132
1961.00,0.0132
1960.00,0.0133
1959.00,0.0134
1958.00,0.0135
1957.00,0.0134
1956.00,0.0133
1955.00,0.0131
1954.00,0.0131
1953.00,0.0132
1952.00,0.0133
1951.00,0.0132
1950.00,0.0131
1949.00,0.0130
1948.00,0.0129
1947.00,0.0129
1946.00,0.0130
1945.00,0.0129
1944.00,0.0126
1943.00,0.0124
1942.00,0.0122
1941.00,0.0121
1940.00,0.0120
1939.00,0.0120
1938.00,0.0120
1937.00,0.0121
1936.00,0.0121
1935.00,0.0121
1934.00,0.0120
1933.00,0.0120
1932.00,0.0121
1931.00,0.0122
1930.00,0.0124
1929.00,0.0125
1928.00,0.0126
1927.00,0.0127
1926.00,0.0127
1925.00,0.0127
1924.00,0.0126
1923.00,0.0125
1922.00,0.0124
1921.00,0.0123
1920.00,0.0123
1919.00,0.0121
1918.00,0.0119
1917.00,0.0119
1916.00,0.0120
1915.00,0.0121
1914.00,0.0122
1913.00,0.0123
1912.00,0.0123
1911.00,0.0122
1910.00,0.0120
1909.00,0.0118
1908.00,0.0117
1907.00,0.0116
1906.00,0.0117
1905.00,0.0118
1904.00,0.0119
1903.00,0.0119
1902.00,0.0118
1901.00,0.0117
1900.00,0.0117
1899.00,0.0117
1898.00,0.0118
1897.00,0.0118
1896.00,0.0116
1895.00,0.0114
1894.00,0.0113
1893.00,0.0114
1892.00,0.0115
1891.00,0.0115
1890.00,0.0115
1889.00,0.0114
1888.00,0.0113
1887.00,0.0113
1886.00,0.0113
1885.00,0.0113
1884.00,0.0113
1883.00,0.0113
1882.00,0.0113
1881.00,0.0112
1880.00,0.0112
1879.00,0.0112
1878.00,0.0111
1877.00,0.0110
1876.00,0.0109
1875.00,0.0109
1874.00,0.0111
1873.00,0.0112
1872.00,0.0114
1871.00,0.0114
1870.00,0.0114
1869.00,0.0112
1868.00,0.0110
1867.00,0.0108
1866.00,0.0107
1865.00,0.0107
1864.00,0.0107
1863.00,0.0106
1862.00,0.0105
1861.00,0.0104
1860.00,0.0104
1859.00,0.0103
1858.00,0.0103
1857.00,0.0104
1856.00,0.0104
1855.00,0.0104
1854.00,0.0104
1853.00,0.0103
1852.00,0.0102
1851.00,0.0103
1850.00,0.0103
1849.00,0.0103
1848.00,0.0102
1847.00,0.0102
1846.00,0.0102
1845.00,0.0102
1844.00,0.0099
1843.00,0.0098
1842.00,0.0098
1841.00,0.0099
1840.00,0.0099
1839.00,0.0099
1838.00,0.0098
1837.00,0.0097
1836.00,0.0097
1835.00,0.0097
1834.00,0.0097
1833.00,0.0098
1832.00,0.0099
1831.00,0.0099
1830.00,0.0098
1829.00,0.0095
1828.00,0.0095
1827.00,0.0095
1826.00,0.0095
1825.00,0.0094
1824.00,0.0092
1823.00,0.0091
1822.00,0.0092
1821.00,0.0092
1820.00,0.0091
1819.00,0.0090
1818.00,0.0089
1817.00,0.0088
1816.00,0.0087
1815.00,0.0087
1814.00,0.0088
1813.00,0.0088
1812.00,0.0088
1811.00,0.0087
1810.00,0.0086
1809.00,0.0086
1808.00,0.0086
1807.00,0.0086
1806.00,0.0087
1805.00,0.0087
1804.00,0.0088
1803.00,0.0088
1802.00,0.0087
1801.00,0.0086
1800.00,0.0084
1799.00,0.0083
1798.00,0.0084
1797.00,0.0085
1796.00,0.0086
1795.00,0.0086
1794.00,0.0085
1793.00,0.0085
1792.00,0.0083
1791.00,0.0082
1790.00,0.0081
1789.00,0.0082
1788.00,0.0083
1787.00,0.0084
1786.00,0.0085
1785.00,0.0085
1784.00,0.0085
1783.00,0.0085
1782.00,0.0085
1781.00,0.0084
1780.00,0.0084
1779.00,0.0084
1778.00,0.0085
1777.00,0.0087
1776.00,0.0088
1775.00,0.0089
1774.00,0.0089
1773.00,0.0088
1772.00,0.0086
1771.00,0.0085
1770.00,0.0086
1769.00,0.0088
1768.00,0.0089
1767.00,0.0089
1766.00,0.0090
1765.00,0.0092
1764.00,0.0094
1763.00,0.0094
1762.00,0.0094
1761.00,0.0093
1760.00,0.0094
1759.00,0.0095
1758.00,0.0096
1757.00,0.0096
1756.00,0.0097
1755.00,0.0100
1754.00,0.0103
1753.00,0.0105
1752.00,0.0106
1751.00,0.0106
1750.00,0.0106
1749.00,0.0107
1748.00,0.0108
1747.00,0.0109
1746.00,0.0111
1745.00,0.0112
1744.00,0.0113
1743.00,0.0114
1742.00,0.0114
1741.00,0.0115
1740.00,0.0115
1739.00,0.0115
1738.00,0.0117
1737.00,0.0119
1736.00,0.0121
1735.00,0.0123
1734.00,0.0122
1733.00,0.0120
1732.00,0.0121
1731.00,0.0122
1730.00,0.0124
1729.00,0.0125
1728.00,0.0126
1727.00,0.0128
1726.00,0.0130
1725.00,0.0132
1724.00,0.0134
1723.00,0.0136
1722.00,0.0137
1721.00,0.0139
1720.00,0.0140
1719.00,0.0140
1718.00,0.0141
1717.00,0.0142
1716.00,0.0144
1715.00,0.0145
1714.00,0.0148
1713.00,0.0150
1712.00,0.0151
1711.00,0.0153
1710.00,0.0154
1709.00,0.0155
1708.00,0.0156
1707.00,0.0156
1706.00,0.0155
1705.00,0.0155
1704.00,0.0156
1703.00,0.0157
1702.00,0.0158
1701.00,0.0159
1700.00,0.0158
1699.00,0.0157
1698.00,0.0158
1697.00,0.0159
1696.00,0.0158
1695.00,0.0157
1694.00,0.0159
1693.00,0.0161
1692.00,0.0163
1691.00,0.0164
1690.00,0.0165
1689.00,0.0166
1688.00,0.0166
1687.00,0.0166
1686.00,0.0165
1685.00,0.0165
1684.00,0.0164
1683.00,0.0163
1682.00,0.0165
1681.00,0.0166
1680.00,0.0167
1679.00,0.0169
1678.00,0.0171
1677.00,0.0174
1676.00,0.0176
1675.00,0.0178
1674.00,0.0178
1673.00,0.0178
1672.00,0.0179
1671.00,0.0179
1670.00,0.0179
1669.00,0.0180
1668.00,0.0181
1667.00,0.0182
1666.00,0.0183
1665.00,0.0184
1664.00,0.0184
1663.00,0.0185
1662.00,0.0186
1661.00,0.0187
1660.00,0.0189
1659.00,0.0191
1658.00,0.0193
1657.00,0.0193
1656.00,0.0192
1655.00,0.0190
1654.00,0.0189
1653.00,0.0190
1652.00,0.0190
1651.00,0.0194
1650.00,0.0197
1649.00,0.0198
1648.00,0.0199
1647.00,0.0200
1646.00,0.0202
1645.00,0.0204
1644.00,0.0206
1643.00,0.0207
1642.00,0.0207
1641.00,0.0207
1640.00,0.0208
1639.00,0.0208
1638.00,0.0208
1637.00,0.0208
1636.00,0.0211
1635.00,0.0212
1634.00,0.0213
1633.00,0.0214
1632.00,0.0214
1631.00,0.0214
1630.00,0.0215
1629.00,0.0215
1628.00,0.0216
1627.00,0.0217
1626.00,0.0219
1625.00,0.0221
1624.00,0.0222
1623.00,0.0223
1622.00,0.0224
1621.00,0.0224
1620.00,0.0225
1619.00,0.0225
1618.00,0.0225
1617.00,0.0225
1616.00,0.0226
1615.00,0.0227
1614.00,0.0229
1613.00,0.0230
1612.00,0.0231
1611.00,0.0232
1610.00,0.0233
1609.00,0.0233
1608.00,0.0234
1607.00,0.0235
1606.00,0.0236
1605.00,0.0237
1604.00,0.0238
1603.00,0.0238
1602.00,0.0237
1601.00,0.0237
1600.00,0.0237
1599.00,0.0238
1598.00,0.0239
1597.00,0.0241
1596.00,0.0242
1595.00,0.0243
1594.00,0.0244
1593.00,0.0244
1592.00,0.0244
1591.00,0.0245
1590.00,0.0245
1589.00,0.0246
1588.00,0.0247
1587.00,0.0248
1586.00,0.0249
1585.00,0.0250
1584.00,0.0250
1583.00,0.0250
1582.00,0.0251
1581.00,0.0251
1580.00,0.0251
1579.00,0.0252
1578.00,0.0252
1577.00,0.0253
1576.00,0.0254
1575.00,0.0254
1574.00,0.0254
1573.00,0.0254
1572.00,0.0254
1571.00,0.0254
1570.00,0.0255
1569.00,0.0255
1568.00,0.0255
1567.00,0.0256
1566.00,0.0256
1565.00,0.0255
1564.00,0.0254
1563.00,0.0253
1562.00,0.0252
1561.00,0.0248
1560.00,0.0249
1559.00,0.0256
1558.00,0.0256
1557.00,0.0256
1556.00,0.0256
1555.00,0.0256
1554.00,0.0257
1553.00,0.0257
1552.00,0.0257
1551.00,0.0256
1550.00,0.0255
1549.00,0.0254
1548.00,0.0253
1547.00,0.0252
1546.00,0.0251
1545.00,0.0251
1544.00,0.0249
1543.00,0.0247
1542.00,0.0245
1541.00,0.0243
1540.00,0.0241
1539.00,0.0239
1538.00,0.0239
1537.00,0.0241
1536.00,0.0241
1535.00,0.0241
1534.00,0.0240
1533.00,0.0240
1532.00,0.0239
1531.00,0.0239
1530.00,0.0239
1529.00,0.0238
1528.00,0.0238
1527.00,0.0237
1526.00,0.0235
1525.00,0.0234
1524.00,0.0232
1523.00,0.0231
1522.00,0.0230
1521.00,0.0230
1520.00,0.0230
1519.00,0.0230
1518.00,0.0229
1517.00,0.0227
1516.00,0.0226
1515.00,0.0226
1514.00,0.0226
1513.00,0.0225
1512.00,0.0224
1511.00,0.0223
1510.00,0.0222
1509.00,0.0220
1508.00,0.0219
1507.00,0.0218
1506.00,0.0215
1505.00,0.0215
1504.00,0.0216
1503.00,0.0216
1502.00,0.0215
1501.00,0.0214
1500.00,0.0214
1499.00,0.0214
1498.00,0.0215
1497.00,0.0215
1496.00,0.0214
1495.00,0.0213
1494.00,0.0212
1493.00,0.0211
1492.00,0.0210
1491.00,0.0210
1490.00,0.0210
1489.00,0.0209
1488.00,0.0209
1487.00,0.0208
1486.00,0.0207
1485.00,0.0207
1484.00,0.0206
1483.00,0.0206
1482.00,0.0206
1481.00,0.0205
1480.00,0.0205
1479.00,0.0205
1478.00,0.0204
1477.00,0.0205
1476.00,0.0205
1475.00,0.0205
1474.00,0.0205
1473.00,0.0206
1472.00,0.0207
1471.00,0.0208
1470.00,0.0211
1469.00,0.0213
1468.00,0.0214
1467.00,0.0214
1466.00,0.0214
1465.00,0.0213
1464.00,0.0212
1463.00,0.0211
1462.00,0.0210
1461.00,0.0210
1460.00,0.0209
1459.00,0.0209
1458.00,0.0211
1457.00,0.0213
1456.00,0.0213
1455.00,0.0213
1454.00,0.0213
1453.00,0.0213
1452.00,0.0213
1451.00,0.0214
1450.00,0.0215
1449.00,0.0216
1448.00,0.0218
1447.00,0.0219
1446.00,0.0219
1445.00,0.0220
1444.00,0.0219
1443.00,0.0219
1442.00,0.0218
1441.00,0.0219
1440.00,0.0219
1439.00,0.0221
1438.00,0.0222
1437.00,0.0224
1436.00,0.0225
1435.00,0.0225
1434.00,0.0224
1433.00,0.0224
1432.00,0.0224
1431.00,0.0224
1430.00,0.0223
1429.00,0.0223
1428.00,0.0223
1427.00,0.0224
1426.00,0.0224
1425.00,0.0225
1424.00,0.0226
1423.00,0.0226
1422.00,0.0226
1421.00,0.0227
1420.00,0.0228
1419.00,0.0229
1418.00,0.0231
1417.00,0.0232
1416.00,0.0232
1415.00,0.0232
1414.00,0.0231
1413.00,0.0230
1412.00,0.0230
1411.00,0.0230
1410.00,0.0230
1409.00,0.0230
1408.00,0.0230
1407.00,0.0230
1406.00,0.0229
1405.00,0.0228
1404.00,0.0228
1403.00,0.0227
1402.00,0.0227
1401.00,0.0226
1400.00,0.0225
1399.00,0.0225
1398.00,0.0225
1397.00,0.0226
1396.00,0.0227
1395.00,0.0227
1394.00,0.0227
1393.00,0.0227
1392.00,0.0227
1391.00,0.0228
1390.00,0.0228
1389.00,0.0229
1388.00,0.0230
1387.00,0.0230
1386.00,0.0230
1385.00,0.0230
1384.00,0.0229
1383.00,0.0230
1382.00,0.0230
1381.00,0.0232
1380.00,0.0233
1379.00,0.0233
1378.00,0.0234
1377.00,0.0235
1376.00,0.0236
1375.00,0.0237
1374.00,0.0237
1373.00,0.0238
1372.00,0.0239
1371.00,0.0239
1370.00,0.0240
1369.00,0.0240
1368.00,0.0240
1367.00,0.0240
1366.00,0.0240
1365.00,0.0239
1364.00,0.0239
1363.00,0.0239
1362.00,0.0240
1361.00,0.0241
1360.00,0.0242
1359.00,0.0242
1358.00,0.0243
1357.00,0.0243
1356.00,0.0244
1355.00,0.0245
1354.00,0.0245
1353.00,0.0245
1352.00,0.0244
1351.00,0.0244
1350.00,0.0243
1349.00,0.0243
1348.00,0.0242
1347.00,0.0242
1346.00,0.0242
1345.00,0.0242
1344.00,0.0241
1343.00,0.0241
1342.00,0.0241
1341.00,0.0242
1340.00,0.0243
1339.00,0.0244
1338.00,0.0244
1337.00,0.0243
1336.00,0.0243
1335.00,0.0242
1334.00,0.0242
1333.00,0.0242
1332.00,0.0241
1331.00,0.0241
1330.00,0.0241
1329.00,0.0241
1328.00,0.0241
1327.00,0.0241
1326.00,0.0240
1325.00,0.0240
1324.00,0.0241
1323.00,0.0241
1322.00,0.0242
1321.00,0.0243
1320.00,0.0243
1319.00,0.0243
1318.00,0.0242
1317.00,0.0241
1316.00,0.0240
1315.00,0.0239
1314.00,0.0239
1313.00,0.0240
1312.00,0.0241
1311.00,0.0242
1310.00,0.0242
1309.00,0.0242
1308.00,0.0242
1307.00,0.0241
1306.00,0.0241
1305.00,0.0241
1304.00,0.0241
1303.00,0.0242
1302.00,0.0242
1301.00,0.0242
1300.00,0.0242
1299.00,0.0242
1298.00,0.0241
1297.00,0.0240
1296.00,0.0240
1295.00,0.0240
1294.00,0.0240
1293.00,0.0241
1292.00,0.0242
1291.00,0.0243
1290.00,0.0243
1289.00,0.0243
1288.00,0.0243
1287.00,0.0243
1286.00,0.0242
1285.00,0.0243
1284.00,0.0244
1283.00,0.0245
1282.00,0.0245
1281.00,0.0245
1280.00,0.0245
1279.00,0.0244
1278.00,0.0243
1277.00,0.0243
1276.00,0.0243
1275.00,0.0243
1274.00,0.0244
1273.00,0.0244
1272.00,0.0244
1271.00,0.0244
1270.00,0.0245
1269.00,0.0246
1268.00,0.0246
1267.00,0.0247
1266.00,0.0248
1265.00,0.0249
1264.00,0.0249
1263.00,0.0250
1262.00,0.0250
1261.00,0.0250
1260.00,0.0252
1259.00,0.0253
1258.00,0.0254
1257.00,0.0255
1256.00,0.0255
1255.00,0.0255
1254.00,0.0257
1253.00,0.0259
1252.00,0.0260
1251.00,0.0261
1250.00,0.0261
1249.00,0.0262
1248.00,0.0264
1247.00,0.0266
1246.00,0.0268
1245.00,0.0269
1244.00,0.0271
1243.00,0.0272
1242.00,0.0272
1241.00,0.0272
1240.00,0.0273
1239.00,0.0274
1238.00,0.0276
1237.00,0.0278
1236.00,0.0280
1235.00,0.0281
1234.00,0.0281
1233.00,0.0282
1232.00,0.0282
1231.00,0.0283
1230.00,0.0284
1229.00,0.0285
1228.00,0.0287
1227.00,0.0288
1226.00,0.0289
1225.00,0.0289
1224.00,0.0289
1223.00,0.0290
1222.00,0.0290
1221.00,0.0291
1220.00,0.0293
1219.00,0.0294
1218.00,0.0294
1217.00,0.0295
1216.00,0.0296
1215.00,0.0297
1214.00,0.0297
1213.00,0.0298
1212.00,0.0299
1211.00,0.0301
1210.00,0.0302
1209.00,0.0303
1208.00,0.0304
1207.00,0.0304
1206.00,0.0304
1205.00,0.0304
1204.00,0.0304
1203.00,0.0305
1202.00,0.0305
1201.00,0.0306
1200.00,0.0307
1199.00,0.0308
1198.00,0.0308
1197.00,0.0308
1196.00,0.0309
1195.00,0.0309
1194.00,0.0310
1193.00,0.0311
1192.00,0.0312
1191.00,0.0313
1190.00,0.0312
1189.00,0.0312
1188.00,0.0312
1187.00,0.0313
1186.00,0.0314
1185.00,0.0314
1184.00,0.0314
1183.00,0.0314
1182.00,0.0314
1181.00,0.0313
1180.00,0.0313
1179.00,0.0313
1178.00,0.0314
1177.00,0.0315
1176.00,0.0317
1175.00,0.0318
1174.00,0.0319
1173.00,0.0320
1172.00,0.0320
1171.00,0.0320
1170.00,0.0320
1169.00,0.0320
1168.00,0.0321
1167.00,0.0322
1166.00,0.0323
1165.00,0.0324
1164.00,0.0325
1163.00,0.0325
1162.00,0.0325
1161.00,0.0325
1160.00,0.0325
1159.00,0.0326
1158.00,0.0327
1157.00,0.0328
1156.00,0.0329
1155.00,0.0330
1154.00,0.0331
1153.00,0.0330
1152.00,0.0330
1151.00,0.0329
1150.00,0.0329
1149.00,0.0329
1148.00,0.0330
1147.00,0.0331
1146.00,0.0332
1145.00,0.0334
1144.00,0.0335
1143.00,0.0337
1142.00,0.0339
1141.00,0.0340
1140.00,0.0340
1139.00,0.0341
1138.00,0.0341
1137.00,0.0343
1136.00,0.0344
1135.00,0.0346
1134.00,0.0349
1133.00,0.0351
1132.00,0.0353
1131.00,0.0354
1130.00,0.0356
1129.00,0.0359
1128.00,0.0361
1127.00,0.0362
1126.00,0.0362
1125.00,0.0363
1124.00,0.0365
1123.00,0.0370
1122.00,0.0376
1121.00,0.0382
1120.00,0.0387
1119.00,0.0390
1118.00,0.0391
1117.00,0.0393
1116.00,0.0395
1115.00,0.0399
1114.00,0.0401
1113.00,0.0403
1112.00,0.0404
1111.00,0.0405
1110.00,0.0407
1109.00,0.0410
1108.00,0.0413
1107.00,0.0415
1106.00,0.0416
1105.00,0.0417
1104.00,0.0419
1103.00,0.0422
1102.00,0.0425
1101.00,0.0428
1100.00,0.0430
1099.00,0.0433
1098.00,0.0435
1097.00,0.0437
1096.00,0.0437
1095.00,0.0438
1094.00,0.0439
1093.00,0.0441
1092.00,0.0444
1091.00,0.0447
1090.00,0.0447
1089.00,0.0447
1088.00,0.0446
1087.00,0.0447
1086.00,0.0450
1085.00,0.0452
1084.00,0.0455
1083.00,0.0457
1082.00,0.0459
1081.00,0.0461
1080.00,0.0463
1079.00,0.0465
1078.00,0.0468
1077.00,0.0470
1076.00,0.0471
1075.00,0.0469
1074.00,0.0467
1073.00,0.0466
1072.00,0.0467
1071.00,0.0468
1070.00,0.0468
1069.00,0.0469
1068.00,0.0470
1067.00,0.0472
1066.00,0.0475
1065.00,0.0478
1064.00,0.0482
1063.00,0.0484
1062.00,0.0485
1061.00,0.0484
1060.00,0.0483
1059.00,0.0483
1058.00,0.0485
1057.00,0.0487
1056.00,0.0490
1055.00,0.0493
1054.00,0.0495
1053.00,0.0498
1052.00,0.0501
1051.00,0.0502
1050.00,0.0503
1049.00,0.0505
1048.00,0.0508
1047.00,0.0510
1046.00,0.0511
1045.00,0.0512
1044.00,0.0514
1043.00,0.0515
1042.00,0.0515
1041.00,0.0514
1040.00,0.0515
1039.00,0.0517
1038.00,0.0519
1037.00,0.0521
1036.00,0.0522
1035.00,0.0522
1034.00,0.0522
1033.00,0.0522
1032.00,0.0523
1031.00,0.0523
1030.00,0.0522
1029.00,0.0520
1028.00,0.0519
1027.00,0.0517
1026.00,0.0516
1025.00,0.0515
1024.00,0.0514
1023.00,0.0512
1022.00,0.0509
1021.00,0.0507
1020.00,0.0505
1019.00,0.0504
1018.00,0.0502
1017.00,0.0502
1016.00,0.0502
1015.00,0.0503
1014.00,0.0504
1013.00,0.0504
1012.00,0.0503
1011.00,0.0502
1010.00,0.0501
1009.00,0.0501
1008.00,0.0501
1007.00,0.0500
1006.00,0.0500
1005.00,0.0500
1004.00,0.0500
1003.00,0.0501
1002.00,0.0501
1001.00,0.0499
1000.00,0.0496
999.00,0.0492
998.00,0.0487
997.00,0.0484
996.00,0.0483
995.00,0.0483
994.00,0.0481
993.00,0.0478
992.00,0.0474
991.00,0.0470
990.00,0.0467
989.00,0.0465
988.00,0.0464
987.00,0.0464
986.00,0.0463
985.00,0.0462
984.00,0.0460
983.00,0.0456
982.00,0.0452
981.00,0.0450
980.00,0.0449
979.00,0.0447
978.00,0.0444
977.00,0.0441
976.00,0.0438
975.00,0.0435
974.00,0.0434
973.00,0.0433
972.00,0.0432
971.00,0.0431
970.00,0.0428
969.00,0.0425
968.00,0.0423
967.00,0.0421
966.00,0.0418
965.00,0.0417
964.00,0.0415
963.00,0.0415
962.00,0.0414
961.00,0.0412
960.00,0.0410
959.00,0.0408
958.00,0.0407
957.00,0.0406
956.00,0.0406
955.00,0.0405
954.00,0.0403
953.00,0.0402
952.00,0.0402
951.00,0.0402
950.00,0.0403
949.00,0.0402
948.00,0.0401
947.00,0.0399
946.00,0.0397
945.00,0.0396
944.00,0.0396
943.00,0.0396
942.00,0.0395
941.00,0.0395
940.00,0.0395
939.00,0.0395
938.00,0.0395
937.00,0.0395
936.00,0.0393
935.00,0.0391
934.00,0.0391
933.00,0.0393
932.00,0.0396
931.00,0.0398
930.00,0.0397
929.00,0.0396
928.00,0.0395
927.00,0.0395
926.00,0.0395
925.00,0.0395
924.00,0.0395
923.00,0.0395
922.00,0.0395
921.00,0.0394
920.00,0.0394
919.00,0.0393
918.00,0.0394
917.00,0.0395
916.00,0.0397
915.00,0.0399
914.00,0.0399
913.00,0.0398
912.00,0.0397
911.00,0.0395
910.00,0.0393
909.00,0.0389
908.00,0.0385
907.00,0.0383
906.00,0.0383
905.00,0.0384
904.00,0.0386
903.00,0.0387
902.00,0.0387
901.00,0.0385
900.00,0.0382
899.00,0.0380
898.00,0.0379
897.00,0.0378
896.00,0.0377
895.00,0.0375
894.00,0.0373
893.00,0.0370
892.00,0.0368
891.00,0.0367
890.00,0.0366
889.00,0.0365
888.00,0.0364
887.00,0.0362
886.00,0.0360
885.00,0.0358
884.00,0.0358
883.00,0.0359
882.00,0.0360
881.00,0.0360
880.00,0.0359
879.00,0.0356
878.00,0.0353
877.00,0.0349
876.00,0.0345
875.00,0.0342
874.00,0.0341
873.00,0.0341
872.00,0.0340
871.00,0.0341
870.00,0.0341
869.00,0.0341
868.00,0.0341
867.00,0.0339
866.00,0.0339
865.00,0.0338
864.00,0.0338
863.00,0.0338
862.00,0.0338
861.00,0.0337
860.00,0.0336
859.00,0.0334
858.00,0.0332
857.00,0.0329
856.00,0.0328
855.00,0.0329
854.00,0.0331
853.00,0.0332
852.00,0.0332
851.00,0.0332
850.00,0.0333
849.00,0.0335
848.00,0.0338
847.00,0.0340
846.00,0.0342
845.00,0.0343
844.00,0.0344
843.00,0.0343
842.00,0.0341
841.00,0.0339
840.00,0.0337
839.00,0.0335
838.00,0.0335
837.00,0.0336
836.00,0.0339
835.00,0.0341
834.00,0.0341
833.00,0.0341
832.00,0.0341
831.00,0.0342
830.00,0.0342
829.00,0.0341
828.00,0.0342
827.00,0.0344
826.00,0.0347
825.00,0.0351
824.00,0.0355
823.00,0.0357
822.00,0.0358
821.00,0.0359
820.00,0.0360
819.00,0.0362
818.00,0.0362
817.00,0.0361
816.00,0.0360
815.00,0.0360
814.00,0.0362
813.00,0.0364
812.00,0.0366
811.00,0.0368
810.00,0.0369
809.00,0.0370
808.00,0.0371
807.00,0.0372
806.00,0.0372
805.00,0.0373
804.00,0.0375
803.00,0.0378
802.00,0.0381
801.00,0.0385
800.00,0.0390
799.00,0.0393
798.00,0.0394
797.00,0.0393
796.00,0.0392
795.00,0.0391
794.00,0.0391
793.00,0.0390
792.00,0.0391
791.00,0.0393
790.00,0.0395
789.00,0.0396
788.00,0.0396
787.00,0.0395
786.00,0.0396
785.00,0.0398
784.00,0.0399
783.00,0.0400
782.00,0.0401
781.00,0.0400
780.00,0.0399
779.00,0.0398
778.00,0.0397
777.00,0.0399
776.00,0.0400
775.00,0.0400
774.00,0.0397
773.00,0.0393
772.00,0.0390
771.00,0.0389
770.00,0.0389
769.00,0.0390
768.00,0.0389
767.00,0.0388
766.00,0.0386
765.00,0.0385
764.00,0.0385
763.00,0.0385
762.00,0.0384
761.00,0.0382
760.00,0.0381
759.00,0.0383
758.00,0.0387
757.00,0.0391
756.00,0.0392
755.00,0.0391
754.00,0.0390
753.00,0.0389
752.00,0.0389
751.00,0.0390
750.00,0.0392
749.00,0.0394
748.00,0.0394
747.00,0.0394
746.00,0.0394
745.00,0.0392
744.00,0.0390
743.00,0.0389
742.00,0.0388
741.00,0.0388
740.00,0.0387
739.00,0.0385
738.00,0.0383
737.00,0.0382
736.00,0.0380
735.00,0.0379
734.00,0.0380
733.00,0.0381
732.00,0.0382
731.00,0.0384
730.00,0.0385
729.00,0.0387
728.00,0.0390
727.00,0.0394
726.00,0.0397
725.00,0.0398
724.00,0.0396
723.00,0.0393
722.00,0.0392
721.00,0.0393
720.00,0.0395
719.00,0.0395
718.00,0.0393
717.00,0.0390
716.00,0.0387
715.00,0.0385
714.00,0.0384
713.00,0.0385
712.00,0.0389
711.00,0.0394
710.00,0.0397
709.00,0.0399
708.00,0.0400
707.00,0.0401
706.00,0.0401
705.00,0.0403
704.00,0.0406
703.00,0.0409
702.00,0.0412
701.00,0.0413
700.00,0.0413
699.00,0.0414
698.00,0.0416
697.00,0.0418
696.00,0.0420
695.00,0.0421
694.00,0.0422
693.00,0.0424
692.00,0.0425
691.00,0.0426
690.00,0.0427
689.00,0.0429
688.00,0.0430
687.00,0.0429
686.00,0.0428
685.00,0.0427
684.00,0.0425
683.00,0.0422
682.00,0.0418
681.00,0.0417
680.00,0.0419
679.00,0.0422
678.00,0.0424
677.00,0.0427
676.00,0.0429
675.00,0.0431
674.00,0.0431
673.00,0.0431
672.00,0.0431
671.00,0.0432
670.00,0.0434
669.00,0.0437
668.00,0.0439
667.00,0.0440
666.00,0.0440
665.00,0.0440
664.00,0.0439
663.00,0.0434
662.00,0.0427
661.00,0.0419
660.00,0.0413
659.00,0.0413
658.00,0.0421
657.00,0.0431
656.00,0.0438
655.00,0.0440
654.00,0.0437
653.00,0.0433
652.00,0.0430
651.00,0.0430
650.00,0.0434
