Created as New Dataset,Monday, April 03 2023
cm-1,A
4000.00,0.0325
3999.00,0.0326
3998.00,0.0326
3997.00,0.0326
3996.00,0.0326
3995.00,0.0325
3994.00,0.0325
3993.00,0.0325
3992.00,0.0325
3991.00,0.0324
3990.00,0.0324
3989.00,0.0324
3988.00,0.0324
3987.00,0.0325
3986.00,0.0325
3985.00,0.0325
3984.00,0.0325
3983.00,0.0325
3982.00,0.0324
3981.00,0.0324
3980.00,0.0325
3979.00,0.0325
3978.00,0.0325
3977.00,0.0325
3976.00,0.0325
3975.00,0.0325
3974.00,0.0324
3973.00,0.0324
3972.00,0.0324
3971.00,0.0325
3970.00,0.0325
3969.00,0.0324
3968.00,0.0324
3967.00,0.0324
3966.00,0.0325
3965.00,0.0325
3964.00,0.0325
3963.00,0.0325
3962.00,0.0325
3961.00,0.0325
3960.00,0.0325
3959.00,0.0325
3958.00,0.0325
3957.00,0.0325
3956.00,0.0325
3955.00,0.0325
3954.00,0.0325
3953.00,0.0325
3952.00,0.0325
3951.00,0.0325
3950.00,0.0326
3949.00,0.0326
3948.00,0.0326
3947.00,0.0326
3946.00,0.0326
3945.00,0.0326
3944.00,0.0326
3943.00,0.0325
3942.00,0.0325
3941.00,0.0324
3940.00,0.0324
3939.00,0.0325
3938.00,0.0325
3937.00,0.0325
3936.00,0.0326
3935.00,0.0327
3934.00,0.0327
3933.00,0.0327
3932.00,0.0326
3931.00,0.0326
3930.00,0.0325
3929.00,0.0325
3928.00,0.0325
3927.00,0.0325
3926.00,0.0325
3925.00,0.0325
3924.00,0.0324
3923.00,0.0324
3922.00,0.0325
3921.00,0.0325
3920.00,0.0325
3919.00,0.0325
3918.00,0.0325
3917.00,0.0325
3916.00,0.0324
3915.00,0.0324
3914.00,0.0323
3913.00,0.0323
3912.00,0.0323
3911.00,0.0323
3910.00,0.0324
3909.00,0.0325
3908.00,0.0326
3907.00,0.0327
3906.00,0.0327
3905.00,0.0328
3904.00,0.0328
3903.00,0.0329
3902.00,0.0329
3901.00,0.0328
3900.00,0.0327
3899.00,0.0326
3898.00,0.0325
3897.00,0.0325
3896.00,0.0326
3895.00,0.0326
3894.00,0.0326
3893.00,0.0325
3892.00,0.0324
3891.00,0.0324
3890.00,0.0325
3889.00,0.0325
3888.00,0.0325
3887.00,0.0326
3886.00,0.0326
3885.00,0.0326
3884.00,0.0326
3883.00,0.0325
3882.00,0.0325
3881.00,0.0324
3880.00,0.0323
3879.00,0.0324
3878.00,0.0324
3877.00,0.0325
3876.00,0.0325
3875.00,0.0325
3874.00,0.0325
3873.00,0.0325
3872.00,0.0324
3871.00,0.0324
3870.00,0.0324
3869.00,0.0324
3868.00,0.0324
3867.00,0.0325
3866.00,0.0326
3865.00,0.0325
3864.00,0.0324
3863.00,0.0323
3862.00,0.0323
3861.00,0.0324
3860.00,0.0325
3859.00,0.0325
3858.00,0.0325
3857.00,0.0324
3856.00,0.0324
3855.00,0.0325
3854.00,0.0326
3853.00,0.0325
3852.00,0.0323
3851.00,0.0322
3850.00,0.0322
3849.00,0.0323
3848.00,0.0323
3847.00,0.0323
3846.00,0.0323
3845.00,0.0324
3844.00,0.0325
3843.00,0.0325
3842.00,0.0326
3841.00,0.0325
3840.00,0.0324
3839.00,0.0324
3838.00,0.0323
3837.00,0.0323
3836.00,0.0323
3835.00,0.0322
3834.00,0.0322
3833.00,0.0322
3832.00,0.0323
3831.00,0.0323
3830.00,0.0324
3829.00,0.0323
3828.00,0.0323
3827.00,0.0323
3826.00,0.0322
3825.00,0.0322
3824.00,0.0323
3823.00,0.0324
3822.00,0.0325
3821.00,0.0325
3820.00,0.0324
3819.00,0.0323
3818.00,0.0322
3817.00,0.0321
3816.00,0.0320
3815.00,0.0319
3814.00,0.0319
3813.00,0.0319
3812.00,0.0320
3811.00,0.0320
3810.00,0.0319
3809.00,0.0319
3808.00,0.0320
3807.00,0.0322
3806.00,0.0322
3805.00,0.0322
3804.00,0.0322
3803.00,0.0321
3802.00,0.0321
3801.00,0.0321
3800.00,0.0320
3799.00,0.0320
3798.00,0.0319
3797.00,0.0318
3796.00,0.0318
3795.00,0.0317
3794.00,0.0317
3793.00,0.0317
3792.00,0.0317
3791.00,0.0317
3790.00,0.0317
3789.00,0.0317
3788.00,0.0318
3787.00,0.0318
3786.00,0.0318
3785.00,0.0317
3784.00,0.0317
3783.00,0.0317
3782.00,0.0317
3781.00,0.0316
3780.00,0.0316
3779.00,0.0315
3778.00,0.0315
3777.00,0.0315
3776.00,0.0316
3775.00,0.0316
3774.00,0.0316
3773.00,0.0316
3772.00,0.0316
3771.00,0.0317
3770.00,0.0317
3769.00,0.0317
3768.00,0.0316
3767.00,0.0316
3766.00,0.0316
3765.00,0.0316
3764.00,0.0316
3763.00,0.0317
3762.00,0.0317
3761.00,0.0318
3760.00,0.0317
3759.00,0.0316
3758.00,0.0316
3757.00,0.0316
3756.00,0.0316
3755.00,0.0317
3754.00,0.0318
3753.00,0.0318
3752.00,0.0319
3751.00,0.0319
3750.00,0.0320
3749.00,0.0320
3748.00,0.0319
3747.00,0.0316
3746.00,0.0315
3745.00,0.0315
3744.00,0.0316
3743.00,0.0315
3742.00,0.0315
3741.00,0.0316
3740.00,0.0317
3739.00,0.0317
3738.00,0.0317
3737.00,0.0318
3736.00,0.0317
3735.00,0.0316
3734.00,0.0314
3733.00,0.0313
3732.00,0.0313
3731.00,0.0313
3730.00,0.0312
3729.00,0.0312
3728.00,0.0312
3727.00,0.0312
3726.00,0.0312
3725.00,0.0311
3724.00,0.0311
3723.00,0.0310
3722.00,0.0309
3721.00,0.0308
3720.00,0.0308
3719.00,0.0308
3718.00,0.0308
3717.00,0.0309
3716.00,0.0310
3715.00,0.0310
3714.00,0.0310
3713.00,0.0310
3712.00,0.0309
3711.00,0.0308
3710.00,0.0308
3709.00,0.0308
3708.00,0.0309
3707.00,0.0309
3706.00,0.0309
3705.00,0.0309
3704.00,0.0308
3703.00,0.0308
3702.00,0.0307
3701.00,0.0308
3700.00,0.0308
3699.00,0.0309
3698.00,0.0309
3697.00,0.0309
3696.00,0.0308
3695.00,0.0308
3694.00,0.0308
3693.00,0.0309
3692.00,0.0309
3691.00,0.0309
3690.00,0.0309
3689.00,0.0309
3688.00,0.0309
3687.00,0.0308
3686.00,0.0307
3685.00,0.0306
3684.00,0.0306
3683.00,0.0306
3682.00,0.0307
3681.00,0.0307
3680.00,0.0308
3679.00,0.0307
3678.00,0.0307
3677.00,0.0308
3676.00,0.0309
3675.00,0.0310
3674.00,0.0311
3673.00,0.0311
3672.00,0.0312
3671.00,0.0312
3670.00,0.0311
3669.00,0.0309
3668.00,0.0309
3667.00,0.0310
3666.00,0.0311
3665.00,0.0311
3664.00,0.0312
3663.00,0.0313
3662.00,0.0314
3661.00,0.0315
3660.00,0.0316
3659.00,0.0317
3658.00,0.0319
3657.00,0.0321
3656.00,0.0324
3655.00,0.0325
3654.00,0.0326
3653.00,0.0327
3652.00,0.0329
3651.00,0.0331
3650.00,0.0333
3649.00,0.0334
3648.00,0.0334
3647.00,0.0334
3646.00,0.0335
3645.00,0.0336
3644.00,0.0337
3643.00,0.0337
3642.00,0.0337
3641.00,0.0338
3640.00,0.0338
3639.00,0.0339
3638.00,0.0340
3637.00,0.0341
3636.00,0.0342
3635.00,0.0344
3634.00,0.0346
3633.00,0.0347
3632.00,0.0348
3631.00,0.0350
3630.00,0.0352
3629.00,0.0354
3628.00,0.0355
3627.00,0.0356
3626.00,0.0357
3625.00,0.0359
3624.00,0.0360
3623.00,0.0361
3622.00,0.0363
3621.00,0.0365
3620.00,0.0367
3619.00,0.0368
3618.00,0.0369
3617.00,0.0369
3616.00,0.0369
3615.00,0.0369
3614.00,0.0370
3613.00,0.0370
3612.00,0.0371
3611.00,0.0372
3610.00,0.0373
3609.00,0.0373
3608.00,0.0373
3607.00,0.0373
3606.00,0.0373
3605.00,0.0374
3604.00,0.0375
3603.00,0.0375
3602.00,0.0375
3601.00,0.0376
3600.00,0.0377
3599.00,0.0378
3598.00,0.0379
3597.00,0.0379
3596.00,0.0380
3595.00,0.0382
3594.00,0.0383
3593.00,0.0384
3592.00,0.0385
3591.00,0.0385
3590.00,0.0386
3589.00,0.0386
3588.00,0.0386
3587.00,0.0386
3586.00,0.0387
3585.00,0.0387
3584.00,0.0387
3583.00,0.0388
3582.00,0.0388
3581.00,0.0389
3580.00,0.0390
3579.00,0.0390
3578.00,0.0391
3577.00,0.0391
3576.00,0.0392
3575.00,0.0393
3574.00,0.0394
3573.00,0.0395
3572.00,0.0396
3571.00,0.0397
3570.00,0.0398
3569.00,0.0399
3568.00,0.0401
3567.00,0.0402
3566.00,0.0403
3565.00,0.0403
3564.00,0.0404
3563.00,0.0404
3562.00,0.0404
3561.00,0.0404
3560.00,0.0404
3559.00,0.0405
3558.00,0.0406
3557.00,0.0407
3556.00,0.0408
3555.00,0.0409
3554.00,0.0409
3553.00,0.0410
3552.00,0.0411
3551.00,0.0411
3550.00,0.0412
3549.00,0.0413
3548.00,0.0415
3547.00,0.0416
3546.00,0.0417
3545.00,0.0417
3544.00,0.0417
3543.00,0.0417
3542.00,0.0417
3541.00,0.0417
3540.00,0.0417
3539.00,0.0417
3538.00,0.0418
3537.00,0.0420
3536.00,0.0421
3535.00,0.0422
3534.00,0.0423
3533.00,0.0423
3532.00,0.0424
3531.00,0.0425
3530.00,0.0425
3529.00,0.0426
3528.00,0.0427
3527.00,0.0428
3526.00,0.0429
3525.00,0.0430
3524.00,0.0431
3523.00,0.0431
3522.00,0.0431
3521.00,0.0432
3520.00,0.0432
3519.00,0.0432
3518.00,0.0433
3517.00,0.0433
3516.00,0.0434
3515.00,0.0435
3514.00,0.0435
3513.00,0.0436
3512.00,0.0436
3511.00,0.0437
3510.00,0.0438
3509.00,0.0440
3508.00,0.0441
3507.00,0.0442
3506.00,0.0443
3505.00,0.0443
3504.00,0.0443
3503.00,0.0444
3502.00,0.0445
3501.00,0.0445
3500.00,0.0446
3499.00,0.0446
3498.00,0.0447
3497.00,0.0448
3496.00,0.0448
3495.00,0.0449
3494.00,0.0450
3493.00,0.0450
3492.00,0.0451
3491.00,0.0452
3490.00,0.0453
3489.00,0.0453
3488.00,0.0454
3487.00,0.0455
3486.00,0.0455
3485.00,0.0456
3484.00,0.0456
3483.00,0.0456
3482.00,0.0457
3481.00,0.0458
3480.00,0.0459
3479.00,0.0459
3478.00,0.0460
3477.00,0.0460
3476.00,0.0461
3475.00,0.0462
3474.00,0.0462
3473.00,0.0463
3472.00,0.0463
3471.00,0.0463
3470.00,0.0464
3469.00,0.0464
3468.00,0.0465
3467.00,0.0466
3466.00,0.0467
3465.00,0.0468
3464.00,0.0469
3463.00,0.0469
3462.00,0.0470
3461.00,0.0471
3460.00,0.0472
3459.00,0.0472
3458.00,0.0473
3457.00,0.0473
3456.00,0.0473
3455.00,0.0473
3454.00,0.0474
3453.00,0.0475
3452.00,0.0476
3451.00,0.0477
3450.00,0.0478
3449.00,0.0478
3448.00,0.0479
3447.00,0.0479
3446.00,0.0480
3445.00,0.0481
3444.00,0.0482
3443.00,0.0482
3442.00,0.0483
3441.00,0.0484
3440.00,0.0484
3439.00,0.0485
3438.00,0.0485
3437.00,0.0486
3436.00,0.0486
3435.00,0.0486
3434.00,0.0486
3433.00,0.0487
3432.00,0.0488
3431.00,0.0488
3430.00,0.0489
3429.00,0.0490
3428.00,0.0491
3427.00,0.0491
3426.00,0.0491
3425.00,0.0491
3424.00,0.0492
3423.00,0.0492
3422.00,0.0493
3421.00,0.0494
3420.00,0.0494
3419.00,0.0495
3418.00,0.0495
3417.00,0.0495
3416.00,0.0496
3415.00,0.0496
3414.00,0.0497
3413.00,0.0498
3412.00,0.0498
3411.00,0.0499
3410.00,0.0499
3409.00,0.0499
3408.00,0.0499
3407.00,0.0500
3406.00,0.0501
3405.00,0.0501
3404.00,0.0502
3403.00,0.0503
3402.00,0.0504
3401.00,0.0504
3400.00,0.0504
3399.00,0.0504
3398.00,0.0504
3397.00,0.0505
3396.00,0.0505
3395.00,0.0507
3394.00,0.0507
3393.00,0.0508
3392.00,0.0508
3391.00,0.0508
3390.00,0.0508
3389.00,0.0508
3388.00,0.0509
3387.00,0.0510
3386.00,0.0510
3385.00,0.0511
3384.00,0.0511
3383.00,0.0511
3382.00,0.0511
3381.00,0.0512
3380.00,0.0512
3379.00,0.0513
3378.00,0.0514
3377.00,0.0515
3376.00,0.0515
3375.00,0.0515
3374.00,0.0515
3373.00,0.0515
3372.00,0.0515
3371.00,0.0515
3370.00,0.0515
3369.00,0.0516
3368.00,0.0516
3367.00,0.0517
3366.00,0.0518
3365.00,0.0518
3364.00,0.0519
3363.00,0.0519
3362.00,0.0519
3361.00,0.0519
3360.00,0.0519
3359.00,0.0520
3358.00,0.0520
3357.00,0.0521
3356.00,0.0522
3355.00,0.0523
3354.00,0.0523
3353.00,0.0523
3352.00,0.0524
3351.00,0.0524
3350.00,0.0524
3349.00,0.0524
3348.00,0.0524
3347.00,0.0524
3346.00,0.0524
3345.00,0.0524
3344.00,0.0524
3343.00,0.0525
3342.00,0.0525
3341.00,0.0526
3340.00,0.0526
3339.00,0.0527
3338.00,0.0527
3337.00,0.0527
3336.00,0.0527
3335.00,0.0527
3334.00,0.0527
3333.00,0.0528
3332.00,0.0528
3331.00,0.0528
3330.00,0.0529
3329.00,0.0529
3328.00,0.0528
3327.00,0.0528
3326.00,0.0528
3325.00,0.0528
3324.00,0.0528
3323.00,0.0528
3322.00,0.0528
3321.00,0.0529
3320.00,0.0529
3319.00,0.0530
3318.00,0.0530
3317.00,0.0530
3316.00,0.0530
3315.00,0.0530
3314.00,0.0530
3313.00,0.0530
3312.00,0.0530
3311.00,0.0530
3310.00,0.0530
3309.00,0.0530
3308.00,0.0530
3307.00,0.0530
3306.00,0.0530
3305.00,0.0530
3304.00,0.0530
3303.00,0.0530
3302.00,0.0531
3301.00,0.0531
3300.00,0.0532
3299.00,0.0533
3298.00,0.0533
3297.00,0.0532
3296.00,0.0532
3295.00,0.0532
3294.00,0.0532
3293.00,0.0533
3292.00,0.0534
3291.00,0.0534
3290.00,0.0533
3289.00,0.0533
3288.00,0.0533
3287.00,0.0533
3286.00,0.0534
3285.00,0.0534
3284.00,0.0534
3283.00,0.0534
3282.00,0.0533
3281.00,0.0533
3280.00,0.0534
3279.00,0.0534
3278.00,0.0535
3277.00,0.0535
3276.00,0.0535
3275.00,0.0535
3274.00,0.0535
3273.00,0.0535
3272.00,0.0535
3271.00,0.0535
3270.00,0.0536
3269.00,0.0536
3268.00,0.0536
3267.00,0.0536
3266.00,0.0535
3265.00,0.0535
3264.00,0.0535
3263.00,0.0534
3262.00,0.0534
3261.00,0.0534
3260.00,0.0534
3259.00,0.0534
3258.00,0.0535
3257.00,0.0535
3256.00,0.0535
3255.00,0.0535
3254.00,0.0535
3253.00,0.0535
3252.00,0.0535
3251.00,0.0535
3250.00,0.0535
3249.00,0.0536
3248.00,0.0536
3247.00,0.0537
3246.00,0.0537
3245.00,0.0536
3244.00,0.0536
3243.00,0.0535
3242.00,0.0535
3241.00,0.0535
3240.00,0.0535
3239.00,0.0536
3238.00,0.0536
3237.00,0.0536
3236.00,0.0535
3235.00,0.0535
3234.00,0.0535
3233.00,0.0535
3232.00,0.0535
3231.00,0.0535
3230.00,0.0535
3229.00,0.0536
3228.00,0.0536
3227.00,0.0536
3226.00,0.0536
3225.00,0.0535
3224.00,0.0535
3223.00,0.0535
3222.00,0.0535
3221.00,0.0535
3220.00,0.0535
3219.00,0.0535
3218.00,0.0535
3217.00,0.0535
3216.00,0.0534
3215.00,0.0534
3214.00,0.0534
3213.00,0.0534
3212.00,0.0534
3211.00,0.0533
3210.00,0.0533
3209.00,0.0533
3208.00,0.0533
3207.00,0.0533
3206.00,0.0533
3205.00,0.0533
3204.00,0.0533
3203.00,0.0533
3202.00,0.0533
3201.00,0.0533
3200.00,0.0533
3199.00,0.0534
3198.00,0.0534
3197.00,0.0533
3196.00,0.0532
3195.00,0.0532
3194.00,0.0531
3193.00,0.0531
3192.00,0.0531
3191.00,0.0531
3190.00,0.0531
3189.00,0.0531
3188.00,0.0531
3187.00,0.0531
3186.00,0.0531
3185.00,0.0531
3184.00,0.0530
3183.00,0.0530
3182.00,0.0529
3181.00,0.0529
3180.00,0.0529
3179.00,0.0528
3178.00,0.0528
3177.00,0.0528
3176.00,0.0527
3175.00,0.0527
3174.00,0.0527
3173.00,0.0527
3172.00,0.0527
3171.00,0.0527
3170.00,0.0527
3169.00,0.0527
3168.00,0.0527
3167.00,0.0526
3166.00,0.0526
3165.00,0.0525
3164.00,0.0525
3163.00,0.0525
3162.00,0.0525
3161.00,0.0525
3160.00,0.0525
3159.00,0.0524
3158.00,0.0524
3157.00,0.0523
3156.00,0.0523
3155.00,0.0523
3154.00,0.0522
3153.00,0.0522
3152.00,0.0521
3151.00,0.0521
3150.00,0.0521
3149.00,0.0521
3148.00,0.0521
3147.00,0.0521
3146.00,0.0521
3145.00,0.0520
3144.00,0.0520
3143.00,0.0520
3142.00,0.0520
3141.00,0.0520
3140.00,0.0520
3139.00,0.0520
3138.00,0.0519
3137.00,0.0519
3136.00,0.0519
3135.00,0.0518
3134.00,0.0518
3133.00,0.0517
3132.00,0.0517
3131.00,0.0517
3130.00,0.0517
3129.00,0.0517
3128.00,0.0516
3127.00,0.0516
3126.00,0.0515
3125.00,0.0515
3124.00,0.0515
3123.00,0.0514
3122.00,0.0514
3121.00,0.0514
3120.00,0.0514
3119.00,0.0514
3118.00,0.0514
3117.00,0.0513
3116.00,0.0512
3115.00,0.0512
3114.00,0.0511
3113.00,0.0512
3112.00,0.0512
3111.00,0.0511
3110.00,0.0511
3109.00,0.0511
3108.00,0.0511
3107.00,0.0510
3106.00,0.0510
3105.00,0.0510
3104.00,0.0510
3103.00,0.0510
3102.00,0.0510
3101.00,0.0510
3100.00,0.0509
3099.00,0.0509
3098.00,0.0508
3097.00,0.0508
3096.00,0.0508
3095.00,0.0508
3094.00,0.0508
3093.00,0.0508
3092.00,0.0508
3091.00,0.0508
3090.00,0.0508
3089.00,0.0508
3088.00,0.0508
3087.00,0.0507
3086.00,0.0507
3085.00,0.0506
3084.00,0.0506
3083.00,0.0506
3082.00,0.0505
3081.00,0.0505
3080.00,0.0505
3079.00,0.0505
3078.00,0.0505
3077.00,0.0504
3076.00,0.0504
3075.00,0.0504
3074.00,0.0503
3073.00,0.0503
3072.00,0.0502
3071.00,0.0502
3070.00,0.0502
3069.00,0.0502
3068.00,0.0502
3067.00,0.0502
3066.00,0.0501
3065.00,0.0501
3064.00,0.0501
3063.00,0.0501
3062.00,0.0500
3061.00,0.0500
3060.00,0.0499
3059.00,0.0498
3058.00,0.0498
3057.00,0.0497
3056.00,0.0496
3055.00,0.0496
3054.00,0.0495
3053.00,0.0495
3052.00,0.0495
3051.00,0.0495
3050.00,0.0495
3049.00,0.0494
3048.00,0.0494
3047.00,0.0494
3046.00,0.0494
3045.00,0.0493
3044.00,0.0493
3043.00,0.0492
3042.00,0.0492
3041.00,0.0491
3040.00,0.0490
3039.00,0.0490
3038.00,0.0489
3037.00,0.0489
3036.00,0.0488
3035.00,0.0488
3034.00,0.0488
3033.00,0.0487
3032.00,0.0486
3031.00,0.0486
3030.00,0.0485
3029.00,0.0485
3028.00,0.0484
3027.00,0.0483
3026.00,0.0483
3025.00,0.0483
3024.00,0.0482
3023.00,0.0482
3022.00,0.0482
3021.00,0.0482
3020.00,0.0481
3019.00,0.0481
3018.00,0.0480
3017.00,0.0480
3016.00,0.0480
3015.00,0.0480
3014.00,0.0480
3013.00,0.0479
3012.00,0.0479
3011.00,0.0478
3010.00,0.0477
3009.00,0.0476
3008.00,0.0476
3007.00,0.0475
3006.00,0.0475
3005.00,0.0475
3004.00,0.0474
3003.00,0.0474
3002.00,0.0473
3001.00,0.0473
3000.00,0.0473
2999.00,0.0472
2998.00,0.0472
2997.00,0.0471
2996.00,0.0471
2995.00,0.0471
2994.00,0.0470
2993.00,0.0470
2992.00,0.0470
2991.00,0.0469
2990.00,0.0469
2989.00,0.0468
2988.00,0.0468
2987.00,0.0467
2986.00,0.0467
2985.00,0.0467
2984.00,0.0466
2983.00,0.0466
2982.00,0.0465
2981.00,0.0465
2980.00,0.0464
2979.00,0.0464
2978.00,0.0464
2977.00,0.0465
2976.00,0.0465
2975.00,0.0464
2974.00,0.0464
2973.00,0.0464
2972.00,0.0463
2971.00,0.0463
2970.00,0.0462
2969.00,0.0462
2968.00,0.0462
2967.00,0.0462
2966.00,0.0461
2965.00,0.0461
2964.00,0.0460
2963.00,0.0459
2962.00,0.0459
2961.00,0.0458
2960.00,0.0458
2959.00,0.0457
2958.00,0.0457
2957.00,0.0457
2956.00,0.0457
2955.00,0.0457
2954.00,0.0457
2953.00,0.0457
2952.00,0.0458
2951.00,0.0458
2950.00,0.0458
2949.00,0.0458
2948.00,0.0458
2947.00,0.0458
2946.00,0.0457
2945.00,0.0457
2944.00,0.0457
2943.00,0.0457
2942.00,0.0457
2941.00,0.0457
2940.00,0.0456
2939.00,0.0456
2938.00,0.0455
2937.00,0.0454
2936.00,0.0454
2935.00,0.0453
2934.00,0.0452
2933.00,0.0451
2932.00,0.0450
2931.00,0.0449
2930.00,0.0448
2929.00,0.0447
2928.00,0.0446
2927.00,0.0445
2926.00,0.0445
2925.00,0.0444
2924.00,0.0443
2923.00,0.0443
2922.00,0.0442
2921.00,0.0442
2920.00,0.0441
2919.00,0.0440
2918.00,0.0438
2917.00,0.0438
2916.00,0.0438
2915.00,0.0439
2914.00,0.0441
2913.00,0.0443
2912.00,0.0445
2911.00,0.0446
2910.00,0.0447
2909.00,0.0447
2908.00,0.0448
2907.00,0.0448
2906.00,0.0448
2905.00,0.0449
2904.00,0.0449
2903.00,0.0449
2902.00,0.0449
2901.00,0.0449
2900.00,0.0449
2899.00,0.0449
2898.00,0.0449
2897.00,0.0449
2896.00,0.0449
2895.00,0.0449
2894.00,0.0449
2893.00,0.0448
2892.00,0.0448
2891.00,0.0448
2890.00,0.0448
2889.00,0.0448
2888.00,0.0448
2887.00,0.0448
2886.00,0.0448
2885.00,0.0448
2884.00,0.0447
2883.00,0.0446
2882.00,0.0446
2881.00,0.0446
2880.00,0.0446
2879.00,0.0446
2878.00,0.0445
2877.00,0.0445
2876.00,0.0445
2875.00,0.0445
2874.00,0.0444
2873.00,0.0444
2872.00,0.0443
2871.00,0.0443
2870.00,0.0443
2869.00,0.0442
2868.00,0.0441
2867.00,0.0441
2866.00,0.0440
2865.00,0.0439
2864.00,0.0439
2863.00,0.0439
2862.00,0.0438
2861.00,0.0438
2860.00,0.0437
2859.00,0.0436
2858.00,0.0435
2857.00,0.0434
2856.00,0.0434
2855.00,0.0433
2854.00,0.0433
2853.00,0.0432
2852.00,0.0432
2851.00,0.0431
2850.00,0.0431
2849.00,0.0430
2848.00,0.0431
2847.00,0.0431
2846.00,0.0432
2845.00,0.0432
2844.00,0.0433
2843.00,0.0434
2842.00,0.0434
2841.00,0.0434
2840.00,0.0434
2839.00,0.0434
2838.00,0.0434
2837.00,0.0434
2836.00,0.0433
2835.00,0.0433
2834.00,0.0432
2833.00,0.0432
2832.00,0.0432
2831.00,0.0432
2830.00,0.0432
2829.00,0.0432
2828.00,0.0432
2827.00,0.0432
2826.00,0.0431
2825.00,0.0431
2824.00,0.0431
2823.00,0.0430
2822.00,0.0430
2821.00,0.0430
2820.00,0.0430
2819.00,0.0430
2818.00,0.0430
2817.00,0.0430
2816.00,0.0429
2815.00,0.0429
2814.00,0.0429
2813.00,0.0428
2812.00,0.0428
2811.00,0.0428
2810.00,0.0428
2809.00,0.0428
2808.00,0.0427
2807.00,0.0426
2806.00,0.0426
2805.00,0.0426
2804.00,0.0425
2803.00,0.0425
2802.00,0.0425
2801.00,0.0425
2800.00,0.0425
2799.00,0.0425
2798.00,0.0424
2797.00,0.0424
2796.00,0.0424
2795.00,0.0424
2794.00,0.0423
2793.00,0.0423
2792.00,0.0423
2791.00,0.0422
2790.00,0.0422
2789.00,0.0422
2788.00,0.0422
2787.00,0.0422
2786.00,0.0422
2785.00,0.0422
2784.00,0.0422
2783.00,0.0421
2782.00,0.0421
2781.00,0.0421
2780.00,0.0421
2779.00,0.0420
2778.00,0.0420
2777.00,0.0420
2776.00,0.0420
2775.00,0.0420
2774.00,0.0419
2773.00,0.0419
2772.00,0.0419
2771.00,0.0419
2770.00,0.0419
2769.00,0.0419
2768.00,0.0418
2767.00,0.0418
2766.00,0.0418
2765.00,0.0418
2764.00,0.0418
2763.00,0.0418
2762.00,0.0417
2761.00,0.0417
2760.00,0.0417
2759.00,0.0417
2758.00,0.0417
2757.00,0.0417
2756.00,0.0416
2755.00,0.0416
2754.00,0.0416
2753.00,0.0416
2752.00,0.0416
2751.00,0.0416
2750.00,0.0415
2749.00,0.0415
2748.00,0.0415
2747.00,0.0415
2746.00,0.0415
2745.00,0.0414
2744.00,0.0414
2743.00,0.0414
2742.00,0.0414
2741.00,0.0414
2740.00,0.0414
2739.00,0.0413
2738.00,0.0413
2737.00,0.0413
2736.00,0.0413
2735.00,0.0412
2734.00,0.0412
2733.00,0.0412
2732.00,0.0412
2731.00,0.0412
2730.00,0.0411
2729.00,0.0411
2728.00,0.0411
2727.00,0.0411
2726.00,0.0411
2725.00,0.0411
2724.00,0.0411
2723.00,0.0411
2722.00,0.0411
2721.00,0.0411
2720.00,0.0411
2719.00,0.0411
2718.00,0.0411
2717.00,0.0410
2716.00,0.0410
2715.00,0.0409
2714.00,0.0409
2713.00,0.0409
2712.00,0.0409
2711.00,0.0409
2710.00,0.0409
2709.00,0.0409
2708.00,0.0409
2707.00,0.0408
2706.00,0.0408
2705.00,0.0408
2704.00,0.0407
2703.00,0.0407
2702.00,0.0407
2701.00,0.0407
2700.00,0.0406
2699.00,0.0406
2698.00,0.0406
2697.00,0.0406
2696.00,0.0406
2695.00,0.0406
2694.00,0.0406
2693.00,0.0406
2692.00,0.0406
2691.00,0.0406
2690.00,0.0405
2689.00,0.0405
2688.00,0.0405
2687.00,0.0405
2686.00,0.0405
2685.00,0.0405
2684.00,0.0405
2683.00,0.0405
2682.00,0.0405
2681.00,0.0404
2680.00,0.0404
2679.00,0.0404
2678.00,0.0404
2677.00,0.0403
2676.00,0.0403
2675.00,0.0403
2674.00,0.0403
2673.00,0.0403
2672.00,0.0403
2671.00,0.0403
2670.00,0.0403
2669.00,0.0403
2668.00,0.0403
2667.00,0.0403
2666.00,0.0403
2665.00,0.0403
2664.00,0.0403
2663.00,0.0403
2662.00,0.0403
2661.00,0.0403
2660.00,0.0403
2659.00,0.0403
2658.00,0.0404
2657.00,0.0404
2656.00,0.0404
2655.00,0.0404
2654.00,0.0405
2653.00,0.0405
2652.00,0.0405
2651.00,0.0405
2650.00,0.0404
2649.00,0.0404
2648.00,0.0404
2647.00,0.0405
2646.00,0.0405
2645.00,0.0405
2644.00,0.0405
2643.00,0.0405
2642.00,0.0405
2641.00,0.0405
2640.00,0.0405
2639.00,0.0405
2638.00,0.0405
2637.00,0.0405
2636.00,0.0405
2635.00,0.0405
2634.00,0.0405
2633.00,0.0405
2632.00,0.0404
2631.00,0.0404
2630.00,0.0404
2629.00,0.0405
2628.00,0.0405
2627.00,0.0405
2626.00,0.0405
2625.00,0.0405
2624.00,0.0404
2623.00,0.0404
2622.00,0.0404
2621.00,0.0404
2620.00,0.0404
2619.00,0.0404
2618.00,0.0404
2617.00,0.0404
2616.00,0.0404
2615.00,0.0404
2614.00,0.0404
2613.00,0.0404
2612.00,0.0404
2611.00,0.0404
2610.00,0.0404
2609.00,0.0404
2608.00,0.0405
2607.00,0.0405
2606.00,0.0405
2605.00,0.0405
2604.00,0.0405
2603.00,0.0405
2602.00,0.0405
2601.00,0.0405
2600.00,0.0405
2599.00,0.0405
2598.00,0.0405
2597.00,0.0405
2596.00,0.0404
2595.00,0.0404
2594.00,0.0404
2593.00,0.0404
2592.00,0.0404
2591.00,0.0404
2590.00,0.0404
2589.00,0.0404
2588.00,0.0403
2587.00,0.0403
2586.00,0.0403
2585.00,0.0403
2584.00,0.0403
2583.00,0.0403
2582.00,0.0403
2581.00,0.0404
2580.00,0.0404
2579.00,0.0404
2578.00,0.0404
2577.00,0.0404
2576.00,0.0403
2575.00,0.0403
2574.00,0.0403
2573.00,0.0403
2572.00,0.0403
2571.00,0.0403
2570.00,0.0402
2569.00,0.0402
2568.00,0.0402
2567.00,0.0402
2566.00,0.0402
2565.00,0.0403
2564.00,0.0403
2563.00,0.0402
2562.00,0.0402
2561.00,0.0401
2560.00,0.0400
2559.00,0.0400
2558.00,0.0400
2557.00,0.0400
2556.00,0.0400
2555.00,0.0400
2554.00,0.0400
2553.00,0.0401
2552.00,0.0401
2551.00,0.0401
2550.00,0.0400
2549.00,0.0400
2548.00,0.0399
2547.00,0.0399
2546.00,0.0399
2545.00,0.0399
2544.00,0.0398
2543.00,0.0398
2542.00,0.0398
2541.00,0.0398
2540.00,0.0399
2539.00,0.0399
2538.00,0.0399
2537.00,0.0399
2536.00,0.0398
2535.00,0.0398
2534.00,0.0397
2533.00,0.0397
2532.00,0.0397
2531.00,0.0397
2530.00,0.0396
2529.00,0.0396
2528.00,0.0396
2527.00,0.0396
2526.00,0.0396
2525.00,0.0396
2524.00,0.0396
2523.00,0.0396
2522.00,0.0396
2521.00,0.0396
2520.00,0.0396
2519.00,0.0395
2518.00,0.0395
2517.00,0.0395
2516.00,0.0395
2515.00,0.0395
2514.00,0.0395
2513.00,0.0394
2512.00,0.0394
2511.00,0.0393
2510.00,0.0393
2509.00,0.0393
2508.00,0.0392
2507.00,0.0392
2506.00,0.0392
2505.00,0.0392
2504.00,0.0393
2503.00,0.0393
2502.00,0.0392
2501.00,0.0392
2500.00,0.0392
2499.00,0.0392
2498.00,0.0392
2497.00,0.0392
2496.00,0.0392
2495.00,0.0391
2494.00,0.0391
2493.00,0.0391
2492.00,0.0391
2491.00,0.0391
2490.00,0.0391
2489.00,0.0390
2488.00,0.0390
2487.00,0.0390
2486.00,0.0390
2485.00,0.0389
2484.00,0.0389
2483.00,0.0389
2482.00,0.0389
2481.00,0.0389
2480.00,0.0389
2479.00,0.0389
2478.00,0.0389
2477.00,0.0388
2476.00,0.0388
2475.00,0.0388
2474.00,0.0387
2473.00,0.0387
2472.00,0.0386
2471.00,0.0386
2470.00,0.0386
2469.00,0.0386
2468.00,0.0386
2467.00,0.0385
2466.00,0.0385
2465.00,0.0385
2464.00,0.0385
2463.00,0.0385
2462.00,0.0385
2461.00,0.0385
2460.00,0.0385
2459.00,0.0385
2458.00,0.0385
2457.00,0.0384
2456.00,0.0384
2455.00,0.0383
2454.00,0.0383
2453.00,0.0383
2452.00,0.0384
2451.00,0.0384
2450.00,0.0384
2449.00,0.0383
2448.00,0.0383
2447.00,0.0383
2446.00,0.0382
2445.00,0.0382
2444.00,0.0382
2443.00,0.0382
2442.00,0.0381
2441.00,0.0381
2440.00,0.0380
2439.00,0.0380
2438.00,0.0379
2437.00,0.0379
2436.00,0.0379
2435.00,0.0379
2434.00,0.0378
2433.00,0.0378
2432.00,0.0378
2431.00,0.0377
2430.00,0.0377
2429.00,0.0377
2428.00,0.0377
2427.00,0.0377
2426.00,0.0377
2425.00,0.0377
2424.00,0.0377
2423.00,0.0376
2422.00,0.0375
2421.00,0.0375
2420.00,0.0375
2419.00,0.0374
2418.00,0.0374
2417.00,0.0373
2416.00,0.0373
2415.00,0.0373
2414.00,0.0372
2413.00,0.0372
2412.00,0.0372
2411.00,0.0372
2410.00,0.0371
2409.00,0.0371
2408.00,0.0371
2407.00,0.0371
2406.00,0.0370
2405.00,0.0370
2404.00,0.0370
2403.00,0.0369
2402.00,0.0369
2401.00,0.0369
2400.00,0.0368
2399.00,0.0368
2398.00,0.0367
2397.00,0.0367
2396.00,0.0367
2395.00,0.0367
2394.00,0.0366
2393.00,0.0365
2392.00,0.0365
2391.00,0.0365
2390.00,0.0364
2389.00,0.0364
2388.00,0.0363
2387.00,0.0363
2386.00,0.0362
2385.00,0.0362
2384.00,0.0361
2383.00,0.0360
2382.00,0.0359
2381.00,0.0358
2380.00,0.0358
2379.00,0.0357
2378.00,0.0357
2377.00,0.0357
2376.00,0.0358
2375.00,0.0359
2374.00,0.0359
2373.00,0.0359
2372.00,0.0358
2371.00,0.0357
2370.00,0.0357
2369.00,0.0357
2368.00,0.0357
2367.00,0.0356
2366.00,0.0356
2365.00,0.0355
2364.00,0.0355
2363.00,0.0355
2362.00,0.0355
2361.00,0.0356
2360.00,0.0357
2359.00,0.0357
2358.00,0.0356
2357.00,0.0355
2356.00,0.0353
2355.00,0.0352
2354.00,0.0350
2353.00,0.0348
2352.00,0.0348
2351.00,0.0351
2350.00,0.0354
2349.00,0.0356
2348.00,0.0355
2347.00,0.0352
2346.00,0.0350
2345.00,0.0350
2344.00,0.0350
2343.00,0.0351
2342.00,0.0351
2341.00,0.0352
2340.00,0.0351
2339.00,0.0351
2338.00,0.0351
2337.00,0.0351
2336.00,0.0351
2335.00,0.0351
2334.00,0.0350
2333.00,0.0349
2332.00,0.0347
2331.00,0.0347
2330.00,0.0347
2329.00,0.0349
2328.00,0.0351
2327.00,0.0353
2326.00,0.0354
2325.00,0.0353
2324.00,0.0352
2323.00,0.0351
2322.00,0.0350
2321.00,0.0350
2320.00,0.0351
2319.00,0.0351
2318.00,0.0351
2317.00,0.0351
2316.00,0.0351
2315.00,0.0350
2314.00,0.0350
2313.00,0.0349
2312.00,0.0349
2311.00,0.0350
2310.00,0.0350
2309.00,0.0351
2308.00,0.0351
2307.00,0.0350
2306.00,0.0350
2305.00,0.0350
2304.00,0.0350
2303.00,0.0349
2302.00,0.0349
2301.00,0.0349
2300.00,0.0349
2299.00,0.0348
2298.00,0.0348
2297.00,0.0348
2296.00,0.0349
2295.00,0.0349
2294.00,0.0349
2293.00,0.0350
2292.00,0.0350
2291.00,0.0351
2290.00,0.0351
2289.00,0.0351
2288.00,0.0351
2287.00,0.0351
2286.00,0.0351
2285.00,0.0351
2284.00,0.0351
2283.00,0.0350
2282.00,0.0350
2281.00,0.0350
2280.00,0.0350
2279.00,0.0349
2278.00,0.0349
2277.00,0.0348
2276.00,0.0348
2275.00,0.0348
2274.00,0.0348
2273.00,0.0347
2272.00,0.0347
2271.00,0.0347
2270.00,0.0347
2269.00,0.0347
2268.00,0.0347
2267.00,0.0347
2266.00,0.0347
2265.00,0.0348
2264.00,0.0348
2263.00,0.0348
2262.00,0.0349
2261.00,0.0349
2260.00,0.0350
2259.00,0.0349
2258.00,0.0348
2257.00,0.0347
2256.00,0.0345
2255.00,0.0344
2254.00,0.0344
2253.00,0.0344
2252.00,0.0344
2251.00,0.0344
2250.00,0.0344
2249.00,0.0344
2248.00,0.0344
2247.00,0.0344
2246.00,0.0344
2245.00,0.0344
2244.00,0.0344
2243.00,0.0345
2242.00,0.0345
2241.00,0.0345
2240.00,0.0345
2239.00,0.0345
2238.00,0.0345
2237.00,0.0345
2236.00,0.0345
2235.00,0.0345
2234.00,0.0345
2233.00,0.0346
2232.00,0.0346
2231.00,0.0346
2230.00,0.0347
2229.00,0.0346
2228.00,0.0346
2227.00,0.0346
2226.00,0.0345
2225.00,0.0345
2224.00,0.0345
2223.00,0.0345
2222.00,0.0346
2221.00,0.0347
2220.00,0.0347
2219.00,0.0346
2218.00,0.0345
2217.00,0.0343
2216.00,0.0342
2215.00,0.0342
2214.00,0.0343
2213.00,0.0344
2212.00,0.0345
2211.00,0.0345
2210.00,0.0344
2209.00,0.0343
2208.00,0.0341
2207.00,0.0340
2206.00,0.0340
2205.00,0.0339
2204.00,0.0339
2203.00,0.0339
2202.00,0.0339
2201.00,0.0339
2200.00,0.0340
2199.00,0.0341
2198.00,0.0342
2197.00,0.0343
2196.00,0.0343
2195.00,0.0343
2194.00,0.0343
2193.00,0.0342
2192.00,0.0340
2191.00,0.0338
2190.00,0.0338
2189.00,0.0338
2188.00,0.0340
2187.00,0.0341
2186.00,0.0342
2185.00,0.0341
2184.00,0.0341
2183.00,0.0339
2182.00,0.0338
2181.00,0.0338
2180.00,0.0339
2179.00,0.0340
2178.00,0.0339
2177.00,0.0339
2176.00,0.0338
2175.00,0.0338
2174.00,0.0339
2173.00,0.0341
2172.00,0.0342
2171.00,0.0343
2170.00,0.0344
2169.00,0.0346
2168.00,0.0345
2167.00,0.0344
2166.00,0.0342
2165.00,0.0342
2164.00,0.0342
2163.00,0.0343
2162.00,0.0342
2161.00,0.0339
2160.00,0.0334
2159.00,0.0330
2158.00,0.0328
2157.00,0.0328
2156.00,0.0328
2155.00,0.0327
2154.00,0.0325
2153.00,0.0324
2152.00,0.0323
2151.00,0.0322
2150.00,0.0323
2149.00,0.0324
2148.00,0.0324
2147.00,0.0324
2146.00,0.0324
2145.00,0.0324
2144.00,0.0324
2143.00,0.0324
2142.00,0.0323
2141.00,0.0322
2140.00,0.0322
2139.00,0.0323
2138.00,0.0323
2137.00,0.0322
2136.00,0.0320
2135.00,0.0318
2134.00,0.0316
2133.00,0.0316
2132.00,0.0316
2131.00,0.0316
2130.00,0.0316
2129.00,0.0316
2128.00,0.0316
2127.00,0.0316
2126.00,0.0316
2125.00,0.0317
2124.00,0.0317
2123.00,0.0317
2122.00,0.0318
2121.00,0.0318
2120.00,0.0318
2119.00,0.0319
2118.00,0.0320
2117.00,0.0321
2116.00,0.0321
2115.00,0.0320
2114.00,0.0320
2113.00,0.0319
2112.00,0.0319
2111.00,0.0319
2110.00,0.0318
2109.00,0.0318
2108.00,0.0318
2107.00,0.0318
2106.00,0.0319
2105.00,0.0318
2104.00,0.0318
2103.00,0.0317
2102.00,0.0317
2101.00,0.0317
2100.00,0.0316
2099.00,0.0316
2098.00,0.0315
2097.00,0.0315
2096.00,0.0314
2095.00,0.0314
2094.00,0.0314
2093.00,0.0314
2092.00,0.0314
2091.00,0.0314
2090.00,0.0313
2089.00,0.0313
2088.00,0.0312
2087.00,0.0312
2086.00,0.0312
2085.00,0.0312
2084.00,0.0313
2083.00,0.0313
2082.00,0.0313
2081.00,0.0312
2080.00,0.0312
2079.00,0.0313
2078.00,0.0313
2077.00,0.0313
2076.00,0.0312
2075.00,0.0312
2074.00,0.0311
2073.00,0.0311
2072.00,0.0311
2071.00,0.0311
2070.00,0.0310
2069.00,0.0309
2068.00,0.0309
2067.00,0.0309
2066.00,0.0309
2065.00,0.0309
2064.00,0.0308
2063.00,0.0308
2062.00,0.0308
2061.00,0.0309
2060.00,0.0310
2059.00,0.0310
2058.00,0.0309
2057.00,0.0309
2056.00,0.0309
2055.00,0.0310
2054.00,0.0311
2053.00,0.0311
2052.00,0.0312
2051.00,0.0312
2050.00,0.0312
2049.00,0.0311
2048.00,0.0309
2047.00,0.0308
2046.00,0.0308
2045.00,0.0308
2044.00,0.0308
2043.00,0.0308
2042.00,0.0307
2041.00,0.0307
2040.00,0.0308
2039.00,0.0309
2038.00,0.0310
2037.00,0.0312
2036.00,0.0313
2035.00,0.0313
2034.00,0.0311
2033.00,0.0310
2032.00,0.0310
2031.00,0.0309
2030.00,0.0310
2029.00,0.0310
2028.00,0.0310
2027.00,0.0309
2026.00,0.0308
2025.00,0.0306
2024.00,0.0304
2023.00,0.0303
2022.00,0.0302
2021.00,0.0303
2020.00,0.0304
2019.00,0.0304
2018.00,0.0303
2017.00,0.0302
2016.00,0.0302
2015.00,0.0301
2014.00,0.0302
2013.00,0.0302
2012.00,0.0302
2011.00,0.0301
2010.00,0.0300
2009.00,0.0298
2008.00,0.0297
2007.00,0.0295
2006.00,0.0294
2005.00,0.0294
2004.00,0.0295
2003.00,0.0295
2002.00,0.0295
2001.00,0.0294
2000.00,0.0294
1999.00,0.0295
1998.00,0.0296
1997.00,0.0297
1996.00,0.0298
1995.00,0.0298
1994.00,0.0297
1993.00,0.0296
1992.00,0.0297
1991.00,0.0297
1990.00,0.0298
1989.00,0.0297
1988.00,0.0296
1987.00,0.0294
1986.00,0.0293
1985.00,0.0294
1984.00,0.0296
1983.00,0.0298
1982.00,0.0299
1981.00,0.0300
1980.00,0.0300
1979.00,0.0298
1978.00,0.0294
1977.00,0.0291
1976.00,0.0289
1975.00,0.0289
1974.00,0.0288
1973.00,0.0289
1972.00,0.0289
1971.00,0.0289
1970.00,0.0287
1969.00,0.0285
1968.00,0.0283
1967.00,0.0282
1966.00,0.0282
1965.00,0.0283
1964.00,0.0284
1963.00,0.0283
1962.00,0.0282
1961.00,0.0281
1960.00,0.0279
1959.00,0.0278
1958.00,0.0278
1957.00,0.0277
1956.00,0.0277
1955.00,0.0276
1954.00,0.0275
1953.00,0.0275
1952.00,0.0274
1951.00,0.0273
1950.00,0.0273
1949.00,0.0273
1948.00,0.0275
1947.00,0.0275
1946.00,0.0276
1945.00,0.0276
1944.00,0.0274
1943.00,0.0272
1942.00,0.0270
1941.00,0.0269
1940.00,0.0268
1939.00,0.0267
1938.00,0.0267
1937.00,0.0267
1936.00,0.0267
1935.00,0.0267
1934.00,0.0267
1933.00,0.0267
1932.00,0.0266
1931.00,0.0265
1930.00,0.0264
1929.00,0.0263
1928.00,0.0262
1927.00,0.0261
1926.00,0.0261
1925.00,0.0261
1924.00,0.0261
1923.00,0.0260
1922.00,0.0259
1921.00,0.0259
1920.00,0.0260
1919.00,0.0259
1918.00,0.0258
1917.00,0.0257
1916.00,0.0257
1915.00,0.0257
1914.00,0.0257
1913.00,0.0256
1912.00,0.0255
1911.00,0.0253
1910.00,0.0252
1909.00,0.0251
1908.00,0.0251
1907.00,0.0251
1906.00,0.0251
1905.00,0.0251
1904.00,0.0250
1903.00,0.0249
1902.00,0.0249
1901.00,0.0249
1900.00,0.0249
1899.00,0.0249
1898.00,0.0248
1897.00,0.0248
1896.00,0.0246
1895.00,0.0245
1894.00,0.0243
1893.00,0.0243
1892.00,0.0243
1891.00,0.0242
1890.00,0.0241
1889.00,0.0241
1888.00,0.0240
1887.00,0.0240
1886.00,0.0240
1885.00,0.0239
1884.00,0.0238
1883.00,0.0238
1882.00,0.0237
1881.00,0.0237
1880.00,0.0236
1879.00,0.0235
1878.00,0.0234
1877.00,0.0234
1876.00,0.0234
1875.00,0.0234
1874.00,0.0233
1873.00,0.0233
1872.00,0.0233
1871.00,0.0233
1870.00,0.0232
1869.00,0.0231
1868.00,0.0230
1867.00,0.0229
1866.00,0.0229
1865.00,0.0228
1864.00,0.0228
1863.00,0.0227
1862.00,0.0226
1861.00,0.0225
1860.00,0.0224
1859.00,0.0224
1858.00,0.0224
1857.00,0.0224
1856.00,0.0223
1855.00,0.0222
1854.00,0.0221
1853.00,0.0220
1852.00,0.0220
1851.00,0.0220
1850.00,0.0220
1849.00,0.0220
1848.00,0.0220
1847.00,0.0220
1846.00,0.0219
1845.00,0.0217
1844.00,0.0216
1843.00,0.0215
1842.00,0.0215
1841.00,0.0215
1840.00,0.0215
1839.00,0.0215
1838.00,0.0214
1837.00,0.0213
1836.00,0.0213
1835.00,0.0212
1834.00,0.0212
1833.00,0.0212
1832.00,0.0212
1831.00,0.0211
1830.00,0.0209
1829.00,0.0207
1828.00,0.0206
1827.00,0.0206
1826.00,0.0205
1825.00,0.0205
1824.00,0.0204
1823.00,0.0204
1822.00,0.0205
1821.00,0.0205
1820.00,0.0205
1819.00,0.0205
1818.00,0.0204
1817.00,0.0203
1816.00,0.0202
1815.00,0.0202
1814.00,0.0202
1813.00,0.0203
1812.00,0.0203
1811.00,0.0202
1810.00,0.0202
1809.00,0.0202
1808.00,0.0203
1807.00,0.0203
1806.00,0.0204
1805.00,0.0204
1804.00,0.0205
1803.00,0.0206
1802.00,0.0206
1801.00,0.0206
1800.00,0.0206
1799.00,0.0207
1798.00,0.0208
1797.00,0.0210
1796.00,0.0211
1795.00,0.0213
1794.00,0.0214
1793.00,0.0215
1792.00,0.0215
1791.00,0.0215
1790.00,0.0216
1789.00,0.0218
1788.00,0.0220
1787.00,0.0222
1786.00,0.0224
1785.00,0.0226
1784.00,0.0228
1783.00,0.0230
1782.00,0.0232
1781.00,0.0234
1780.00,0.0236
1779.00,0.0239
1778.00,0.0242
1777.00,0.0245
1776.00,0.0248
1775.00,0.0251
1774.00,0.0254
1773.00,0.0256
1772.00,0.0259
1771.00,0.0261
1770.00,0.0263
1769.00,0.0266
1768.00,0.0268
1767.00,0.0271
1766.00,0.0273
1765.00,0.0275
1764.00,0.0278
1763.00,0.0280
1762.00,0.0281
1761.00,0.0284
1760.00,0.0287
1759.00,0.0290
1758.00,0.0293
1757.00,0.0295
1756.00,0.0299
1755.00,0.0302
1754.00,0.0306
1753.00,0.0310
1752.00,0.0315
1751.00,0.0319
1750.00,0.0323
1749.00,0.0326
1748.00,0.0330
1747.00,0.0334
1746.00,0.0338
1745.00,0.0342
1744.00,0.0346
1743.00,0.0350
1742.00,0.0354
1741.00,0.0359
1740.00,0.0366
1739.00,0.0371
1738.00,0.0376
1737.00,0.0380
1736.00,0.0384
1735.00,0.0391
1734.00,0.0399
1733.00,0.0405
1732.00,0.0409
1731.00,0.0412
1730.00,0.0415
1729.00,0.0420
1728.00,0.0425
1727.00,0.0431
1726.00,0.0436
1725.00,0.0441
1724.00,0.0446
1723.00,0.0451
1722.00,0.0454
1721.00,0.0457
1720.00,0.0460
1719.00,0.0464
1718.00,0.0469
1717.00,0.0474
1716.00,0.0478
1715.00,0.0480
1714.00,0.0482
1713.00,0.0484
1712.00,0.0487
1711.00,0.0489
1710.00,0.0492
1709.00,0.0494
1708.00,0.0497
1707.00,0.0499
1706.00,0.0501
1705.00,0.0503
1704.00,0.0505
1703.00,0.0505
1702.00,0.0506
1701.00,0.0509
1700.00,0.0514
1699.00,0.0517
1698.00,0.0518
1697.00,0.0517
1696.00,0.0517
1695.00,0.0517
1694.00,0.0518
1693.00,0.0518
1692.00,0.0518
1691.00,0.0519
1690.00,0.0520
1689.00,0.0521
1688.00,0.0522
1687.00,0.0522
1686.00,0.0522
1685.00,0.0522
1684.00,0.0523
1683.00,0.0525
1682.00,0.0527
1681.00,0.0529
1680.00,0.0530
1679.00,0.0531
1678.00,0.0533
1677.00,0.0534
1676.00,0.0536
1675.00,0.0539
1674.00,0.0542
1673.00,0.0544
1672.00,0.0545
1671.00,0.0546
1670.00,0.0548
1669.00,0.0550
1668.00,0.0553
1667.00,0.0555
1666.00,0.0557
1665.00,0.0558
1664.00,0.0560
1663.00,0.0563
1662.00,0.0566
1661.00,0.0569
1660.00,0.0573
1659.00,0.0576
1658.00,0.0578
1657.00,0.0579
1656.00,0.0580
1655.00,0.0581
1654.00,0.0585
1653.00,0.0592
1652.00,0.0599
1651.00,0.0603
1650.00,0.0604
1649.00,0.0604
1648.00,0.0607
1647.00,0.0611
1646.00,0.0616
1645.00,0.0620
1644.00,0.0624
1643.00,0.0627
1642.00,0.0630
1641.00,0.0633
1640.00,0.0637
1639.00,0.0640
1638.00,0.0643
1637.00,0.0646
1636.00,0.0651
1635.00,0.0657
1634.00,0.0662
1633.00,0.0667
1632.00,0.0671
1631.00,0.0674
1630.00,0.0677
1629.00,0.0680
1628.00,0.0684
1627.00,0.0688
1626.00,0.0692
1625.00,0.0695
1624.00,0.0700
1623.00,0.0704
1622.00,0.0708
1621.00,0.0711
1620.00,0.0713
1619.00,0.0715
1618.00,0.0719
1617.00,0.0724
1616.00,0.0728
1615.00,0.0731
1614.00,0.0733
1613.00,0.0735
1612.00,0.0737
1611.00,0.0740
1610.00,0.0743
1609.00,0.0745
1608.00,0.0747
1607.00,0.0750
1606.00,0.0752
1605.00,0.0754
1604.00,0.0756
1603.00,0.0758
1602.00,0.0760
1601.00,0.0761
1600.00,0.0763
1599.00,0.0765
1598.00,0.0767
1597.00,0.0768
1596.00,0.0770
1595.00,0.0771
1594.00,0.0773
1593.00,0.0774
1592.00,0.0776
1591.00,0.0777
1590.00,0.0778
1589.00,0.0780
1588.00,0.0781
1587.00,0.0782
1586.00,0.0783
1585.00,0.0784
1584.00,0.0784
1583.00,0.0785
1582.00,0.0786
1581.00,0.0787
1580.00,0.0788
1579.00,0.0788
1578.00,0.0788
1577.00,0.0789
1576.00,0.0790
1575.00,0.0791
1574.00,0.0790
1573.00,0.0789
1572.00,0.0788
1571.00,0.0787
1570.00,0.0787
1569.00,0.0787
1568.00,0.0787
1567.00,0.0787
1566.00,0.0786
1565.00,0.0785
1564.00,0.0784
1563.00,0.0783
1562.00,0.0781
1561.00,0.0776
1560.00,0.0775
1559.00,0.0775
1558.00,0.0775
1557.00,0.0776
1556.00,0.0775
1555.00,0.0773
1554.00,0.0770
1553.00,0.0768
1552.00,0.0766
1551.00,0.0763
1550.00,0.0759
1549.00,0.0756
1548.00,0.0754
1547.00,0.0753
1546.00,0.0750
1545.00,0.0747
1544.00,0.0745
1543.00,0.0742
1542.00,0.0739
1541.00,0.0734
1540.00,0.0726
1539.00,0.0721
1538.00,0.0719
1537.00,0.0718
1536.00,0.0715
1535.00,0.0712
1534.00,0.0707
1533.00,0.0703
1532.00,0.0701
1531.00,0.0699
1530.00,0.0698
1529.00,0.0696
1528.00,0.0693
1527.00,0.0690
1526.00,0.0687
1525.00,0.0685
1524.00,0.0684
1523.00,0.0682
1522.00,0.0678
1521.00,0.0673
1520.00,0.0669
1519.00,0.0667
1518.00,0.0663
1517.00,0.0659
1516.00,0.0656
1515.00,0.0655
1514.00,0.0654
1513.00,0.0653
1512.00,0.0652
1511.00,0.0651
1510.00,0.0649
1509.00,0.0648
1508.00,0.0645
1507.00,0.0639
1506.00,0.0632
1505.00,0.0632
1504.00,0.0633
1503.00,0.0632
1502.00,0.0630
1501.00,0.0627
1500.00,0.0625
1499.00,0.0624
1498.00,0.0622
1497.00,0.0621
1496.00,0.0621
1495.00,0.0621
1494.00,0.0621
1493.00,0.0621
1492.00,0.0622
1491.00,0.0621
1490.00,0.0620
1489.00,0.0618
1488.00,0.0617
1487.00,0.0617
1486.00,0.0617
1485.00,0.0618
1484.00,0.0619
1483.00,0.0620
1482.00,0.0621
1481.00,0.0621
1480.00,0.0622
1479.00,0.0622
1478.00,0.0622
1477.00,0.0623
1476.00,0.0624
1475.00,0.0626
1474.00,0.0628
1473.00,0.0630
1472.00,0.0630
1471.00,0.0631
1470.00,0.0632
1469.00,0.0633
1468.00,0.0634
1467.00,0.0634
1466.00,0.0636
1465.00,0.0638
1464.00,0.0640
1463.00,0.0642
1462.00,0.0643
1461.00,0.0644
1460.00,0.0645
1459.00,0.0647
1458.00,0.0649
1457.00,0.0652
1456.00,0.0654
1455.00,0.0656
1454.00,0.0656
1453.00,0.0657
1452.00,0.0659
1451.00,0.0660
1450.00,0.0662
1449.00,0.0664
1448.00,0.0666
1447.00,0.0667
1446.00,0.0669
1445.00,0.0670
1444.00,0.0672
1443.00,0.0673
1442.00,0.0674
1441.00,0.0676
1440.00,0.0678
1439.00,0.0679
1438.00,0.0680
1437.00,0.0682
1436.00,0.0685
1435.00,0.0687
1434.00,0.0689
1433.00,0.0690
1432.00,0.0691
1431.00,0.0692
1430.00,0.0693
1429.00,0.0694
1428.00,0.0696
1427.00,0.0697
1426.00,0.0699
1425.00,0.0699
1424.00,0.0701
1423.00,0.0701
1422.00,0.0702
1421.00,0.0702
1420.00,0.0704
1419.00,0.0706
1418.00,0.0707
1417.00,0.0708
1416.00,0.0709
1415.00,0.0709
1414.00,0.0710
1413.00,0.0711
1412.00,0.0712
1411.00,0.0713
1410.00,0.0713
1409.00,0.0714
1408.00,0.0715
1407.00,0.0716
1406.00,0.0717
1405.00,0.0717
1404.00,0.0719
1403.00,0.0720
1402.00,0.0721
1401.00,0.0722
1400.00,0.0724
1399.00,0.0726
1398.00,0.0727
1397.00,0.0729
1396.00,0.0729
1395.00,0.0730
1394.00,0.0731
1393.00,0.0733
1392.00,0.0735
1391.00,0.0737
1390.00,0.0739
1389.00,0.0740
1388.00,0.0741
1387.00,0.0743
1386.00,0.0744
1385.00,0.0745
1384.00,0.0747
1383.00,0.0749
1382.00,0.0750
1381.00,0.0752
1380.00,0.0754
1379.00,0.0755
1378.00,0.0756
1377.00,0.0757
1376.00,0.0758
1375.00,0.0759
1374.00,0.0760
1373.00,0.0761
1372.00,0.0762
1371.00,0.0762
1370.00,0.0762
1369.00,0.0762
1368.00,0.0762
1367.00,0.0762
1366.00,0.0762
1365.00,0.0762
1364.00,0.0762
1363.00,0.0761
1362.00,0.0760
1361.00,0.0760
1360.00,0.0760
1359.00,0.0760
1358.00,0.0759
1357.00,0.0759
1356.00,0.0759
1355.00,0.0758
1354.00,0.0757
1353.00,0.0756
1352.00,0.0755
1351.00,0.0755
1350.00,0.0754
1349.00,0.0753
1348.00,0.0753
1347.00,0.0752
1346.00,0.0752
1345.00,0.0752
1344.00,0.0751
1343.00,0.0751
1342.00,0.0751
1341.00,0.0752
1340.00,0.0752
1339.00,0.0751
1338.00,0.0750
1337.00,0.0749
1336.00,0.0748
1335.00,0.0748
1334.00,0.0748
1333.00,0.0747
1332.00,0.0747
1331.00,0.0747
1330.00,0.0747
1329.00,0.0747
1328.00,0.0746
1327.00,0.0746
1326.00,0.0746
1325.00,0.0746
1324.00,0.0747
1323.00,0.0748
1322.00,0.0750
1321.00,0.0751
1320.00,0.0751
1319.00,0.0752
1318.00,0.0753
1317.00,0.0754
1316.00,0.0755
1315.00,0.0756
1314.00,0.0756
1313.00,0.0757
1312.00,0.0757
1311.00,0.0758
1310.00,0.0758
1309.00,0.0759
1308.00,0.0759
1307.00,0.0759
1306.00,0.0760
1305.00,0.0760
1304.00,0.0761
1303.00,0.0762
1302.00,0.0763
1301.00,0.0764
1300.00,0.0764
1299.00,0.0765
1298.00,0.0766
1297.00,0.0768
1296.00,0.0769
1295.00,0.0770
1294.00,0.0770
1293.00,0.0771
1292.00,0.0772
1291.00,0.0774
1290.00,0.0775
1289.00,0.0776
1288.00,0.0777
1287.00,0.0778
1286.00,0.0779
1285.00,0.0780
1284.00,0.0781
1283.00,0.0783
1282.00,0.0784
1281.00,0.0785
1280.00,0.0787
1279.00,0.0788
1278.00,0.0789
1277.00,0.0790
1276.00,0.0791
1275.00,0.0792
1274.00,0.0793
1273.00,0.0794
1272.00,0.0795
1271.00,0.0796
1270.00,0.0796
1269.00,0.0797
1268.00,0.0798
1267.00,0.0799
1266.00,0.0800
1265.00,0.0800
1264.00,0.0801
1263.00,0.0803
1262.00,0.0804
1261.00,0.0805
1260.00,0.0806
1259.00,0.0806
1258.00,0.0806
1257.00,0.0806
1256.00,0.0806
1255.00,0.0806
1254.00,0.0807
1253.00,0.0807
1252.00,0.0808
1251.00,0.0809
1250.00,0.0810
1249.00,0.0811
1248.00,0.0812
1247.00,0.0813
1246.00,0.0813
1245.00,0.0813
1244.00,0.0813
1243.00,0.0813
1242.00,0.0813
1241.00,0.0814
1240.00,0.0815
1239.00,0.0815
1238.00,0.0815
1237.00,0.0815
1236.00,0.0815
1235.00,0.0816
1234.00,0.0816
1233.00,0.0817
1232.00,0.0817
1231.00,0.0817
1230.00,0.0816
1229.00,0.0816
1228.00,0.0816
1227.00,0.0815
1226.00,0.0815
1225.00,0.0815
1224.00,0.0815
1223.00,0.0814
1222.00,0.0814
1221.00,0.0813
1220.00,0.0813
1219.00,0.0811
1218.00,0.0811
1217.00,0.0810
1216.00,0.0810
1215.00,0.0810
1214.00,0.0810
1213.00,0.0810
1212.00,0.0810
1211.00,0.0810
1210.00,0.0811
1209.00,0.0811
1208.00,0.0811
1207.00,0.0812
1206.00,0.0812
1205.00,0.0812
1204.00,0.0813
1203.00,0.0813
1202.00,0.0813
1201.00,0.0812
1200.00,0.0812
1199.00,0.0811
1198.00,0.0811
1197.00,0.0810
1196.00,0.0810
1195.00,0.0810
1194.00,0.0809
1193.00,0.0808
1192.00,0.0807
1191.00,0.0806
1190.00,0.0806
1189.00,0.0805
1188.00,0.0805
1187.00,0.0804
1186.00,0.0804
1185.00,0.0804
1184.00,0.0804
1183.00,0.0805
1182.00,0.0804
1181.00,0.0803
1180.00,0.0803
1179.00,0.0804
1178.00,0.0805
1177.00,0.0806
1176.00,0.0806
1175.00,0.0806
1174.00,0.0806
1173.00,0.0806
1172.00,0.0807
1171.00,0.0807
1170.00,0.0809
1169.00,0.0810
1168.00,0.0811
1167.00,0.0812
1166.00,0.0813
1165.00,0.0814
1164.00,0.0815
1163.00,0.0816
1162.00,0.0816
1161.00,0.0816
1160.00,0.0816
1159.00,0.0815
1158.00,0.0814
1157.00,0.0813
1156.00,0.0813
1155.00,0.0812
1154.00,0.0811
1153.00,0.0809
1152.00,0.0808
1151.00,0.0807
1150.00,0.0807
1149.00,0.0807
1148.00,0.0806
1147.00,0.0805
1146.00,0.0803
1145.00,0.0803
1144.00,0.0803
1143.00,0.0802
1142.00,0.0801
1141.00,0.0800
1140.00,0.0799
1139.00,0.0798
1138.00,0.0797
1137.00,0.0797
1136.00,0.0797
1135.00,0.0797
1134.00,0.0798
1133.00,0.0798
1132.00,0.0798
1131.00,0.0798
1130.00,0.0798
1129.00,0.0799
1128.00,0.0800
1127.00,0.0801
1126.00,0.0802
1125.00,0.0804
1124.00,0.0806
1123.00,0.0807
1122.00,0.0809
1121.00,0.0810
1120.00,0.0812
1119.00,0.0814
1118.00,0.0815
1117.00,0.0818
1116.00,0.0820
1115.00,0.0821
1114.00,0.0821
1113.00,0.0822
1112.00,0.0823
1111.00,0.0824
1110.00,0.0826
1109.00,0.0827
1108.00,0.0828
1107.00,0.0829
1106.00,0.0830
1105.00,0.0830
1104.00,0.0829
1103.00,0.0829
1102.00,0.0829
1101.00,0.0829
1100.00,0.0829
1099.00,0.0828
1098.00,0.0828
1097.00,0.0828
1096.00,0.0828
1095.00,0.0828
1094.00,0.0827
1093.00,0.0827
1092.00,0.0827
1091.00,0.0827
1090.00,0.0827
1089.00,0.0827
1088.00,0.0827
1087.00,0.0826
1086.00,0.0826
1085.00,0.0826
1084.00,0.0828
1083.00,0.0830
1082.00,0.0830
1081.00,0.0831
1080.00,0.0831
1079.00,0.0831
1078.00,0.0831
1077.00,0.0832
1076.00,0.0833
1075.00,0.0835
1074.00,0.0836
1073.00,0.0836
1072.00,0.0837
1071.00,0.0838
1070.00,0.0839
1069.00,0.0841
1068.00,0.0843
1067.00,0.0845
1066.00,0.0846
1065.00,0.0848
1064.00,0.0850
1063.00,0.0853
1062.00,0.0855
1061.00,0.0857
1060.00,0.0858
1059.00,0.0860
1058.00,0.0862
1057.00,0.0864
1056.00,0.0865
1055.00,0.0867
1054.00,0.0868
1053.00,0.0869
1052.00,0.0869
1051.00,0.0871
1050.00,0.0871
1049.00,0.0872
1048.00,0.0872
1047.00,0.0872
1046.00,0.0871
1045.00,0.0871
1044.00,0.0872
1043.00,0.0872
1042.00,0.0873
1041.00,0.0873
1040.00,0.0874
1039.00,0.0875
1038.00,0.0877
1037.00,0.0880
1036.00,0.0883
1035.00,0.0885
1034.00,0.0887
1033.00,0.0886
1032.00,0.0886
1031.00,0.0885
1030.00,0.0884
1029.00,0.0882
1028.00,0.0880
1027.00,0.0877
1026.00,0.0874
1025.00,0.0870
1024.00,0.0867
1023.00,0.0864
1022.00,0.0861
1021.00,0.0858
1020.00,0.0856
1019.00,0.0855
1018.00,0.0854
1017.00,0.0854
1016.00,0.0853
1015.00,0.0852
1014.00,0.0851
1013.00,0.0850
1012.00,0.0850
1011.00,0.0849
1010.00,0.0849
1009.00,0.0847
1008.00,0.0846
1007.00,0.0843
1006.00,0.0841
1005.00,0.0838
1004.00,0.0835
1003.00,0.0833
1002.00,0.0831
1001.00,0.0829
1000.00,0.0826
999.00,0.0823
998.00,0.0819
997.00,0.0815
996.00,0.0812
995.00,0.0808
994.00,0.0804
993.00,0.0801
992.00,0.0799
991.00,0.0797
990.00,0.0793
989.00,0.0790
988.00,0.0786
987.00,0.0783
986.00,0.0781
985.00,0.0780
984.00,0.0779
983.00,0.0777
982.00,0.0775
981.00,0.0772
980.00,0.0769
979.00,0.0766
978.00,0.0762
977.00,0.0759
976.00,0.0756
975.00,0.0753
974.00,0.0751
973.00,0.0749
972.00,0.0747
971.00,0.0745
970.00,0.0743
969.00,0.0741
968.00,0.0739
967.00,0.0736
966.00,0.0734
965.00,0.0732
964.00,0.0730
963.00,0.0727
962.00,0.0725
961.00,0.0724
960.00,0.0722
959.00,0.0721
958.00,0.0719
957.00,0.0717
956.00,0.0716
955.00,0.0714
954.00,0.0712
953.00,0.0711
952.00,0.0710
951.00,0.0709
950.00,0.0708
949.00,0.0707
948.00,0.0706
947.00,0.0705
946.00,0.0705
945.00,0.0704
944.00,0.0703
943.00,0.0702
942.00,0.0701
941.00,0.0700
940.00,0.0700
939.00,0.0699
938.00,0.0699
937.00,0.0699
936.00,0.0700
935.00,0.0700
934.00,0.0700
933.00,0.0700
932.00,0.0699
931.00,0.0698
930.00,0.0696
929.00,0.0694
928.00,0.0694
927.00,0.0694
926.00,0.0695
925.00,0.0696
924.00,0.0697
923.00,0.0698
922.00,0.0698
921.00,0.0698
920.00,0.0699
919.00,0.0700
918.00,0.0702
917.00,0.0705
916.00,0.0707
915.00,0.0708
914.00,0.0708
913.00,0.0707
912.00,0.0707
911.00,0.0708
910.00,0.0708
909.00,0.0708
908.00,0.0707
907.00,0.0707
906.00,0.0707
905.00,0.0707
904.00,0.0708
903.00,0.0708
902.00,0.0707
901.00,0.0706
900.00,0.0706
899.00,0.0706
898.00,0.0707
897.00,0.0708
896.00,0.0709
895.00,0.0708
894.00,0.0707
893.00,0.0707
892.00,0.0707
891.00,0.0707
890.00,0.0706
889.00,0.0706
888.00,0.0706
887.00,0.0707
886.00,0.0708
885.00,0.0709
884.00,0.0708
883.00,0.0706
882.00,0.0705
881.00,0.0706
880.00,0.0708
879.00,0.0710
878.00,0.0711
877.00,0.0711
876.00,0.0710
875.00,0.0709
874.00,0.0708
873.00,0.0707
872.00,0.0708
871.00,0.0709
870.00,0.0709
869.00,0.0709
868.00,0.0709
867.00,0.0709
866.00,0.0709
865.00,0.0709
864.00,0.0710
863.00,0.0710
862.00,0.0711
861.00,0.0712
860.00,0.0713
859.00,0.0714
858.00,0.0714
857.00,0.0714
856.00,0.0714
855.00,0.0715
854.00,0.0716
853.00,0.0718
852.00,0.0719
851.00,0.0720
850.00,0.0721
849.00,0.0722
848.00,0.0723
847.00,0.0723
846.00,0.0723
845.00,0.0725
844.00,0.0727
843.00,0.0729
842.00,0.0730
841.00,0.0731
840.00,0.0733
839.00,0.0735
838.00,0.0737
837.00,0.0739
836.00,0.0741
835.00,0.0741
834.00,0.0741
833.00,0.0742
832.00,0.0744
831.00,0.0748
830.00,0.0752
829.00,0.0755
828.00,0.0757
827.00,0.0759
826.00,0.0761
825.00,0.0763
824.00,0.0765
823.00,0.0767
822.00,0.0771
821.00,0.0773
820.00,0.0775
819.00,0.0776
818.00,0.0777
817.00,0.0777
816.00,0.0779
815.00,0.0780
814.00,0.0782
813.00,0.0784
812.00,0.0786
811.00,0.0787
810.00,0.0787
809.00,0.0788
808.00,0.0790
807.00,0.0793
806.00,0.0795
805.00,0.0798
804.00,0.0800
803.00,0.0803
802.00,0.0805
801.00,0.0806
800.00,0.0808
799.00,0.0809
798.00,0.0810
797.00,0.0811
796.00,0.0811
795.00,0.0811
794.00,0.0810
793.00,0.0811
792.00,0.0812
791.00,0.0814
790.00,0.0815
789.00,0.0815
788.00,0.0816
787.00,0.0817
786.00,0.0818
785.00,0.0820
784.00,0.0821
783.00,0.0822
782.00,0.0824
781.00,0.0827
780.00,0.0831
779.00,0.0835
778.00,0.0838
777.00,0.0838
776.00,0.0837
775.00,0.0837
774.00,0.0838
773.00,0.0841
772.00,0.0843
771.00,0.0843
770.00,0.0844
769.00,0.0844
768.00,0.0846
767.00,0.0849
766.00,0.0851
765.00,0.0853
764.00,0.0854
763.00,0.0854
762.00,0.0854
761.00,0.0855
760.00,0.0858
759.00,0.0861
758.00,0.0864
757.00,0.0866
756.00,0.0866
755.00,0.0866
754.00,0.0865
753.00,0.0864
752.00,0.0864
751.00,0.0864
750.00,0.0865
749.00,0.0867
748.00,0.0869
747.00,0.0871
746.00,0.0872
745.00,0.0873
744.00,0.0874
743.00,0.0875
742.00,0.0875
741.00,0.0875
740.00,0.0876
739.00,0.0876
738.00,0.0875
737.00,0.0875
736.00,0.0875
735.00,0.0876
734.00,0.0877
733.00,0.0878
732.00,0.0880
731.00,0.0882
730.00,0.0883
729.00,0.0884
728.00,0.0885
727.00,0.0885
726.00,0.0886
725.00,0.0887
724.00,0.0887
723.00,0.0888
722.00,0.0888
721.00,0.0889
720.00,0.0891
719.00,0.0893
718.00,0.0896
717.00,0.0898
716.00,0.0900
715.00,0.0902
714.00,0.0903
713.00,0.0903
712.00,0.0905
711.00,0.0906
710.00,0.0907
709.00,0.0909
708.00,0.0912
707.00,0.0915
706.00,0.0919
705.00,0.0922
704.00,0.0924
703.00,0.0925
702.00,0.0927
701.00,0.0930
700.00,0.0933
699.00,0.0936
698.00,0.0938
697.00,0.0939
696.00,0.0941
695.00,0.0945
694.00,0.0948
693.00,0.0950
692.00,0.0950
691.00,0.0950
690.00,0.0951
689.00,0.0953
688.00,0.0956
687.00,0.0958
686.00,0.0961
685.00,0.0964
684.00,0.0967
683.00,0.0968
682.00,0.0969
681.00,0.0971
680.00,0.0973
679.00,0.0975
678.00,0.0974
677.00,0.0974
676.00,0.0975
675.00,0.0979
674.00,0.0983
673.00,0.0986
672.00,0.0988
671.00,0.0989
670.00,0.0991
669.00,0.0995
668.00,0.1001
667.00,0.1005
666.00,0.1004
665.00,0.1002
664.00,0.1002
663.00,0.1003
662.00,0.1004
661.00,0.1005
660.00,0.1006
659.00,0.1006
658.00,0.1006
657.00,0.1007
656.00,0.1012
655.00,0.1017
654.00,0.1020
653.00,0.1021
652.00,0.1020
651.00,0.1022
650.00,0.1024
