Created as New Dataset,Monday, April 03 2023
cm-1,A
4000.00,0.0206
3999.00,0.0206
3998.00,0.0206
3997.00,0.0206
3996.00,0.0206
3995.00,0.0206
3994.00,0.0206
3993.00,0.0206
3992.00,0.0206
3991.00,0.0206
3990.00,0.0206
3989.00,0.0205
3988.00,0.0205
3987.00,0.0206
3986.00,0.0206
3985.00,0.0206
3984.00,0.0206
3983.00,0.0206
3982.00,0.0206
3981.00,0.0206
3980.00,0.0206
3979.00,0.0206
3978.00,0.0206
3977.00,0.0206
3976.00,0.0206
3975.00,0.0206
3974.00,0.0206
3973.00,0.0205
3972.00,0.0205
3971.00,0.0205
3970.00,0.0205
3969.00,0.0205
3968.00,0.0205
3967.00,0.0205
3966.00,0.0206
3965.00,0.0206
3964.00,0.0207
3963.00,0.0207
3962.00,0.0207
3961.00,0.0206
3960.00,0.0206
3959.00,0.0206
3958.00,0.0206
3957.00,0.0206
3956.00,0.0206
3955.00,0.0205
3954.00,0.0205
3953.00,0.0205
3952.00,0.0205
3951.00,0.0205
3950.00,0.0205
3949.00,0.0205
3948.00,0.0205
3947.00,0.0205
3946.00,0.0206
3945.00,0.0206
3944.00,0.0206
3943.00,0.0205
3942.00,0.0205
3941.00,0.0205
3940.00,0.0205
3939.00,0.0206
3938.00,0.0206
3937.00,0.0206
3936.00,0.0206
3935.00,0.0206
3934.00,0.0207
3933.00,0.0207
3932.00,0.0207
3931.00,0.0206
3930.00,0.0206
3929.00,0.0205
3928.00,0.0205
3927.00,0.0205
3926.00,0.0205
3925.00,0.0205
3924.00,0.0204
3923.00,0.0204
3922.00,0.0204
3921.00,0.0205
3920.00,0.0205
3919.00,0.0206
3918.00,0.0206
3917.00,0.0206
3916.00,0.0206
3915.00,0.0206
3914.00,0.0206
3913.00,0.0206
3912.00,0.0206
3911.00,0.0206
3910.00,0.0206
3909.00,0.0206
3908.00,0.0205
3907.00,0.0205
3906.00,0.0205
3905.00,0.0204
3904.00,0.0204
3903.00,0.0204
3902.00,0.0205
3901.00,0.0206
3900.00,0.0206
3899.00,0.0205
3898.00,0.0205
3897.00,0.0205
3896.00,0.0206
3895.00,0.0206
3894.00,0.0206
3893.00,0.0206
3892.00,0.0206
3891.00,0.0205
3890.00,0.0205
3889.00,0.0206
3888.00,0.0207
3887.00,0.0207
3886.00,0.0206
3885.00,0.0206
3884.00,0.0206
3883.00,0.0206
3882.00,0.0206
3881.00,0.0205
3880.00,0.0204
3879.00,0.0204
3878.00,0.0205
3877.00,0.0206
3876.00,0.0206
3875.00,0.0204
3874.00,0.0204
3873.00,0.0204
3872.00,0.0206
3871.00,0.0206
3870.00,0.0204
3869.00,0.0204
3868.00,0.0205
3867.00,0.0207
3866.00,0.0207
3865.00,0.0206
3864.00,0.0205
3863.00,0.0205
3862.00,0.0205
3861.00,0.0206
3860.00,0.0206
3859.00,0.0205
3858.00,0.0205
3857.00,0.0204
3856.00,0.0203
3855.00,0.0206
3854.00,0.0208
3853.00,0.0205
3852.00,0.0202
3851.00,0.0202
3850.00,0.0204
3849.00,0.0205
3848.00,0.0205
3847.00,0.0206
3846.00,0.0206
3845.00,0.0206
3844.00,0.0205
3843.00,0.0205
3842.00,0.0205
3841.00,0.0205
3840.00,0.0206
3839.00,0.0206
3838.00,0.0206
3837.00,0.0205
3836.00,0.0205
3835.00,0.0205
3834.00,0.0206
3833.00,0.0206
3832.00,0.0207
3831.00,0.0207
3830.00,0.0208
3829.00,0.0209
3828.00,0.0208
3827.00,0.0207
3826.00,0.0206
3825.00,0.0206
3824.00,0.0206
3823.00,0.0207
3822.00,0.0207
3821.00,0.0206
3820.00,0.0206
3819.00,0.0208
3818.00,0.0209
3817.00,0.0209
3816.00,0.0207
3815.00,0.0206
3814.00,0.0207
3813.00,0.0207
3812.00,0.0207
3811.00,0.0205
3810.00,0.0205
3809.00,0.0206
3808.00,0.0206
3807.00,0.0206
3806.00,0.0206
3805.00,0.0207
3804.00,0.0208
3803.00,0.0208
3802.00,0.0207
3801.00,0.0205
3800.00,0.0205
3799.00,0.0206
3798.00,0.0207
3797.00,0.0207
3796.00,0.0207
3795.00,0.0207
3794.00,0.0208
3793.00,0.0208
3792.00,0.0207
3791.00,0.0207
3790.00,0.0207
3789.00,0.0208
3788.00,0.0208
3787.00,0.0209
3786.00,0.0209
3785.00,0.0208
3784.00,0.0207
3783.00,0.0207
3782.00,0.0207
3781.00,0.0208
3780.00,0.0208
3779.00,0.0207
3778.00,0.0207
3777.00,0.0208
3776.00,0.0208
3775.00,0.0208
3774.00,0.0208
3773.00,0.0208
3772.00,0.0208
3771.00,0.0208
3770.00,0.0208
3769.00,0.0208
3768.00,0.0208
3767.00,0.0208
3766.00,0.0208
3765.00,0.0207
3764.00,0.0207
3763.00,0.0208
3762.00,0.0209
3761.00,0.0208
3760.00,0.0208
3759.00,0.0208
3758.00,0.0207
3757.00,0.0207
3756.00,0.0206
3755.00,0.0206
3754.00,0.0205
3753.00,0.0205
3752.00,0.0207
3751.00,0.0209
3750.00,0.0208
3749.00,0.0207
3748.00,0.0207
3747.00,0.0208
3746.00,0.0208
3745.00,0.0207
3744.00,0.0205
3743.00,0.0205
3742.00,0.0206
3741.00,0.0207
3740.00,0.0206
3739.00,0.0206
3738.00,0.0206
3737.00,0.0206
3736.00,0.0207
3735.00,0.0207
3734.00,0.0207
3733.00,0.0207
3732.00,0.0207
3731.00,0.0207
3730.00,0.0207
3729.00,0.0208
3728.00,0.0208
3727.00,0.0207
3726.00,0.0207
3725.00,0.0207
3724.00,0.0207
3723.00,0.0207
3722.00,0.0207
3721.00,0.0207
3720.00,0.0208
3719.00,0.0208
3718.00,0.0208
3717.00,0.0208
3716.00,0.0208
3715.00,0.0208
3714.00,0.0207
3713.00,0.0206
3712.00,0.0206
3711.00,0.0206
3710.00,0.0206
3709.00,0.0206
3708.00,0.0207
3707.00,0.0208
3706.00,0.0208
3705.00,0.0208
3704.00,0.0208
3703.00,0.0208
3702.00,0.0207
3701.00,0.0207
3700.00,0.0207
3699.00,0.0208
3698.00,0.0208
3697.00,0.0207
3696.00,0.0207
3695.00,0.0206
3694.00,0.0206
3693.00,0.0206
3692.00,0.0206
3691.00,0.0208
3690.00,0.0209
3689.00,0.0209
3688.00,0.0207
3687.00,0.0207
3686.00,0.0207
3685.00,0.0208
3684.00,0.0208
3683.00,0.0208
3682.00,0.0208
3681.00,0.0207
3680.00,0.0205
3679.00,0.0205
3678.00,0.0205
3677.00,0.0207
3676.00,0.0207
3675.00,0.0206
3674.00,0.0207
3673.00,0.0209
3672.00,0.0210
3671.00,0.0210
3670.00,0.0208
3669.00,0.0206
3668.00,0.0206
3667.00,0.0207
3666.00,0.0208
3665.00,0.0209
3664.00,0.0209
3663.00,0.0210
3662.00,0.0210
3661.00,0.0210
3660.00,0.0209
3659.00,0.0209
3658.00,0.0210
3657.00,0.0210
3656.00,0.0209
3655.00,0.0209
3654.00,0.0209
3653.00,0.0208
3652.00,0.0206
3651.00,0.0206
3650.00,0.0209
3649.00,0.0210
3648.00,0.0209
3647.00,0.0208
3646.00,0.0209
3645.00,0.0211
3644.00,0.0212
3643.00,0.0213
3642.00,0.0213
3641.00,0.0213
3640.00,0.0213
3639.00,0.0212
3638.00,0.0212
3637.00,0.0212
3636.00,0.0212
3635.00,0.0212
3634.00,0.0211
3633.00,0.0211
3632.00,0.0212
3631.00,0.0213
3630.00,0.0214
3629.00,0.0215
3628.00,0.0214
3627.00,0.0214
3626.00,0.0215
3625.00,0.0215
3624.00,0.0215
3623.00,0.0214
3622.00,0.0215
3621.00,0.0215
3620.00,0.0215
3619.00,0.0215
3618.00,0.0215
3617.00,0.0215
3616.00,0.0216
3615.00,0.0216
3614.00,0.0215
3613.00,0.0215
3612.00,0.0215
3611.00,0.0216
3610.00,0.0217
3609.00,0.0218
3608.00,0.0218
3607.00,0.0218
3606.00,0.0218
3605.00,0.0218
3604.00,0.0218
3603.00,0.0218
3602.00,0.0218
3601.00,0.0218
3600.00,0.0218
3599.00,0.0218
3598.00,0.0218
3597.00,0.0218
3596.00,0.0218
3595.00,0.0219
3594.00,0.0219
3593.00,0.0219
3592.00,0.0219
3591.00,0.0219
3590.00,0.0219
3589.00,0.0219
3588.00,0.0219
3587.00,0.0219
3586.00,0.0218
3585.00,0.0219
3584.00,0.0220
3583.00,0.0220
3582.00,0.0220
3581.00,0.0221
3580.00,0.0221
3579.00,0.0221
3578.00,0.0222
3577.00,0.0222
3576.00,0.0222
3575.00,0.0222
3574.00,0.0222
3573.00,0.0222
3572.00,0.0221
3571.00,0.0221
3570.00,0.0220
3569.00,0.0220
3568.00,0.0221
3567.00,0.0221
3566.00,0.0222
3565.00,0.0222
3564.00,0.0223
3563.00,0.0223
3562.00,0.0223
3561.00,0.0223
3560.00,0.0223
3559.00,0.0223
3558.00,0.0223
3557.00,0.0223
3556.00,0.0223
3555.00,0.0223
3554.00,0.0223
3553.00,0.0223
3552.00,0.0224
3551.00,0.0224
3550.00,0.0225
3549.00,0.0225
3548.00,0.0225
3547.00,0.0225
3546.00,0.0226
3545.00,0.0226
3544.00,0.0226
3543.00,0.0226
3542.00,0.0226
3541.00,0.0226
3540.00,0.0226
3539.00,0.0226
3538.00,0.0226
3537.00,0.0226
3536.00,0.0226
3535.00,0.0227
3534.00,0.0227
3533.00,0.0227
3532.00,0.0226
3531.00,0.0226
3530.00,0.0226
3529.00,0.0226
3528.00,0.0227
3527.00,0.0227
3526.00,0.0227
3525.00,0.0227
3524.00,0.0227
3523.00,0.0227
3522.00,0.0227
3521.00,0.0227
3520.00,0.0227
3519.00,0.0227
3518.00,0.0227
3517.00,0.0227
3516.00,0.0228
3515.00,0.0228
3514.00,0.0228
3513.00,0.0228
3512.00,0.0228
3511.00,0.0228
3510.00,0.0228
3509.00,0.0228
3508.00,0.0228
3507.00,0.0228
3506.00,0.0228
3505.00,0.0228
3504.00,0.0229
3503.00,0.0229
3502.00,0.0230
3501.00,0.0230
3500.00,0.0230
3499.00,0.0230
3498.00,0.0230
3497.00,0.0231
3496.00,0.0231
3495.00,0.0232
3494.00,0.0231
3493.00,0.0231
3492.00,0.0231
3491.00,0.0231
3490.00,0.0230
3489.00,0.0230
3488.00,0.0230
3487.00,0.0230
3486.00,0.0231
3485.00,0.0231
3484.00,0.0232
3483.00,0.0232
3482.00,0.0231
3481.00,0.0231
3480.00,0.0231
3479.00,0.0232
3478.00,0.0232
3477.00,0.0232
3476.00,0.0232
3475.00,0.0232
3474.00,0.0232
3473.00,0.0232
3472.00,0.0232
3471.00,0.0232
3470.00,0.0232
3469.00,0.0232
3468.00,0.0233
3467.00,0.0233
3466.00,0.0233
3465.00,0.0233
3464.00,0.0233
3463.00,0.0233
3462.00,0.0233
3461.00,0.0233
3460.00,0.0233
3459.00,0.0233
3458.00,0.0233
3457.00,0.0233
3456.00,0.0233
3455.00,0.0234
3454.00,0.0234
3453.00,0.0234
3452.00,0.0234
3451.00,0.0234
3450.00,0.0235
3449.00,0.0235
3448.00,0.0235
3447.00,0.0235
3446.00,0.0236
3445.00,0.0236
3444.00,0.0236
3443.00,0.0236
3442.00,0.0235
3441.00,0.0235
3440.00,0.0235
3439.00,0.0235
3438.00,0.0235
3437.00,0.0235
3436.00,0.0235
3435.00,0.0235
3434.00,0.0235
3433.00,0.0235
3432.00,0.0235
3431.00,0.0236
3430.00,0.0236
3429.00,0.0236
3428.00,0.0236
3427.00,0.0236
3426.00,0.0236
3425.00,0.0236
3424.00,0.0237
3423.00,0.0237
3422.00,0.0237
3421.00,0.0237
3420.00,0.0237
3419.00,0.0237
3418.00,0.0237
3417.00,0.0237
3416.00,0.0236
3415.00,0.0236
3414.00,0.0236
3413.00,0.0236
3412.00,0.0237
3411.00,0.0237
3410.00,0.0237
3409.00,0.0237
3408.00,0.0237
3407.00,0.0237
3406.00,0.0237
3405.00,0.0237
3404.00,0.0238
3403.00,0.0238
3402.00,0.0238
3401.00,0.0239
3400.00,0.0238
3399.00,0.0238
3398.00,0.0238
3397.00,0.0237
3396.00,0.0237
3395.00,0.0238
3394.00,0.0238
3393.00,0.0238
3392.00,0.0238
3391.00,0.0238
3390.00,0.0239
3389.00,0.0239
3388.00,0.0239
3387.00,0.0240
3386.00,0.0240
3385.00,0.0240
3384.00,0.0239
3383.00,0.0239
3382.00,0.0239
3381.00,0.0239
3380.00,0.0239
3379.00,0.0240
3378.00,0.0240
3377.00,0.0240
3376.00,0.0240
3375.00,0.0240
3374.00,0.0240
3373.00,0.0240
3372.00,0.0240
3371.00,0.0239
3370.00,0.0239
3369.00,0.0239
3368.00,0.0239
3367.00,0.0239
3366.00,0.0240
3365.00,0.0241
3364.00,0.0241
3363.00,0.0241
3362.00,0.0240
3361.00,0.0240
3360.00,0.0240
3359.00,0.0239
3358.00,0.0239
3357.00,0.0240
3356.00,0.0240
3355.00,0.0240
3354.00,0.0240
3353.00,0.0241
3352.00,0.0242
3351.00,0.0242
3350.00,0.0242
3349.00,0.0242
3348.00,0.0242
3347.00,0.0241
3346.00,0.0241
3345.00,0.0241
3344.00,0.0240
3343.00,0.0240
3342.00,0.0241
3341.00,0.0241
3340.00,0.0241
3339.00,0.0241
3338.00,0.0241
3337.00,0.0241
3336.00,0.0241
3335.00,0.0241
3334.00,0.0241
3333.00,0.0241
3332.00,0.0241
3331.00,0.0241
3330.00,0.0241
3329.00,0.0241
3328.00,0.0241
3327.00,0.0241
3326.00,0.0242
3325.00,0.0242
3324.00,0.0242
3323.00,0.0241
3322.00,0.0241
3321.00,0.0241
3320.00,0.0241
3319.00,0.0241
3318.00,0.0241
3317.00,0.0241
3316.00,0.0241
3315.00,0.0241
3314.00,0.0241
3313.00,0.0241
3312.00,0.0241
3311.00,0.0241
3310.00,0.0242
3309.00,0.0242
3308.00,0.0242
3307.00,0.0242
3306.00,0.0242
3305.00,0.0242
3304.00,0.0242
3303.00,0.0242
3302.00,0.0242
3301.00,0.0242
3300.00,0.0242
3299.00,0.0243
3298.00,0.0243
3297.00,0.0243
3296.00,0.0242
3295.00,0.0242
3294.00,0.0243
3293.00,0.0243
3292.00,0.0243
3291.00,0.0243
3290.00,0.0243
3289.00,0.0242
3288.00,0.0242
3287.00,0.0242
3286.00,0.0243
3285.00,0.0242
3284.00,0.0242
3283.00,0.0242
3282.00,0.0242
3281.00,0.0242
3280.00,0.0242
3279.00,0.0242
3278.00,0.0242
3277.00,0.0242
3276.00,0.0243
3275.00,0.0243
3274.00,0.0243
3273.00,0.0243
3272.00,0.0243
3271.00,0.0243
3270.00,0.0243
3269.00,0.0243
3268.00,0.0243
3267.00,0.0243
3266.00,0.0243
3265.00,0.0243
3264.00,0.0242
3263.00,0.0242
3262.00,0.0241
3261.00,0.0241
3260.00,0.0241
3259.00,0.0242
3258.00,0.0242
3257.00,0.0242
3256.00,0.0242
3255.00,0.0242
3254.00,0.0242
3253.00,0.0243
3252.00,0.0243
3251.00,0.0243
3250.00,0.0243
3249.00,0.0244
3248.00,0.0244
3247.00,0.0244
3246.00,0.0244
3245.00,0.0244
3244.00,0.0243
3243.00,0.0243
3242.00,0.0243
3241.00,0.0243
3240.00,0.0243
3239.00,0.0243
3238.00,0.0243
3237.00,0.0243
3236.00,0.0243
3235.00,0.0243
3234.00,0.0243
3233.00,0.0242
3232.00,0.0242
3231.00,0.0243
3230.00,0.0243
3229.00,0.0243
3228.00,0.0243
3227.00,0.0243
3226.00,0.0243
3225.00,0.0243
3224.00,0.0243
3223.00,0.0243
3222.00,0.0243
3221.00,0.0243
3220.00,0.0243
3219.00,0.0243
3218.00,0.0243
3217.00,0.0242
3216.00,0.0242
3215.00,0.0242
3214.00,0.0242
3213.00,0.0242
3212.00,0.0242
3211.00,0.0242
3210.00,0.0243
3209.00,0.0243
3208.00,0.0243
3207.00,0.0243
3206.00,0.0243
3205.00,0.0243
3204.00,0.0243
3203.00,0.0243
3202.00,0.0242
3201.00,0.0242
3200.00,0.0242
3199.00,0.0242
3198.00,0.0243
3197.00,0.0242
3196.00,0.0242
3195.00,0.0242
3194.00,0.0242
3193.00,0.0242
3192.00,0.0242
3191.00,0.0242
3190.00,0.0242
3189.00,0.0242
3188.00,0.0242
3187.00,0.0242
3186.00,0.0242
3185.00,0.0242
3184.00,0.0242
3183.00,0.0241
3182.00,0.0241
3181.00,0.0241
3180.00,0.0241
3179.00,0.0241
3178.00,0.0241
3177.00,0.0241
3176.00,0.0241
3175.00,0.0241
3174.00,0.0241
3173.00,0.0241
3172.00,0.0241
3171.00,0.0242
3170.00,0.0242
3169.00,0.0242
3168.00,0.0242
3167.00,0.0241
3166.00,0.0241
3165.00,0.0241
3164.00,0.0241
3163.00,0.0241
3162.00,0.0241
3161.00,0.0241
3160.00,0.0241
3159.00,0.0241
3158.00,0.0241
3157.00,0.0240
3156.00,0.0240
3155.00,0.0240
3154.00,0.0239
3153.00,0.0239
3152.00,0.0239
3151.00,0.0239
3150.00,0.0240
3149.00,0.0240
3148.00,0.0240
3147.00,0.0240
3146.00,0.0240
3145.00,0.0240
3144.00,0.0240
3143.00,0.0239
3142.00,0.0239
3141.00,0.0239
3140.00,0.0239
3139.00,0.0240
3138.00,0.0240
3137.00,0.0240
3136.00,0.0239
3135.00,0.0239
3134.00,0.0239
3133.00,0.0239
3132.00,0.0239
3131.00,0.0239
3130.00,0.0239
3129.00,0.0239
3128.00,0.0239
3127.00,0.0239
3126.00,0.0239
3125.00,0.0239
3124.00,0.0238
3123.00,0.0238
3122.00,0.0237
3121.00,0.0237
3120.00,0.0238
3119.00,0.0238
3118.00,0.0239
3117.00,0.0239
3116.00,0.0239
3115.00,0.0238
3114.00,0.0238
3113.00,0.0238
3112.00,0.0238
3111.00,0.0237
3110.00,0.0237
3109.00,0.0237
3108.00,0.0236
3107.00,0.0236
3106.00,0.0236
3105.00,0.0237
3104.00,0.0237
3103.00,0.0236
3102.00,0.0236
3101.00,0.0236
3100.00,0.0236
3099.00,0.0236
3098.00,0.0236
3097.00,0.0236
3096.00,0.0236
3095.00,0.0236
3094.00,0.0236
3093.00,0.0236
3092.00,0.0236
3091.00,0.0236
3090.00,0.0236
3089.00,0.0236
3088.00,0.0236
3087.00,0.0236
3086.00,0.0236
3085.00,0.0236
3084.00,0.0236
3083.00,0.0235
3082.00,0.0235
3081.00,0.0235
3080.00,0.0236
3079.00,0.0235
3078.00,0.0235
3077.00,0.0235
3076.00,0.0235
3075.00,0.0235
3074.00,0.0235
3073.00,0.0234
3072.00,0.0234
3071.00,0.0234
3070.00,0.0233
3069.00,0.0233
3068.00,0.0234
3067.00,0.0234
3066.00,0.0234
3065.00,0.0234
3064.00,0.0234
3063.00,0.0234
3062.00,0.0234
3061.00,0.0234
3060.00,0.0234
3059.00,0.0234
3058.00,0.0234
3057.00,0.0233
3056.00,0.0233
3055.00,0.0233
3054.00,0.0233
3053.00,0.0233
3052.00,0.0233
3051.00,0.0233
3050.00,0.0233
3049.00,0.0233
3048.00,0.0233
3047.00,0.0233
3046.00,0.0233
3045.00,0.0233
3044.00,0.0233
3043.00,0.0233
3042.00,0.0232
3041.00,0.0232
3040.00,0.0232
3039.00,0.0232
3038.00,0.0232
3037.00,0.0232
3036.00,0.0232
3035.00,0.0232
3034.00,0.0231
3033.00,0.0231
3032.00,0.0230
3031.00,0.0230
3030.00,0.0230
3029.00,0.0230
3028.00,0.0230
3027.00,0.0230
3026.00,0.0230
3025.00,0.0230
3024.00,0.0230
3023.00,0.0229
3022.00,0.0229
3021.00,0.0229
3020.00,0.0229
3019.00,0.0229
3018.00,0.0229
3017.00,0.0229
3016.00,0.0229
3015.00,0.0229
3014.00,0.0229
3013.00,0.0229
3012.00,0.0229
3011.00,0.0228
3010.00,0.0227
3009.00,0.0226
3008.00,0.0226
3007.00,0.0225
3006.00,0.0225
3005.00,0.0225
3004.00,0.0225
3003.00,0.0225
3002.00,0.0225
3001.00,0.0225
3000.00,0.0224
2999.00,0.0224
2998.00,0.0223
2997.00,0.0222
2996.00,0.0222
2995.00,0.0222
2994.00,0.0222
2993.00,0.0222
2992.00,0.0221
2991.00,0.0221
2990.00,0.0220
2989.00,0.0220
2988.00,0.0219
2987.00,0.0219
2986.00,0.0218
2985.00,0.0217
2984.00,0.0216
2983.00,0.0215
2982.00,0.0214
2981.00,0.0214
2980.00,0.0214
2979.00,0.0215
2978.00,0.0215
2977.00,0.0216
2976.00,0.0216
2975.00,0.0216
2974.00,0.0216
2973.00,0.0215
2972.00,0.0215
2971.00,0.0214
2970.00,0.0214
2969.00,0.0214
2968.00,0.0214
2967.00,0.0214
2966.00,0.0214
2965.00,0.0214
2964.00,0.0214
2963.00,0.0213
2962.00,0.0213
2961.00,0.0213
2960.00,0.0213
2959.00,0.0212
2958.00,0.0212
2957.00,0.0212
2956.00,0.0212
2955.00,0.0212
2954.00,0.0213
2953.00,0.0213
2952.00,0.0214
2951.00,0.0214
2950.00,0.0215
2949.00,0.0215
2948.00,0.0214
2947.00,0.0214
2946.00,0.0214
2945.00,0.0214
2944.00,0.0214
2943.00,0.0213
2942.00,0.0213
2941.00,0.0212
2940.00,0.0211
2939.00,0.0210
2938.00,0.0210
2937.00,0.0209
2936.00,0.0208
2935.00,0.0207
2934.00,0.0206
2933.00,0.0205
2932.00,0.0204
2931.00,0.0204
2930.00,0.0203
2929.00,0.0202
2928.00,0.0201
2927.00,0.0201
2926.00,0.0200
2925.00,0.0200
2924.00,0.0200
2923.00,0.0200
2922.00,0.0201
2921.00,0.0201
2920.00,0.0201
2919.00,0.0201
2918.00,0.0201
2917.00,0.0202
2916.00,0.0203
2915.00,0.0204
2914.00,0.0206
2913.00,0.0207
2912.00,0.0208
2911.00,0.0209
2910.00,0.0209
2909.00,0.0210
2908.00,0.0211
2907.00,0.0211
2906.00,0.0212
2905.00,0.0212
2904.00,0.0212
2903.00,0.0212
2902.00,0.0212
2901.00,0.0213
2900.00,0.0213
2899.00,0.0213
2898.00,0.0213
2897.00,0.0213
2896.00,0.0213
2895.00,0.0213
2894.00,0.0213
2893.00,0.0213
2892.00,0.0213
2891.00,0.0213
2890.00,0.0214
2889.00,0.0214
2888.00,0.0214
2887.00,0.0215
2886.00,0.0215
2885.00,0.0215
2884.00,0.0215
2883.00,0.0215
2882.00,0.0214
2881.00,0.0215
2880.00,0.0215
2879.00,0.0215
2878.00,0.0215
2877.00,0.0215
2876.00,0.0215
2875.00,0.0214
2874.00,0.0214
2873.00,0.0214
2872.00,0.0213
2871.00,0.0213
2870.00,0.0212
2869.00,0.0212
2868.00,0.0211
2867.00,0.0211
2866.00,0.0211
2865.00,0.0210
2864.00,0.0210
2863.00,0.0210
2862.00,0.0210
2861.00,0.0210
2860.00,0.0209
2859.00,0.0209
2858.00,0.0208
2857.00,0.0207
2856.00,0.0207
2855.00,0.0206
2854.00,0.0206
2853.00,0.0205
2852.00,0.0205
2851.00,0.0206
2850.00,0.0207
2849.00,0.0208
2848.00,0.0209
2847.00,0.0210
2846.00,0.0211
2845.00,0.0212
2844.00,0.0213
2843.00,0.0214
2842.00,0.0214
2841.00,0.0215
2840.00,0.0215
2839.00,0.0216
2838.00,0.0216
2837.00,0.0216
2836.00,0.0216
2835.00,0.0215
2834.00,0.0215
2833.00,0.0215
2832.00,0.0215
2831.00,0.0215
2830.00,0.0216
2829.00,0.0216
2828.00,0.0216
2827.00,0.0216
2826.00,0.0216
2825.00,0.0215
2824.00,0.0216
2823.00,0.0216
2822.00,0.0216
2821.00,0.0216
2820.00,0.0216
2819.00,0.0216
2818.00,0.0215
2817.00,0.0216
2816.00,0.0216
2815.00,0.0216
2814.00,0.0216
2813.00,0.0216
2812.00,0.0216
2811.00,0.0216
2810.00,0.0216
2809.00,0.0215
2808.00,0.0215
2807.00,0.0215
2806.00,0.0215
2805.00,0.0214
2804.00,0.0214
2803.00,0.0214
2802.00,0.0214
2801.00,0.0214
2800.00,0.0214
2799.00,0.0214
2798.00,0.0214
2797.00,0.0214
2796.00,0.0215
2795.00,0.0215
2794.00,0.0214
2793.00,0.0214
2792.00,0.0214
2791.00,0.0214
2790.00,0.0214
2789.00,0.0214
2788.00,0.0214
2787.00,0.0214
2786.00,0.0214
2785.00,0.0213
2784.00,0.0213
2783.00,0.0214
2782.00,0.0214
2781.00,0.0213
2780.00,0.0213
2779.00,0.0213
2778.00,0.0213
2777.00,0.0213
2776.00,0.0213
2775.00,0.0213
2774.00,0.0213
2773.00,0.0213
2772.00,0.0213
2771.00,0.0213
2770.00,0.0213
2769.00,0.0213
2768.00,0.0213
2767.00,0.0213
2766.00,0.0213
2765.00,0.0213
2764.00,0.0213
2763.00,0.0213
2762.00,0.0213
2761.00,0.0212
2760.00,0.0212
2759.00,0.0212
2758.00,0.0212
2757.00,0.0212
2756.00,0.0212
2755.00,0.0212
2754.00,0.0212
2753.00,0.0212
2752.00,0.0212
2751.00,0.0212
2750.00,0.0212
2749.00,0.0212
2748.00,0.0212
2747.00,0.0212
2746.00,0.0212
2745.00,0.0211
2744.00,0.0211
2743.00,0.0211
2742.00,0.0211
2741.00,0.0211
2740.00,0.0211
2739.00,0.0211
2738.00,0.0211
2737.00,0.0211
2736.00,0.0211
2735.00,0.0211
2734.00,0.0211
2733.00,0.0211
2732.00,0.0211
2731.00,0.0211
2730.00,0.0211
2729.00,0.0211
2728.00,0.0211
2727.00,0.0211
2726.00,0.0210
2725.00,0.0210
2724.00,0.0210
2723.00,0.0210
2722.00,0.0211
2721.00,0.0211
2720.00,0.0211
2719.00,0.0211
2718.00,0.0211
2717.00,0.0211
2716.00,0.0211
2715.00,0.0211
2714.00,0.0210
2713.00,0.0210
2712.00,0.0210
2711.00,0.0210
2710.00,0.0210
2709.00,0.0210
2708.00,0.0210
2707.00,0.0210
2706.00,0.0210
2705.00,0.0210
2704.00,0.0210
2703.00,0.0209
2702.00,0.0209
2701.00,0.0209
2700.00,0.0209
2699.00,0.0210
2698.00,0.0210
2697.00,0.0210
2696.00,0.0210
2695.00,0.0210
2694.00,0.0210
2693.00,0.0209
2692.00,0.0209
2691.00,0.0209
2690.00,0.0209
2689.00,0.0209
2688.00,0.0209
2687.00,0.0209
2686.00,0.0209
2685.00,0.0209
2684.00,0.0209
2683.00,0.0209
2682.00,0.0209
2681.00,0.0209
2680.00,0.0209
2679.00,0.0209
2678.00,0.0209
2677.00,0.0209
2676.00,0.0209
2675.00,0.0209
2674.00,0.0209
2673.00,0.0209
2672.00,0.0209
2671.00,0.0209
2670.00,0.0209
2669.00,0.0209
2668.00,0.0209
2667.00,0.0209
2666.00,0.0210
2665.00,0.0210
2664.00,0.0210
2663.00,0.0210
2662.00,0.0210
2661.00,0.0210
2660.00,0.0210
2659.00,0.0210
2658.00,0.0210
2657.00,0.0210
2656.00,0.0210
2655.00,0.0211
2654.00,0.0211
2653.00,0.0211
2652.00,0.0211
2651.00,0.0210
2650.00,0.0210
2649.00,0.0210
2648.00,0.0210
2647.00,0.0210
2646.00,0.0210
2645.00,0.0210
2644.00,0.0210
2643.00,0.0210
2642.00,0.0210
2641.00,0.0210
2640.00,0.0210
2639.00,0.0210
2638.00,0.0210
2637.00,0.0210
2636.00,0.0210
2635.00,0.0211
2634.00,0.0211
2633.00,0.0211
2632.00,0.0211
2631.00,0.0211
2630.00,0.0211
2629.00,0.0211
2628.00,0.0212
2627.00,0.0212
2626.00,0.0212
2625.00,0.0212
2624.00,0.0212
2623.00,0.0212
2622.00,0.0212
2621.00,0.0211
2620.00,0.0211
2619.00,0.0211
2618.00,0.0211
2617.00,0.0211
2616.00,0.0211
2615.00,0.0212
2614.00,0.0212
2613.00,0.0212
2612.00,0.0212
2611.00,0.0212
2610.00,0.0211
2609.00,0.0212
2608.00,0.0212
2607.00,0.0212
2606.00,0.0212
2605.00,0.0213
2604.00,0.0212
2603.00,0.0212
2602.00,0.0212
2601.00,0.0212
2600.00,0.0212
2599.00,0.0212
2598.00,0.0212
2597.00,0.0212
2596.00,0.0212
2595.00,0.0212
2594.00,0.0212
2593.00,0.0212
2592.00,0.0212
2591.00,0.0212
2590.00,0.0212
2589.00,0.0212
2588.00,0.0212
2587.00,0.0212
2586.00,0.0212
2585.00,0.0211
2584.00,0.0211
2583.00,0.0211
2582.00,0.0212
2581.00,0.0212
2580.00,0.0213
2579.00,0.0213
2578.00,0.0213
2577.00,0.0212
2576.00,0.0212
2575.00,0.0213
2574.00,0.0213
2573.00,0.0213
2572.00,0.0213
2571.00,0.0213
2570.00,0.0213
2569.00,0.0213
2568.00,0.0213
2567.00,0.0213
2566.00,0.0214
2565.00,0.0214
2564.00,0.0213
2563.00,0.0213
2562.00,0.0212
2561.00,0.0212
2560.00,0.0211
2559.00,0.0211
2558.00,0.0212
2557.00,0.0212
2556.00,0.0212
2555.00,0.0212
2554.00,0.0212
2553.00,0.0212
2552.00,0.0212
2551.00,0.0212
2550.00,0.0213
2549.00,0.0213
2548.00,0.0212
2547.00,0.0212
2546.00,0.0212
2545.00,0.0212
2544.00,0.0212
2543.00,0.0212
2542.00,0.0212
2541.00,0.0212
2540.00,0.0212
2539.00,0.0213
2538.00,0.0213
2537.00,0.0213
2536.00,0.0212
2535.00,0.0212
2534.00,0.0212
2533.00,0.0211
2532.00,0.0211
2531.00,0.0211
2530.00,0.0211
2529.00,0.0211
2528.00,0.0211
2527.00,0.0211
2526.00,0.0212
2525.00,0.0212
2524.00,0.0212
2523.00,0.0212
2522.00,0.0212
2521.00,0.0212
2520.00,0.0212
2519.00,0.0212
2518.00,0.0211
2517.00,0.0211
2516.00,0.0211
2515.00,0.0212
2514.00,0.0212
2513.00,0.0212
2512.00,0.0212
2511.00,0.0212
2510.00,0.0211
2509.00,0.0211
2508.00,0.0210
2507.00,0.0210
2506.00,0.0210
2505.00,0.0210
2504.00,0.0211
2503.00,0.0211
2502.00,0.0211
2501.00,0.0211
2500.00,0.0212
2499.00,0.0212
2498.00,0.0212
2497.00,0.0212
2496.00,0.0212
2495.00,0.0212
2494.00,0.0213
2493.00,0.0212
2492.00,0.0212
2491.00,0.0212
2490.00,0.0212
2489.00,0.0212
2488.00,0.0212
2487.00,0.0212
2486.00,0.0211
2485.00,0.0211
2484.00,0.0211
2483.00,0.0211
2482.00,0.0211
2481.00,0.0212
2480.00,0.0212
2479.00,0.0212
2478.00,0.0212
2477.00,0.0212
2476.00,0.0212
2475.00,0.0212
2474.00,0.0212
2473.00,0.0211
2472.00,0.0211
2471.00,0.0211
2470.00,0.0212
2469.00,0.0212
2468.00,0.0212
2467.00,0.0212
2466.00,0.0212
2465.00,0.0212
2464.00,0.0211
2463.00,0.0211
2462.00,0.0211
2461.00,0.0212
2460.00,0.0212
2459.00,0.0211
2458.00,0.0211
2457.00,0.0211
2456.00,0.0211
2455.00,0.0211
2454.00,0.0211
2453.00,0.0211
2452.00,0.0212
2451.00,0.0212
2450.00,0.0212
2449.00,0.0212
2448.00,0.0211
2447.00,0.0211
2446.00,0.0211
2445.00,0.0211
2444.00,0.0211
2443.00,0.0211
2442.00,0.0212
2441.00,0.0212
2440.00,0.0212
2439.00,0.0212
2438.00,0.0211
2437.00,0.0211
2436.00,0.0211
2435.00,0.0211
2434.00,0.0211
2433.00,0.0211
2432.00,0.0211
2431.00,0.0211
2430.00,0.0211
2429.00,0.0210
2428.00,0.0210
2427.00,0.0210
2426.00,0.0211
2425.00,0.0211
2424.00,0.0210
2423.00,0.0210
2422.00,0.0210
2421.00,0.0210
2420.00,0.0210
2419.00,0.0210
2418.00,0.0210
2417.00,0.0210
2416.00,0.0210
2415.00,0.0210
2414.00,0.0210
2413.00,0.0211
2412.00,0.0210
2411.00,0.0210
2410.00,0.0209
2409.00,0.0209
2408.00,0.0209
2407.00,0.0209
2406.00,0.0209
2405.00,0.0209
2404.00,0.0209
2403.00,0.0209
2402.00,0.0209
2401.00,0.0209
2400.00,0.0209
2399.00,0.0209
2398.00,0.0209
2397.00,0.0209
2396.00,0.0209
2395.00,0.0209
2394.00,0.0209
2393.00,0.0209
2392.00,0.0208
2391.00,0.0208
2390.00,0.0207
2389.00,0.0207
2388.00,0.0207
2387.00,0.0206
2386.00,0.0205
2385.00,0.0204
2384.00,0.0203
2383.00,0.0202
2382.00,0.0201
2381.00,0.0201
2380.00,0.0200
2379.00,0.0200
2378.00,0.0200
2377.00,0.0200
2376.00,0.0201
2375.00,0.0203
2374.00,0.0204
2373.00,0.0205
2372.00,0.0206
2371.00,0.0207
2370.00,0.0207
2369.00,0.0206
2368.00,0.0205
2367.00,0.0204
2366.00,0.0203
2365.00,0.0204
2364.00,0.0204
2363.00,0.0204
2362.00,0.0204
2361.00,0.0205
2360.00,0.0207
2359.00,0.0208
2358.00,0.0209
2357.00,0.0209
2356.00,0.0208
2355.00,0.0207
2354.00,0.0205
2353.00,0.0205
2352.00,0.0205
2351.00,0.0207
2350.00,0.0208
2349.00,0.0206
2348.00,0.0202
2347.00,0.0198
2346.00,0.0197
2345.00,0.0200
2344.00,0.0202
2343.00,0.0204
2342.00,0.0205
2341.00,0.0206
2340.00,0.0206
2339.00,0.0207
2338.00,0.0207
2337.00,0.0207
2336.00,0.0206
2335.00,0.0207
2334.00,0.0207
2333.00,0.0208
2332.00,0.0208
2331.00,0.0208
2330.00,0.0208
2329.00,0.0208
2328.00,0.0209
2327.00,0.0210
2326.00,0.0210
2325.00,0.0209
2324.00,0.0208
2323.00,0.0208
2322.00,0.0209
2321.00,0.0210
2320.00,0.0210
2319.00,0.0211
2318.00,0.0211
2317.00,0.0210
2316.00,0.0210
2315.00,0.0209
2314.00,0.0209
2313.00,0.0209
2312.00,0.0210
2311.00,0.0210
2310.00,0.0210
2309.00,0.0210
2308.00,0.0211
2307.00,0.0211
2306.00,0.0211
2305.00,0.0211
2304.00,0.0210
2303.00,0.0209
2302.00,0.0208
2301.00,0.0208
2300.00,0.0208
2299.00,0.0208
2298.00,0.0208
2297.00,0.0208
2296.00,0.0208
2295.00,0.0208
2294.00,0.0209
2293.00,0.0210
2292.00,0.0211
2291.00,0.0211
2290.00,0.0211
2289.00,0.0212
2288.00,0.0212
2287.00,0.0212
2286.00,0.0212
2285.00,0.0211
2284.00,0.0211
2283.00,0.0210
2282.00,0.0210
2281.00,0.0210
2280.00,0.0209
2279.00,0.0208
2278.00,0.0208
2277.00,0.0207
2276.00,0.0207
2275.00,0.0207
2274.00,0.0207
2273.00,0.0208
2272.00,0.0208
2271.00,0.0208
2270.00,0.0209
2269.00,0.0209
2268.00,0.0209
2267.00,0.0209
2266.00,0.0209
2265.00,0.0210
2264.00,0.0210
2263.00,0.0210
2262.00,0.0211
2261.00,0.0211
2260.00,0.0211
2259.00,0.0210
2258.00,0.0209
2257.00,0.0208
2256.00,0.0208
2255.00,0.0207
2254.00,0.0208
2253.00,0.0208
2252.00,0.0208
2251.00,0.0208
2250.00,0.0208
2249.00,0.0208
2248.00,0.0209
2247.00,0.0209
2246.00,0.0209
2245.00,0.0209
2244.00,0.0209
2243.00,0.0209
2242.00,0.0210
2241.00,0.0209
2240.00,0.0209
2239.00,0.0209
2238.00,0.0210
2237.00,0.0210
2236.00,0.0210
2235.00,0.0210
2234.00,0.0210
2233.00,0.0211
2232.00,0.0211
2231.00,0.0211
2230.00,0.0211
2229.00,0.0210
2228.00,0.0209
2227.00,0.0208
2226.00,0.0207
2225.00,0.0207
2224.00,0.0208
2223.00,0.0208
2222.00,0.0209
2221.00,0.0209
2220.00,0.0210
2219.00,0.0210
2218.00,0.0210
2217.00,0.0209
2216.00,0.0208
2215.00,0.0208
2214.00,0.0209
2213.00,0.0210
2212.00,0.0211
2211.00,0.0211
2210.00,0.0211
2209.00,0.0210
2208.00,0.0210
2207.00,0.0209
2206.00,0.0209
2205.00,0.0209
2204.00,0.0209
2203.00,0.0208
2202.00,0.0209
2201.00,0.0209
2200.00,0.0211
2199.00,0.0213
2198.00,0.0214
2197.00,0.0213
2196.00,0.0212
2195.00,0.0211
2194.00,0.0210
2193.00,0.0210
2192.00,0.0210
2191.00,0.0209
2190.00,0.0209
2189.00,0.0210
2188.00,0.0211
2187.00,0.0213
2186.00,0.0213
2185.00,0.0212
2184.00,0.0211
2183.00,0.0209
2182.00,0.0209
2181.00,0.0210
2180.00,0.0210
2179.00,0.0210
2178.00,0.0210
2177.00,0.0210
2176.00,0.0209
2175.00,0.0209
2174.00,0.0210
2173.00,0.0210
2172.00,0.0211
2171.00,0.0212
2170.00,0.0213
2169.00,0.0214
2168.00,0.0213
2167.00,0.0211
2166.00,0.0210
2165.00,0.0210
2164.00,0.0212
2163.00,0.0213
2162.00,0.0213
2161.00,0.0211
2160.00,0.0207
2159.00,0.0205
2158.00,0.0205
2157.00,0.0206
2156.00,0.0206
2155.00,0.0205
2154.00,0.0204
2153.00,0.0202
2152.00,0.0202
2151.00,0.0201
2150.00,0.0201
2149.00,0.0202
2148.00,0.0203
2147.00,0.0204
2146.00,0.0205
2145.00,0.0206
2144.00,0.0206
2143.00,0.0206
2142.00,0.0206
2141.00,0.0205
2140.00,0.0205
2139.00,0.0205
2138.00,0.0204
2137.00,0.0203
2136.00,0.0201
2135.00,0.0199
2134.00,0.0199
2133.00,0.0200
2132.00,0.0201
2131.00,0.0202
2130.00,0.0202
2129.00,0.0202
2128.00,0.0203
2127.00,0.0203
2126.00,0.0203
2125.00,0.0203
2124.00,0.0202
2123.00,0.0201
2122.00,0.0201
2121.00,0.0201
2120.00,0.0202
2119.00,0.0203
2118.00,0.0203
2117.00,0.0203
2116.00,0.0203
2115.00,0.0203
2114.00,0.0203
2113.00,0.0203
2112.00,0.0203
2111.00,0.0204
2110.00,0.0204
2109.00,0.0205
2108.00,0.0205
2107.00,0.0204
2106.00,0.0204
2105.00,0.0204
2104.00,0.0204
2103.00,0.0203
2102.00,0.0203
2101.00,0.0203
2100.00,0.0203
2099.00,0.0203
2098.00,0.0203
2097.00,0.0203
2096.00,0.0202
2095.00,0.0202
2094.00,0.0203
2093.00,0.0203
2092.00,0.0203
2091.00,0.0202
2090.00,0.0202
2089.00,0.0201
2088.00,0.0201
2087.00,0.0201
2086.00,0.0201
2085.00,0.0201
2084.00,0.0201
2083.00,0.0200
2082.00,0.0199
2081.00,0.0198
2080.00,0.0199
2079.00,0.0200
2078.00,0.0202
2077.00,0.0203
2076.00,0.0203
2075.00,0.0203
2074.00,0.0202
2073.00,0.0202
2072.00,0.0202
2071.00,0.0201
2070.00,0.0201
2069.00,0.0200
2068.00,0.0200
2067.00,0.0199
2066.00,0.0199
2065.00,0.0199
2064.00,0.0199
2063.00,0.0199
2062.00,0.0199
2061.00,0.0199
2060.00,0.0198
2059.00,0.0198
2058.00,0.0198
2057.00,0.0198
2056.00,0.0199
2055.00,0.0199
2054.00,0.0200
2053.00,0.0201
2052.00,0.0202
2051.00,0.0203
2050.00,0.0203
2049.00,0.0203
2048.00,0.0202
2047.00,0.0201
2046.00,0.0201
2045.00,0.0202
2044.00,0.0204
2043.00,0.0204
2042.00,0.0205
2041.00,0.0205
2040.00,0.0205
2039.00,0.0205
2038.00,0.0206
2037.00,0.0207
2036.00,0.0208
2035.00,0.0207
2034.00,0.0206
2033.00,0.0206
2032.00,0.0205
2031.00,0.0204
2030.00,0.0204
2029.00,0.0204
2028.00,0.0203
2027.00,0.0202
2026.00,0.0201
2025.00,0.0200
2024.00,0.0199
2023.00,0.0198
2022.00,0.0199
2021.00,0.0199
2020.00,0.0200
2019.00,0.0200
2018.00,0.0200
2017.00,0.0201
2016.00,0.0201
2015.00,0.0203
2014.00,0.0204
2013.00,0.0205
2012.00,0.0205
2011.00,0.0204
2010.00,0.0202
2009.00,0.0201
2008.00,0.0199
2007.00,0.0198
2006.00,0.0198
2005.00,0.0199
2004.00,0.0200
2003.00,0.0200
2002.00,0.0200
2001.00,0.0200
2000.00,0.0201
1999.00,0.0201
1998.00,0.0202
1997.00,0.0203
1996.00,0.0204
1995.00,0.0204
1994.00,0.0204
1993.00,0.0205
1992.00,0.0205
1991.00,0.0205
1990.00,0.0205
1989.00,0.0203
1988.00,0.0201
1987.00,0.0200
1986.00,0.0200
1985.00,0.0202
1984.00,0.0204
1983.00,0.0205
1982.00,0.0206
1981.00,0.0206
1980.00,0.0205
1979.00,0.0204
1978.00,0.0202
1977.00,0.0202
1976.00,0.0201
1975.00,0.0201
1974.00,0.0200
1973.00,0.0200
1972.00,0.0200
1971.00,0.0200
1970.00,0.0200
1969.00,0.0200
1968.00,0.0199
1967.00,0.0198
1966.00,0.0197
1965.00,0.0197
1964.00,0.0198
1963.00,0.0199
1962.00,0.0199
1961.00,0.0200
1960.00,0.0199
1959.00,0.0198
1958.00,0.0197
1957.00,0.0196
1956.00,0.0195
1955.00,0.0195
1954.00,0.0194
1953.00,0.0194
1952.00,0.0194
1951.00,0.0194
1950.00,0.0194
1949.00,0.0194
1948.00,0.0194
1947.00,0.0194
1946.00,0.0194
1945.00,0.0195
1944.00,0.0195
1943.00,0.0195
1942.00,0.0195
1941.00,0.0194
1940.00,0.0192
1939.00,0.0191
1938.00,0.0191
1937.00,0.0191
1936.00,0.0192
1935.00,0.0193
1934.00,0.0193
1933.00,0.0193
1932.00,0.0192
1931.00,0.0191
1930.00,0.0191
1929.00,0.0191
1928.00,0.0191
1927.00,0.0191
1926.00,0.0191
1925.00,0.0191
1924.00,0.0190
1923.00,0.0190
1922.00,0.0189
1921.00,0.0189
1920.00,0.0190
1919.00,0.0190
1918.00,0.0190
1917.00,0.0190
1916.00,0.0190
1915.00,0.0189
1914.00,0.0189
1913.00,0.0189
1912.00,0.0188
1911.00,0.0188
1910.00,0.0188
1909.00,0.0188
1908.00,0.0187
1907.00,0.0187
1906.00,0.0188
1905.00,0.0188
1904.00,0.0188
1903.00,0.0187
1902.00,0.0187
1901.00,0.0187
1900.00,0.0186
1899.00,0.0186
1898.00,0.0185
1897.00,0.0185
1896.00,0.0185
1895.00,0.0184
1894.00,0.0185
1893.00,0.0185
1892.00,0.0185
1891.00,0.0185
1890.00,0.0184
1889.00,0.0184
1888.00,0.0184
1887.00,0.0184
1886.00,0.0184
1885.00,0.0184
1884.00,0.0183
1883.00,0.0183
1882.00,0.0183
1881.00,0.0183
1880.00,0.0183
1879.00,0.0182
1878.00,0.0182
1877.00,0.0183
1876.00,0.0183
1875.00,0.0183
1874.00,0.0183
1873.00,0.0183
1872.00,0.0183
1871.00,0.0183
1870.00,0.0183
1869.00,0.0183
1868.00,0.0181
1867.00,0.0181
1866.00,0.0181
1865.00,0.0182
1864.00,0.0182
1863.00,0.0182
1862.00,0.0181
1861.00,0.0181
1860.00,0.0180
1859.00,0.0180
1858.00,0.0180
1857.00,0.0180
1856.00,0.0180
1855.00,0.0180
1854.00,0.0179
1853.00,0.0179
1852.00,0.0180
1851.00,0.0180
1850.00,0.0180
1849.00,0.0180
1848.00,0.0180
1847.00,0.0180
1846.00,0.0179
1845.00,0.0179
1844.00,0.0178
1843.00,0.0177
1842.00,0.0177
1841.00,0.0177
1840.00,0.0176
1839.00,0.0176
1838.00,0.0175
1837.00,0.0175
1836.00,0.0175
1835.00,0.0175
1834.00,0.0176
1833.00,0.0176
1832.00,0.0176
1831.00,0.0176
1830.00,0.0175
1829.00,0.0174
1828.00,0.0174
1827.00,0.0174
1826.00,0.0173
1825.00,0.0173
1824.00,0.0173
1823.00,0.0173
1822.00,0.0173
1821.00,0.0173
1820.00,0.0173
1819.00,0.0173
1818.00,0.0173
1817.00,0.0173
1816.00,0.0172
1815.00,0.0172
1814.00,0.0171
1813.00,0.0171
1812.00,0.0170
1811.00,0.0170
1810.00,0.0170
1809.00,0.0170
1808.00,0.0171
1807.00,0.0170
1806.00,0.0170
1805.00,0.0170
1804.00,0.0170
1803.00,0.0170
1802.00,0.0169
1801.00,0.0169
1800.00,0.0169
1799.00,0.0169
1798.00,0.0170
1797.00,0.0170
1796.00,0.0171
1795.00,0.0171
1794.00,0.0171
1793.00,0.0171
1792.00,0.0170
1791.00,0.0168
1790.00,0.0167
1789.00,0.0168
1788.00,0.0168
1787.00,0.0168
1786.00,0.0168
1785.00,0.0168
1784.00,0.0168
1783.00,0.0168
1782.00,0.0167
1781.00,0.0167
1780.00,0.0167
1779.00,0.0168
1778.00,0.0168
1777.00,0.0169
1776.00,0.0170
1775.00,0.0170
1774.00,0.0170
1773.00,0.0170
1772.00,0.0170
1771.00,0.0170
1770.00,0.0170
1769.00,0.0171
1768.00,0.0171
1767.00,0.0171
1766.00,0.0171
1765.00,0.0171
1764.00,0.0172
1763.00,0.0171
1762.00,0.0170
1761.00,0.0170
1760.00,0.0171
1759.00,0.0171
1758.00,0.0171
1757.00,0.0170
1756.00,0.0170
1755.00,0.0171
1754.00,0.0172
1753.00,0.0173
1752.00,0.0174
1751.00,0.0174
1750.00,0.0174
1749.00,0.0173
1748.00,0.0172
1747.00,0.0172
1746.00,0.0172
1745.00,0.0172
1744.00,0.0173
1743.00,0.0173
1742.00,0.0174
1741.00,0.0175
1740.00,0.0176
1739.00,0.0176
1738.00,0.0177
1737.00,0.0178
1736.00,0.0179
1735.00,0.0180
1734.00,0.0181
1733.00,0.0181
1732.00,0.0181
1731.00,0.0181
1730.00,0.0181
1729.00,0.0181
1728.00,0.0182
1727.00,0.0183
1726.00,0.0183
1725.00,0.0184
1724.00,0.0185
1723.00,0.0185
1722.00,0.0186
1721.00,0.0186
1720.00,0.0185
1719.00,0.0184
1718.00,0.0184
1717.00,0.0185
1716.00,0.0185
1715.00,0.0185
1714.00,0.0186
1713.00,0.0186
1712.00,0.0187
1711.00,0.0187
1710.00,0.0187
1709.00,0.0188
1708.00,0.0188
1707.00,0.0188
1706.00,0.0188
1705.00,0.0189
1704.00,0.0190
1703.00,0.0191
1702.00,0.0192
1701.00,0.0194
1700.00,0.0195
1699.00,0.0195
1698.00,0.0195
1697.00,0.0195
1696.00,0.0192
1695.00,0.0191
1694.00,0.0191
1693.00,0.0192
1692.00,0.0192
1691.00,0.0192
1690.00,0.0192
1689.00,0.0193
1688.00,0.0193
1687.00,0.0193
1686.00,0.0192
1685.00,0.0192
1684.00,0.0191
1683.00,0.0191
1682.00,0.0192
1681.00,0.0193
1680.00,0.0194
1679.00,0.0194
1678.00,0.0195
1677.00,0.0196
1676.00,0.0197
1675.00,0.0198
1674.00,0.0198
1673.00,0.0199
1672.00,0.0199
1671.00,0.0199
1670.00,0.0199
1669.00,0.0200
1668.00,0.0200
1667.00,0.0201
1666.00,0.0201
1665.00,0.0201
1664.00,0.0202
1663.00,0.0202
1662.00,0.0203
1661.00,0.0204
1660.00,0.0206
1659.00,0.0207
1658.00,0.0207
1657.00,0.0207
1656.00,0.0207
1655.00,0.0206
1654.00,0.0208
1653.00,0.0210
1652.00,0.0210
1651.00,0.0210
1650.00,0.0211
1649.00,0.0210
1648.00,0.0210
1647.00,0.0212
1646.00,0.0213
1645.00,0.0215
1644.00,0.0216
1643.00,0.0216
1642.00,0.0216
1641.00,0.0217
1640.00,0.0217
1639.00,0.0217
1638.00,0.0218
1637.00,0.0219
1636.00,0.0221
1635.00,0.0222
1634.00,0.0223
1633.00,0.0225
1632.00,0.0225
1631.00,0.0226
1630.00,0.0226
1629.00,0.0227
1628.00,0.0228
1627.00,0.0229
1626.00,0.0230
1625.00,0.0231
1624.00,0.0232
1623.00,0.0234
1622.00,0.0235
1621.00,0.0235
1620.00,0.0236
1619.00,0.0236
1618.00,0.0238
1617.00,0.0239
1616.00,0.0240
1615.00,0.0241
1614.00,0.0241
1613.00,0.0242
1612.00,0.0242
1611.00,0.0243
1610.00,0.0245
1609.00,0.0246
1608.00,0.0247
1607.00,0.0248
1606.00,0.0248
1605.00,0.0248
1604.00,0.0249
1603.00,0.0250
1602.00,0.0251
1601.00,0.0251
1600.00,0.0251
1599.00,0.0252
1598.00,0.0252
1597.00,0.0253
1596.00,0.0253
1595.00,0.0254
1594.00,0.0254
1593.00,0.0254
1592.00,0.0254
1591.00,0.0255
1590.00,0.0255
1589.00,0.0256
1588.00,0.0256
1587.00,0.0256
1586.00,0.0256
1585.00,0.0257
1584.00,0.0257
1583.00,0.0257
1582.00,0.0257
1581.00,0.0257
1580.00,0.0256
1579.00,0.0256
1578.00,0.0256
1577.00,0.0257
1576.00,0.0258
1575.00,0.0258
1574.00,0.0258
1573.00,0.0257
1572.00,0.0256
1571.00,0.0256
1570.00,0.0256
1569.00,0.0257
1568.00,0.0256
1567.00,0.0256
1566.00,0.0256
1565.00,0.0255
1564.00,0.0255
1563.00,0.0254
1562.00,0.0253
1561.00,0.0250
1560.00,0.0250
1559.00,0.0256
1558.00,0.0256
1557.00,0.0256
1556.00,0.0255
1555.00,0.0254
1554.00,0.0252
1553.00,0.0251
1552.00,0.0250
1551.00,0.0249
1550.00,0.0248
1549.00,0.0247
1548.00,0.0247
1547.00,0.0247
1546.00,0.0246
1545.00,0.0246
1544.00,0.0245
1543.00,0.0245
1542.00,0.0245
1541.00,0.0244
1540.00,0.0242
1539.00,0.0240
1538.00,0.0239
1537.00,0.0240
1536.00,0.0239
1535.00,0.0238
1534.00,0.0238
1533.00,0.0238
1532.00,0.0238
1531.00,0.0238
1530.00,0.0238
1529.00,0.0238
1528.00,0.0238
1527.00,0.0238
1526.00,0.0238
1525.00,0.0238
1524.00,0.0237
1523.00,0.0237
1522.00,0.0236
1521.00,0.0235
1520.00,0.0234
1519.00,0.0233
1518.00,0.0232
1517.00,0.0231
1516.00,0.0230
1515.00,0.0230
1514.00,0.0231
1513.00,0.0231
1512.00,0.0231
1511.00,0.0231
1510.00,0.0230
1509.00,0.0228
1508.00,0.0229
1507.00,0.0228
1506.00,0.0226
1505.00,0.0226
1504.00,0.0227
1503.00,0.0227
1502.00,0.0226
1501.00,0.0225
1500.00,0.0224
1499.00,0.0223
1498.00,0.0222
1497.00,0.0222
1496.00,0.0222
1495.00,0.0223
1494.00,0.0224
1493.00,0.0224
1492.00,0.0225
1491.00,0.0225
1490.00,0.0225
1489.00,0.0225
1488.00,0.0223
1487.00,0.0222
1486.00,0.0222
1485.00,0.0222
1484.00,0.0222
1483.00,0.0222
1482.00,0.0222
1481.00,0.0222
1480.00,0.0222
1479.00,0.0222
1478.00,0.0222
1477.00,0.0222
1476.00,0.0222
1475.00,0.0222
1474.00,0.0223
1473.00,0.0224
1472.00,0.0223
1471.00,0.0222
1470.00,0.0221
1469.00,0.0221
1468.00,0.0221
1467.00,0.0221
1466.00,0.0221
1465.00,0.0222
1464.00,0.0222
1463.00,0.0222
1462.00,0.0222
1461.00,0.0221
1460.00,0.0220
1459.00,0.0220
1458.00,0.0222
1457.00,0.0224
1456.00,0.0225
1455.00,0.0224
1454.00,0.0224
1453.00,0.0223
1452.00,0.0223
1451.00,0.0224
1450.00,0.0225
1449.00,0.0225
1448.00,0.0226
1447.00,0.0226
1446.00,0.0226
1445.00,0.0225
1444.00,0.0225
1443.00,0.0225
1442.00,0.0225
1441.00,0.0226
1440.00,0.0226
1439.00,0.0227
1438.00,0.0227
1437.00,0.0227
1436.00,0.0227
1435.00,0.0227
1434.00,0.0227
1433.00,0.0228
1432.00,0.0228
1431.00,0.0228
1430.00,0.0227
1429.00,0.0227
1428.00,0.0227
1427.00,0.0227
1426.00,0.0227
1425.00,0.0226
1424.00,0.0226
1423.00,0.0227
1422.00,0.0226
1421.00,0.0226
1420.00,0.0226
1419.00,0.0226
1418.00,0.0226
1417.00,0.0226
1416.00,0.0226
1415.00,0.0227
1414.00,0.0227
1413.00,0.0227
1412.00,0.0228
1411.00,0.0227
1410.00,0.0227
1409.00,0.0226
1408.00,0.0226
1407.00,0.0227
1406.00,0.0227
1405.00,0.0227
1404.00,0.0228
1403.00,0.0228
1402.00,0.0228
1401.00,0.0227
1400.00,0.0227
1399.00,0.0228
1398.00,0.0228
1397.00,0.0228
1396.00,0.0228
1395.00,0.0227
1394.00,0.0227
1393.00,0.0227
1392.00,0.0227
1391.00,0.0228
1390.00,0.0228
1389.00,0.0228
1388.00,0.0228
1387.00,0.0228
1386.00,0.0228
1385.00,0.0229
1384.00,0.0229
1383.00,0.0229
1382.00,0.0230
1381.00,0.0230
1380.00,0.0230
1379.00,0.0230
1378.00,0.0230
1377.00,0.0230
1376.00,0.0231
1375.00,0.0231
1374.00,0.0231
1373.00,0.0231
1372.00,0.0231
1371.00,0.0231
1370.00,0.0231
1369.00,0.0231
1368.00,0.0232
1367.00,0.0232
1366.00,0.0232
1365.00,0.0232
1364.00,0.0231
1363.00,0.0231
1362.00,0.0231
1361.00,0.0231
1360.00,0.0231
1359.00,0.0231
1358.00,0.0231
1357.00,0.0231
1356.00,0.0231
1355.00,0.0231
1354.00,0.0231
1353.00,0.0230
1352.00,0.0230
1351.00,0.0231
1350.00,0.0231
1349.00,0.0231
1348.00,0.0231
1347.00,0.0231
1346.00,0.0231
1345.00,0.0231
1344.00,0.0231
1343.00,0.0231
1342.00,0.0231
1341.00,0.0230
1340.00,0.0230
1339.00,0.0230
1338.00,0.0230
1337.00,0.0230
1336.00,0.0230
1335.00,0.0230
1334.00,0.0230
1333.00,0.0230
1332.00,0.0230
1331.00,0.0230
1330.00,0.0230
1329.00,0.0231
1328.00,0.0231
1327.00,0.0231
1326.00,0.0230
1325.00,0.0230
1324.00,0.0230
1323.00,0.0230
1322.00,0.0230
1321.00,0.0231
1320.00,0.0231
1319.00,0.0231
1318.00,0.0231
1317.00,0.0231
1316.00,0.0232
1315.00,0.0232
1314.00,0.0232
1313.00,0.0232
1312.00,0.0233
1311.00,0.0233
1310.00,0.0233
1309.00,0.0233
1308.00,0.0233
1307.00,0.0233
1306.00,0.0233
1305.00,0.0233
1304.00,0.0233
1303.00,0.0234
1302.00,0.0234
1301.00,0.0235
1300.00,0.0235
1299.00,0.0235
1298.00,0.0235
1297.00,0.0235
1296.00,0.0235
1295.00,0.0235
1294.00,0.0236
1293.00,0.0236
1292.00,0.0236
1291.00,0.0236
1290.00,0.0236
1289.00,0.0236
1288.00,0.0236
1287.00,0.0236
1286.00,0.0236
1285.00,0.0236
1284.00,0.0237
1283.00,0.0237
1282.00,0.0237
1281.00,0.0238
1280.00,0.0237
1279.00,0.0237
1278.00,0.0237
1277.00,0.0237
1276.00,0.0238
1275.00,0.0238
1274.00,0.0238
1273.00,0.0238
1272.00,0.0239
1271.00,0.0239
1270.00,0.0239
1269.00,0.0239
1268.00,0.0239
1267.00,0.0239
1266.00,0.0240
1265.00,0.0240
1264.00,0.0241
1263.00,0.0242
1262.00,0.0242
1261.00,0.0242
1260.00,0.0242
1259.00,0.0243
1258.00,0.0243
1257.00,0.0244
1256.00,0.0244
1255.00,0.0245
1254.00,0.0245
1253.00,0.0246
1252.00,0.0247
1251.00,0.0247
1250.00,0.0248
1249.00,0.0249
1248.00,0.0250
1247.00,0.0252
1246.00,0.0253
1245.00,0.0254
1244.00,0.0255
1243.00,0.0256
1242.00,0.0257
1241.00,0.0259
1240.00,0.0260
1239.00,0.0261
1238.00,0.0263
1237.00,0.0264
1236.00,0.0266
1235.00,0.0267
1234.00,0.0269
1233.00,0.0270
1232.00,0.0271
1231.00,0.0273
1230.00,0.0275
1229.00,0.0277
1228.00,0.0278
1227.00,0.0280
1226.00,0.0281
1225.00,0.0283
1224.00,0.0284
1223.00,0.0286
1222.00,0.0287
1221.00,0.0288
1220.00,0.0289
1219.00,0.0289
1218.00,0.0290
1217.00,0.0291
1216.00,0.0292
1215.00,0.0293
1214.00,0.0295
1213.00,0.0296
1212.00,0.0298
1211.00,0.0299
1210.00,0.0301
1209.00,0.0301
1208.00,0.0302
1207.00,0.0303
1206.00,0.0304
1205.00,0.0305
1204.00,0.0307
1203.00,0.0308
1202.00,0.0309
1201.00,0.0310
1200.00,0.0311
1199.00,0.0312
1198.00,0.0312
1197.00,0.0313
1196.00,0.0314
1195.00,0.0315
1194.00,0.0316
1193.00,0.0316
1192.00,0.0317
1191.00,0.0318
1190.00,0.0318
1189.00,0.0319
1188.00,0.0319
1187.00,0.0320
1186.00,0.0321
1185.00,0.0322
1184.00,0.0323
1183.00,0.0324
1182.00,0.0325
1181.00,0.0326
1180.00,0.0326
1179.00,0.0327
1178.00,0.0328
1177.00,0.0329
1176.00,0.0330
1175.00,0.0330
1174.00,0.0330
1173.00,0.0331
1172.00,0.0331
1171.00,0.0331
1170.00,0.0332
1169.00,0.0333
1168.00,0.0334
1167.00,0.0335
1166.00,0.0335
1165.00,0.0335
1164.00,0.0335
1163.00,0.0335
1162.00,0.0335
1161.00,0.0336
1160.00,0.0337
1159.00,0.0337
1158.00,0.0338
1157.00,0.0339
1156.00,0.0340
1155.00,0.0340
1154.00,0.0340
1153.00,0.0341
1152.00,0.0341
1151.00,0.0342
1150.00,0.0342
1149.00,0.0343
1148.00,0.0344
1147.00,0.0344
1146.00,0.0346
1145.00,0.0347
1144.00,0.0347
1143.00,0.0348
1142.00,0.0348
1141.00,0.0348
1140.00,0.0349
1139.00,0.0350
1138.00,0.0351
1137.00,0.0352
1136.00,0.0352
1135.00,0.0353
1134.00,0.0355
1133.00,0.0356
1132.00,0.0357
1131.00,0.0357
1130.00,0.0357
1129.00,0.0358
1128.00,0.0358
1127.00,0.0359
1126.00,0.0359
1125.00,0.0360
1124.00,0.0361
1123.00,0.0363
1122.00,0.0365
1121.00,0.0366
1120.00,0.0368
1119.00,0.0369
1118.00,0.0370
1117.00,0.0372
1116.00,0.0373
1115.00,0.0374
1114.00,0.0374
1113.00,0.0374
1112.00,0.0375
1111.00,0.0377
1110.00,0.0378
1109.00,0.0379
1108.00,0.0380
1107.00,0.0382
1106.00,0.0383
1105.00,0.0384
1104.00,0.0386
1103.00,0.0388
1102.00,0.0389
1101.00,0.0391
1100.00,0.0392
1099.00,0.0393
1098.00,0.0394
1097.00,0.0395
1096.00,0.0396
1095.00,0.0397
1094.00,0.0399
1093.00,0.0400
1092.00,0.0402
1091.00,0.0404
1090.00,0.0407
1089.00,0.0408
1088.00,0.0410
1087.00,0.0411
1086.00,0.0411
1085.00,0.0411
1084.00,0.0412
1083.00,0.0413
1082.00,0.0414
1081.00,0.0416
1080.00,0.0417
1079.00,0.0419
1078.00,0.0420
1077.00,0.0422
1076.00,0.0425
1075.00,0.0427
1074.00,0.0429
1073.00,0.0429
1072.00,0.0430
1071.00,0.0432
1070.00,0.0433
1069.00,0.0433
1068.00,0.0434
1067.00,0.0435
1066.00,0.0436
1065.00,0.0438
1064.00,0.0440
1063.00,0.0441
1062.00,0.0442
1061.00,0.0442
1060.00,0.0443
1059.00,0.0445
1058.00,0.0447
1057.00,0.0448
1056.00,0.0449
1055.00,0.0449
1054.00,0.0449
1053.00,0.0449
1052.00,0.0450
1051.00,0.0452
1050.00,0.0454
1049.00,0.0456
1048.00,0.0457
1047.00,0.0457
1046.00,0.0457
1045.00,0.0457
1044.00,0.0457
1043.00,0.0457
1042.00,0.0457
1041.00,0.0457
1040.00,0.0458
1039.00,0.0459
1038.00,0.0460
1037.00,0.0460
1036.00,0.0460
1035.00,0.0460
1034.00,0.0460
1033.00,0.0460
1032.00,0.0460
1031.00,0.0461
1030.00,0.0461
1029.00,0.0461
1028.00,0.0461
1027.00,0.0461
1026.00,0.0460
1025.00,0.0460
1024.00,0.0460
1023.00,0.0460
1022.00,0.0461
1021.00,0.0461
1020.00,0.0460
1019.00,0.0460
1018.00,0.0459
1017.00,0.0459
1016.00,0.0459
1015.00,0.0459
1014.00,0.0460
1013.00,0.0459
1012.00,0.0459
1011.00,0.0458
1010.00,0.0457
1009.00,0.0456
1008.00,0.0455
1007.00,0.0454
1006.00,0.0452
1005.00,0.0450
1004.00,0.0449
1003.00,0.0448
1002.00,0.0448
1001.00,0.0447
1000.00,0.0447
999.00,0.0445
998.00,0.0443
997.00,0.0442
996.00,0.0441
995.00,0.0440
994.00,0.0439
993.00,0.0438
992.00,0.0437
991.00,0.0436
990.00,0.0434
989.00,0.0432
988.00,0.0430
987.00,0.0428
986.00,0.0427
985.00,0.0426
984.00,0.0425
983.00,0.0423
982.00,0.0422
981.00,0.0421
980.00,0.0420
979.00,0.0418
978.00,0.0417
977.00,0.0415
976.00,0.0413
975.00,0.0411
974.00,0.0409
973.00,0.0407
972.00,0.0406
971.00,0.0404
970.00,0.0403
969.00,0.0402
968.00,0.0401
967.00,0.0399
966.00,0.0397
965.00,0.0396
964.00,0.0395
963.00,0.0394
962.00,0.0393
961.00,0.0393
960.00,0.0392
959.00,0.0391
958.00,0.0390
957.00,0.0389
956.00,0.0388
955.00,0.0387
954.00,0.0386
953.00,0.0384
952.00,0.0383
951.00,0.0381
950.00,0.0381
949.00,0.0381
948.00,0.0381
947.00,0.0382
946.00,0.0382
945.00,0.0382
944.00,0.0382
943.00,0.0381
942.00,0.0380
941.00,0.0380
940.00,0.0380
939.00,0.0380
938.00,0.0380
937.00,0.0380
936.00,0.0380
935.00,0.0380
934.00,0.0379
933.00,0.0379
932.00,0.0379
931.00,0.0379
930.00,0.0378
929.00,0.0377
928.00,0.0376
927.00,0.0376
926.00,0.0376
925.00,0.0376
924.00,0.0376
923.00,0.0376
922.00,0.0375
921.00,0.0375
920.00,0.0375
919.00,0.0375
918.00,0.0376
917.00,0.0377
916.00,0.0378
915.00,0.0378
914.00,0.0377
913.00,0.0376
912.00,0.0375
911.00,0.0375
910.00,0.0375
909.00,0.0375
908.00,0.0375
907.00,0.0375
906.00,0.0374
905.00,0.0374
904.00,0.0374
903.00,0.0374
902.00,0.0374
901.00,0.0374
900.00,0.0374
899.00,0.0374
898.00,0.0373
897.00,0.0373
896.00,0.0373
895.00,0.0373
894.00,0.0373
893.00,0.0372
892.00,0.0372
891.00,0.0372
890.00,0.0372
889.00,0.0372
888.00,0.0371
887.00,0.0370
886.00,0.0368
885.00,0.0367
884.00,0.0367
883.00,0.0366
882.00,0.0366
881.00,0.0366
880.00,0.0367
879.00,0.0368
878.00,0.0368
877.00,0.0368
876.00,0.0366
875.00,0.0365
874.00,0.0364
873.00,0.0364
872.00,0.0365
871.00,0.0366
870.00,0.0365
869.00,0.0364
868.00,0.0362
867.00,0.0360
866.00,0.0358
865.00,0.0357
864.00,0.0357
863.00,0.0357
862.00,0.0359
861.00,0.0359
860.00,0.0360
859.00,0.0359
858.00,0.0358
857.00,0.0356
856.00,0.0354
855.00,0.0353
854.00,0.0352
853.00,0.0352
852.00,0.0351
851.00,0.0351
850.00,0.0351
849.00,0.0351
848.00,0.0351
847.00,0.0351
846.00,0.0352
845.00,0.0354
844.00,0.0355
843.00,0.0356
842.00,0.0355
841.00,0.0354
840.00,0.0354
839.00,0.0355
838.00,0.0355
837.00,0.0355
836.00,0.0354
835.00,0.0353
834.00,0.0352
833.00,0.0352
832.00,0.0354
831.00,0.0356
830.00,0.0358
829.00,0.0358
828.00,0.0358
827.00,0.0358
826.00,0.0357
825.00,0.0358
824.00,0.0359
823.00,0.0361
822.00,0.0364
821.00,0.0366
820.00,0.0368
819.00,0.0369
818.00,0.0369
817.00,0.0369
816.00,0.0369
815.00,0.0369
814.00,0.0369
813.00,0.0369
812.00,0.0370
811.00,0.0370
810.00,0.0370
809.00,0.0370
808.00,0.0372
807.00,0.0373
806.00,0.0375
805.00,0.0377
804.00,0.0379
803.00,0.0380
802.00,0.0380
801.00,0.0379
800.00,0.0379
799.00,0.0380
798.00,0.0382
797.00,0.0383
796.00,0.0384
795.00,0.0384
794.00,0.0383
793.00,0.0382
792.00,0.0381
791.00,0.0381
790.00,0.0381
789.00,0.0381
788.00,0.0382
787.00,0.0383
786.00,0.0383
785.00,0.0383
784.00,0.0382
783.00,0.0382
782.00,0.0382
781.00,0.0383
780.00,0.0385
779.00,0.0386
778.00,0.0387
777.00,0.0386
776.00,0.0384
775.00,0.0383
774.00,0.0383
773.00,0.0384
772.00,0.0385
771.00,0.0385
770.00,0.0384
769.00,0.0385
768.00,0.0386
767.00,0.0388
766.00,0.0389
765.00,0.0389
764.00,0.0387
763.00,0.0384
762.00,0.0382
761.00,0.0382
760.00,0.0384
759.00,0.0387
758.00,0.0388
757.00,0.0389
756.00,0.0388
755.00,0.0387
754.00,0.0386
753.00,0.0385
752.00,0.0384
751.00,0.0383
750.00,0.0383
749.00,0.0383
748.00,0.0385
747.00,0.0387
746.00,0.0387
745.00,0.0387
744.00,0.0386
743.00,0.0386
742.00,0.0386
741.00,0.0387
740.00,0.0388
739.00,0.0390
738.00,0.0391
737.00,0.0392
736.00,0.0392
735.00,0.0393
734.00,0.0393
733.00,0.0392
732.00,0.0391
731.00,0.0390
730.00,0.0390
729.00,0.0390
728.00,0.0392
727.00,0.0392
726.00,0.0391
725.00,0.0389
724.00,0.0389
723.00,0.0390
722.00,0.0392
721.00,0.0395
720.00,0.0397
719.00,0.0398
718.00,0.0398
717.00,0.0398
716.00,0.0397
715.00,0.0395
714.00,0.0394
713.00,0.0393
712.00,0.0393
711.00,0.0393
710.00,0.0392
709.00,0.0393
708.00,0.0395
707.00,0.0397
706.00,0.0398
705.00,0.0397
704.00,0.0395
703.00,0.0394
702.00,0.0396
701.00,0.0400
700.00,0.0402
699.00,0.0402
698.00,0.0400
697.00,0.0396
696.00,0.0394
695.00,0.0395
694.00,0.0397
693.00,0.0400
692.00,0.0402
691.00,0.0402
690.00,0.0402
689.00,0.0402
688.00,0.0403
687.00,0.0405
686.00,0.0406
685.00,0.0408
684.00,0.0408
683.00,0.0408
682.00,0.0407
681.00,0.0407
680.00,0.0407
679.00,0.0406
678.00,0.0403
677.00,0.0401
676.00,0.0402
675.00,0.0406
674.00,0.0411
673.00,0.0415
672.00,0.0417
671.00,0.0418
670.00,0.0419
669.00,0.0424
668.00,0.0430
667.00,0.0430
666.00,0.0423
665.00,0.0417
664.00,0.0414
663.00,0.0414
662.00,0.0415
661.00,0.0417
660.00,0.0420
659.00,0.0423
658.00,0.0424
657.00,0.0421
656.00,0.0420
655.00,0.0421
654.00,0.0425
653.00,0.0427
652.00,0.0426
651.00,0.0422
650.00,0.0417
