Created as New Dataset,Monday, April 03 2023
cm-1,A
4000.00,0.0234
3999.00,0.0234
3998.00,0.0234
3997.00,0.0233
3996.00,0.0233
3995.00,0.0233
3994.00,0.0233
3993.00,0.0233
3992.00,0.0233
3991.00,0.0233
3990.00,0.0232
3989.00,0.0232
3988.00,0.0232
3987.00,0.0232
3986.00,0.0232
3985.00,0.0232
3984.00,0.0232
3983.00,0.0232
3982.00,0.0232
3981.00,0.0232
3980.00,0.0231
3979.00,0.0231
3978.00,0.0230
3977.00,0.0230
3976.00,0.0230
3975.00,0.0229
3974.00,0.0229
3973.00,0.0230
3972.00,0.0230
3971.00,0.0231
3970.00,0.0231
3969.00,0.0231
3968.00,0.0231
3967.00,0.0230
3966.00,0.0229
3965.00,0.0229
3964.00,0.0230
3963.00,0.0230
3962.00,0.0231
3961.00,0.0231
3960.00,0.0230
3959.00,0.0229
3958.00,0.0229
3957.00,0.0228
3956.00,0.0228
3955.00,0.0228
3954.00,0.0227
3953.00,0.0227
3952.00,0.0228
3951.00,0.0228
3950.00,0.0229
3949.00,0.0230
3948.00,0.0230
3947.00,0.0230
3946.00,0.0230
3945.00,0.0229
3944.00,0.0228
3943.00,0.0227
3942.00,0.0226
3941.00,0.0226
3940.00,0.0226
3939.00,0.0227
3938.00,0.0227
3937.00,0.0226
3936.00,0.0226
3935.00,0.0227
3934.00,0.0227
3933.00,0.0227
3932.00,0.0226
3931.00,0.0227
3930.00,0.0227
3929.00,0.0227
3928.00,0.0227
3927.00,0.0227
3926.00,0.0227
3925.00,0.0226
3924.00,0.0226
3923.00,0.0226
3922.00,0.0226
3921.00,0.0226
3920.00,0.0226
3919.00,0.0226
3918.00,0.0227
3917.00,0.0227
3916.00,0.0226
3915.00,0.0226
3914.00,0.0226
3913.00,0.0225
3912.00,0.0225
3911.00,0.0224
3910.00,0.0224
3909.00,0.0224
3908.00,0.0224
3907.00,0.0224
3906.00,0.0223
3905.00,0.0223
3904.00,0.0223
3903.00,0.0224
3902.00,0.0225
3901.00,0.0226
3900.00,0.0226
3899.00,0.0224
3898.00,0.0224
3897.00,0.0224
3896.00,0.0224
3895.00,0.0224
3894.00,0.0224
3893.00,0.0224
3892.00,0.0223
3891.00,0.0222
3890.00,0.0221
3889.00,0.0221
3888.00,0.0222
3887.00,0.0222
3886.00,0.0221
3885.00,0.0220
3884.00,0.0220
3883.00,0.0221
3882.00,0.0221
3881.00,0.0220
3880.00,0.0218
3879.00,0.0219
3878.00,0.0221
3877.00,0.0223
3876.00,0.0224
3875.00,0.0222
3874.00,0.0220
3873.00,0.0220
3872.00,0.0221
3871.00,0.0222
3870.00,0.0221
3869.00,0.0220
3868.00,0.0221
3867.00,0.0222
3866.00,0.0223
3865.00,0.0222
3864.00,0.0222
3863.00,0.0222
3862.00,0.0222
3861.00,0.0222
3860.00,0.0221
3859.00,0.0220
3858.00,0.0218
3857.00,0.0216
3856.00,0.0214
3855.00,0.0215
3854.00,0.0217
3853.00,0.0216
3852.00,0.0215
3851.00,0.0216
3850.00,0.0218
3849.00,0.0219
3848.00,0.0218
3847.00,0.0218
3846.00,0.0218
3845.00,0.0218
3844.00,0.0217
3843.00,0.0217
3842.00,0.0218
3841.00,0.0219
3840.00,0.0221
3839.00,0.0221
3838.00,0.0219
3837.00,0.0218
3836.00,0.0217
3835.00,0.0217
3834.00,0.0218
3833.00,0.0219
3832.00,0.0218
3831.00,0.0218
3830.00,0.0218
3829.00,0.0218
3828.00,0.0218
3827.00,0.0216
3826.00,0.0215
3825.00,0.0215
3824.00,0.0217
3823.00,0.0219
3822.00,0.0220
3821.00,0.0217
3820.00,0.0216
3819.00,0.0217
3818.00,0.0219
3817.00,0.0218
3816.00,0.0217
3815.00,0.0215
3814.00,0.0216
3813.00,0.0217
3812.00,0.0216
3811.00,0.0215
3810.00,0.0214
3809.00,0.0214
3808.00,0.0215
3807.00,0.0215
3806.00,0.0215
3805.00,0.0216
3804.00,0.0218
3803.00,0.0219
3802.00,0.0218
3801.00,0.0215
3800.00,0.0214
3799.00,0.0215
3798.00,0.0216
3797.00,0.0214
3796.00,0.0213
3795.00,0.0213
3794.00,0.0214
3793.00,0.0215
3792.00,0.0214
3791.00,0.0214
3790.00,0.0214
3789.00,0.0214
3788.00,0.0215
3787.00,0.0215
3786.00,0.0215
3785.00,0.0215
3784.00,0.0214
3783.00,0.0214
3782.00,0.0214
3781.00,0.0214
3780.00,0.0213
3779.00,0.0212
3778.00,0.0212
3777.00,0.0212
3776.00,0.0213
3775.00,0.0212
3774.00,0.0212
3773.00,0.0212
3772.00,0.0212
3771.00,0.0212
3770.00,0.0211
3769.00,0.0210
3768.00,0.0210
3767.00,0.0211
3766.00,0.0211
3765.00,0.0210
3764.00,0.0210
3763.00,0.0212
3762.00,0.0212
3761.00,0.0212
3760.00,0.0211
3759.00,0.0210
3758.00,0.0210
3757.00,0.0209
3756.00,0.0208
3755.00,0.0207
3754.00,0.0207
3753.00,0.0207
3752.00,0.0209
3751.00,0.0212
3750.00,0.0212
3749.00,0.0211
3748.00,0.0212
3747.00,0.0213
3746.00,0.0213
3745.00,0.0211
3744.00,0.0206
3743.00,0.0204
3742.00,0.0206
3741.00,0.0209
3740.00,0.0209
3739.00,0.0210
3738.00,0.0210
3737.00,0.0211
3736.00,0.0210
3735.00,0.0209
3734.00,0.0208
3733.00,0.0207
3732.00,0.0207
3731.00,0.0206
3730.00,0.0206
3729.00,0.0207
3728.00,0.0207
3727.00,0.0206
3726.00,0.0206
3725.00,0.0206
3724.00,0.0206
3723.00,0.0206
3722.00,0.0206
3721.00,0.0206
3720.00,0.0208
3719.00,0.0208
3718.00,0.0208
3717.00,0.0207
3716.00,0.0207
3715.00,0.0208
3714.00,0.0209
3713.00,0.0211
3712.00,0.0213
3711.00,0.0213
3710.00,0.0212
3709.00,0.0211
3708.00,0.0212
3707.00,0.0214
3706.00,0.0216
3705.00,0.0217
3704.00,0.0218
3703.00,0.0218
3702.00,0.0218
3701.00,0.0218
3700.00,0.0219
3699.00,0.0221
3698.00,0.0222
3697.00,0.0222
3696.00,0.0221
3695.00,0.0221
3694.00,0.0220
3693.00,0.0220
3692.00,0.0221
3691.00,0.0223
3690.00,0.0225
3689.00,0.0224
3688.00,0.0221
3687.00,0.0219
3686.00,0.0219
3685.00,0.0219
3684.00,0.0219
3683.00,0.0218
3682.00,0.0217
3681.00,0.0215
3680.00,0.0212
3679.00,0.0210
3678.00,0.0210
3677.00,0.0210
3676.00,0.0211
3675.00,0.0209
3674.00,0.0210
3673.00,0.0212
3672.00,0.0215
3671.00,0.0216
3670.00,0.0215
3669.00,0.0215
3668.00,0.0215
3667.00,0.0216
3666.00,0.0217
3665.00,0.0217
3664.00,0.0218
3663.00,0.0218
3662.00,0.0219
3661.00,0.0220
3660.00,0.0221
3659.00,0.0223
3658.00,0.0225
3657.00,0.0226
3656.00,0.0226
3655.00,0.0227
3654.00,0.0228
3653.00,0.0229
3652.00,0.0228
3651.00,0.0229
3650.00,0.0231
3649.00,0.0233
3648.00,0.0233
3647.00,0.0233
3646.00,0.0233
3645.00,0.0235
3644.00,0.0236
3643.00,0.0237
3642.00,0.0238
3641.00,0.0238
3640.00,0.0239
3639.00,0.0239
3638.00,0.0240
3637.00,0.0240
3636.00,0.0241
3635.00,0.0242
3634.00,0.0242
3633.00,0.0242
3632.00,0.0242
3631.00,0.0243
3630.00,0.0247
3629.00,0.0250
3628.00,0.0251
3627.00,0.0252
3626.00,0.0254
3625.00,0.0255
3624.00,0.0255
3623.00,0.0255
3622.00,0.0257
3621.00,0.0259
3620.00,0.0262
3619.00,0.0263
3618.00,0.0263
3617.00,0.0263
3616.00,0.0264
3615.00,0.0264
3614.00,0.0264
3613.00,0.0263
3612.00,0.0263
3611.00,0.0265
3610.00,0.0266
3609.00,0.0268
3608.00,0.0269
3607.00,0.0270
3606.00,0.0269
3605.00,0.0269
3604.00,0.0269
3603.00,0.0269
3602.00,0.0271
3601.00,0.0272
3600.00,0.0273
3599.00,0.0273
3598.00,0.0273
3597.00,0.0272
3596.00,0.0272
3595.00,0.0273
3594.00,0.0273
3593.00,0.0273
3592.00,0.0273
3591.00,0.0273
3590.00,0.0274
3589.00,0.0276
3588.00,0.0278
3587.00,0.0281
3586.00,0.0282
3585.00,0.0283
3584.00,0.0283
3583.00,0.0283
3582.00,0.0283
3581.00,0.0283
3580.00,0.0284
3579.00,0.0285
3578.00,0.0286
3577.00,0.0286
3576.00,0.0287
3575.00,0.0287
3574.00,0.0288
3573.00,0.0288
3572.00,0.0288
3571.00,0.0287
3570.00,0.0286
3569.00,0.0286
3568.00,0.0289
3567.00,0.0293
3566.00,0.0295
3565.00,0.0295
3564.00,0.0295
3563.00,0.0294
3562.00,0.0295
3561.00,0.0296
3560.00,0.0297
3559.00,0.0298
3558.00,0.0299
3557.00,0.0300
3556.00,0.0301
3555.00,0.0302
3554.00,0.0302
3553.00,0.0303
3552.00,0.0305
3551.00,0.0306
3550.00,0.0307
3549.00,0.0307
3548.00,0.0308
3547.00,0.0309
3546.00,0.0311
3545.00,0.0312
3544.00,0.0313
3543.00,0.0313
3542.00,0.0313
3541.00,0.0313
3540.00,0.0312
3539.00,0.0312
3538.00,0.0312
3537.00,0.0312
3536.00,0.0313
3535.00,0.0314
3534.00,0.0315
3533.00,0.0316
3532.00,0.0317
3531.00,0.0318
3530.00,0.0318
3529.00,0.0317
3528.00,0.0317
3527.00,0.0317
3526.00,0.0318
3525.00,0.0321
3524.00,0.0323
3523.00,0.0325
3522.00,0.0325
3521.00,0.0325
3520.00,0.0324
3519.00,0.0323
3518.00,0.0323
3517.00,0.0322
3516.00,0.0323
3515.00,0.0324
3514.00,0.0325
3513.00,0.0327
3512.00,0.0328
3511.00,0.0329
3510.00,0.0329
3509.00,0.0329
3508.00,0.0329
3507.00,0.0330
3506.00,0.0330
3505.00,0.0331
3504.00,0.0332
3503.00,0.0334
3502.00,0.0335
3501.00,0.0336
3500.00,0.0336
3499.00,0.0336
3498.00,0.0337
3497.00,0.0338
3496.00,0.0338
3495.00,0.0338
3494.00,0.0338
3493.00,0.0338
3492.00,0.0338
3491.00,0.0338
3490.00,0.0339
3489.00,0.0339
3488.00,0.0340
3487.00,0.0340
3486.00,0.0341
3485.00,0.0341
3484.00,0.0342
3483.00,0.0342
3482.00,0.0343
3481.00,0.0344
3480.00,0.0345
3479.00,0.0345
3478.00,0.0346
3477.00,0.0347
3476.00,0.0348
3475.00,0.0348
3474.00,0.0349
3473.00,0.0350
3472.00,0.0350
3471.00,0.0350
3470.00,0.0351
3469.00,0.0352
3468.00,0.0352
3467.00,0.0353
3466.00,0.0354
3465.00,0.0355
3464.00,0.0355
3463.00,0.0355
3462.00,0.0354
3461.00,0.0354
3460.00,0.0355
3459.00,0.0356
3458.00,0.0357
3457.00,0.0358
3456.00,0.0357
3455.00,0.0356
3454.00,0.0356
3453.00,0.0357
3452.00,0.0359
3451.00,0.0360
3450.00,0.0361
3449.00,0.0361
3448.00,0.0361
3447.00,0.0362
3446.00,0.0363
3445.00,0.0364
3444.00,0.0364
3443.00,0.0365
3442.00,0.0364
3441.00,0.0364
3440.00,0.0363
3439.00,0.0363
3438.00,0.0363
3437.00,0.0364
3436.00,0.0364
3435.00,0.0365
3434.00,0.0365
3433.00,0.0366
3432.00,0.0367
3431.00,0.0368
3430.00,0.0368
3429.00,0.0368
3428.00,0.0368
3427.00,0.0368
3426.00,0.0368
3425.00,0.0370
3424.00,0.0371
3423.00,0.0372
3422.00,0.0372
3421.00,0.0372
3420.00,0.0373
3419.00,0.0373
3418.00,0.0374
3417.00,0.0374
3416.00,0.0374
3415.00,0.0373
3414.00,0.0373
3413.00,0.0373
3412.00,0.0374
3411.00,0.0375
3410.00,0.0376
3409.00,0.0377
3408.00,0.0377
3407.00,0.0378
3406.00,0.0378
3405.00,0.0378
3404.00,0.0378
3403.00,0.0377
3402.00,0.0377
3401.00,0.0378
3400.00,0.0379
3399.00,0.0380
3398.00,0.0380
3397.00,0.0380
3396.00,0.0380
3395.00,0.0380
3394.00,0.0380
3393.00,0.0381
3392.00,0.0381
3391.00,0.0382
3390.00,0.0382
3389.00,0.0382
3388.00,0.0382
3387.00,0.0382
3386.00,0.0382
3385.00,0.0382
3384.00,0.0383
3383.00,0.0384
3382.00,0.0384
3381.00,0.0385
3380.00,0.0385
3379.00,0.0386
3378.00,0.0386
3377.00,0.0386
3376.00,0.0386
3375.00,0.0386
3374.00,0.0386
3373.00,0.0386
3372.00,0.0386
3371.00,0.0385
3370.00,0.0386
3369.00,0.0387
3368.00,0.0387
3367.00,0.0388
3366.00,0.0387
3365.00,0.0387
3364.00,0.0386
3363.00,0.0387
3362.00,0.0388
3361.00,0.0390
3360.00,0.0391
3359.00,0.0391
3358.00,0.0391
3357.00,0.0390
3356.00,0.0390
3355.00,0.0390
3354.00,0.0390
3353.00,0.0391
3352.00,0.0391
3351.00,0.0392
3350.00,0.0392
3349.00,0.0393
3348.00,0.0393
3347.00,0.0392
3346.00,0.0392
3345.00,0.0392
3344.00,0.0392
3343.00,0.0392
3342.00,0.0392
3341.00,0.0392
3340.00,0.0393
3339.00,0.0393
3338.00,0.0394
3337.00,0.0394
3336.00,0.0393
3335.00,0.0393
3334.00,0.0393
3333.00,0.0394
3332.00,0.0393
3331.00,0.0393
3330.00,0.0392
3329.00,0.0392
3328.00,0.0392
3327.00,0.0393
3326.00,0.0394
3325.00,0.0394
3324.00,0.0395
3323.00,0.0395
3322.00,0.0395
3321.00,0.0395
3320.00,0.0395
3319.00,0.0395
3318.00,0.0395
3317.00,0.0394
3316.00,0.0394
3315.00,0.0394
3314.00,0.0393
3313.00,0.0393
3312.00,0.0393
3311.00,0.0393
3310.00,0.0394
3309.00,0.0395
3308.00,0.0396
3307.00,0.0396
3306.00,0.0396
3305.00,0.0395
3304.00,0.0394
3303.00,0.0394
3302.00,0.0394
3301.00,0.0395
3300.00,0.0395
3299.00,0.0395
3298.00,0.0395
3297.00,0.0395
3296.00,0.0396
3295.00,0.0397
3294.00,0.0397
3293.00,0.0397
3292.00,0.0396
3291.00,0.0396
3290.00,0.0396
3289.00,0.0396
3288.00,0.0396
3287.00,0.0396
3286.00,0.0396
3285.00,0.0397
3284.00,0.0397
3283.00,0.0397
3282.00,0.0397
3281.00,0.0396
3280.00,0.0396
3279.00,0.0396
3278.00,0.0396
3277.00,0.0397
3276.00,0.0397
3275.00,0.0398
3274.00,0.0398
3273.00,0.0399
3272.00,0.0399
3271.00,0.0399
3270.00,0.0399
3269.00,0.0399
3268.00,0.0399
3267.00,0.0399
3266.00,0.0399
3265.00,0.0398
3264.00,0.0397
3263.00,0.0397
3262.00,0.0397
3261.00,0.0397
3260.00,0.0397
3259.00,0.0398
3258.00,0.0398
3257.00,0.0397
3256.00,0.0397
3255.00,0.0397
3254.00,0.0397
3253.00,0.0398
3252.00,0.0398
3251.00,0.0398
3250.00,0.0398
3249.00,0.0398
3248.00,0.0397
3247.00,0.0397
3246.00,0.0398
3245.00,0.0398
3244.00,0.0398
3243.00,0.0398
3242.00,0.0398
3241.00,0.0398
3240.00,0.0398
3239.00,0.0398
3238.00,0.0399
3237.00,0.0400
3236.00,0.0400
3235.00,0.0401
3234.00,0.0401
3233.00,0.0401
3232.00,0.0401
3231.00,0.0400
3230.00,0.0399
3229.00,0.0399
3228.00,0.0398
3227.00,0.0398
3226.00,0.0398
3225.00,0.0398
3224.00,0.0398
3223.00,0.0398
3222.00,0.0398
3221.00,0.0398
3220.00,0.0398
3219.00,0.0397
3218.00,0.0398
3217.00,0.0398
3216.00,0.0399
3215.00,0.0400
3214.00,0.0400
3213.00,0.0399
3212.00,0.0398
3211.00,0.0398
3210.00,0.0397
3209.00,0.0397
3208.00,0.0397
3207.00,0.0397
3206.00,0.0397
3205.00,0.0398
3204.00,0.0398
3203.00,0.0399
3202.00,0.0399
3201.00,0.0399
3200.00,0.0398
3199.00,0.0398
3198.00,0.0398
3197.00,0.0398
3196.00,0.0397
3195.00,0.0397
3194.00,0.0397
3193.00,0.0397
3192.00,0.0396
3191.00,0.0396
3190.00,0.0396
3189.00,0.0395
3188.00,0.0395
3187.00,0.0395
3186.00,0.0394
3185.00,0.0395
3184.00,0.0395
3183.00,0.0396
3182.00,0.0396
3181.00,0.0397
3180.00,0.0396
3179.00,0.0396
3178.00,0.0395
3177.00,0.0394
3176.00,0.0393
3175.00,0.0393
3174.00,0.0393
3173.00,0.0394
3172.00,0.0394
3171.00,0.0393
3170.00,0.0393
3169.00,0.0393
3168.00,0.0393
3167.00,0.0394
3166.00,0.0394
3165.00,0.0395
3164.00,0.0396
3163.00,0.0396
3162.00,0.0395
3161.00,0.0394
3160.00,0.0392
3159.00,0.0391
3158.00,0.0390
3157.00,0.0390
3156.00,0.0390
3155.00,0.0391
3154.00,0.0391
3153.00,0.0392
3152.00,0.0392
3151.00,0.0392
3150.00,0.0392
3149.00,0.0391
3148.00,0.0391
3147.00,0.0391
3146.00,0.0390
3145.00,0.0390
3144.00,0.0390
3143.00,0.0390
3142.00,0.0390
3141.00,0.0389
3140.00,0.0388
3139.00,0.0388
3138.00,0.0389
3137.00,0.0389
3136.00,0.0389
3135.00,0.0389
3134.00,0.0388
3133.00,0.0388
3132.00,0.0388
3131.00,0.0388
3130.00,0.0388
3129.00,0.0388
3128.00,0.0388
3127.00,0.0387
3126.00,0.0387
3125.00,0.0387
3124.00,0.0387
3123.00,0.0387
3122.00,0.0387
3121.00,0.0386
3120.00,0.0386
3119.00,0.0386
3118.00,0.0387
3117.00,0.0387
3116.00,0.0387
3115.00,0.0387
3114.00,0.0386
3113.00,0.0386
3112.00,0.0386
3111.00,0.0385
3110.00,0.0384
3109.00,0.0384
3108.00,0.0384
3107.00,0.0384
3106.00,0.0385
3105.00,0.0386
3104.00,0.0386
3103.00,0.0385
3102.00,0.0384
3101.00,0.0384
3100.00,0.0383
3099.00,0.0383
3098.00,0.0382
3097.00,0.0383
3096.00,0.0384
3095.00,0.0385
3094.00,0.0385
3093.00,0.0386
3092.00,0.0385
3091.00,0.0385
3090.00,0.0383
3089.00,0.0382
3088.00,0.0381
3087.00,0.0381
3086.00,0.0382
3085.00,0.0382
3084.00,0.0383
3083.00,0.0383
3082.00,0.0383
3081.00,0.0383
3080.00,0.0383
3079.00,0.0383
3078.00,0.0383
3077.00,0.0382
3076.00,0.0382
3075.00,0.0382
3074.00,0.0382
3073.00,0.0382
3072.00,0.0382
3071.00,0.0382
3070.00,0.0382
3069.00,0.0381
3068.00,0.0381
3067.00,0.0381
3066.00,0.0381
3065.00,0.0380
3064.00,0.0380
3063.00,0.0379
3062.00,0.0379
3061.00,0.0379
3060.00,0.0380
3059.00,0.0379
3058.00,0.0379
3057.00,0.0379
3056.00,0.0379
3055.00,0.0379
3054.00,0.0378
3053.00,0.0377
3052.00,0.0377
3051.00,0.0378
3050.00,0.0378
3049.00,0.0379
3048.00,0.0379
3047.00,0.0379
3046.00,0.0378
3045.00,0.0378
3044.00,0.0377
3043.00,0.0376
3042.00,0.0375
3041.00,0.0374
3040.00,0.0374
3039.00,0.0374
3038.00,0.0374
3037.00,0.0375
3036.00,0.0375
3035.00,0.0375
3034.00,0.0375
3033.00,0.0375
3032.00,0.0374
3031.00,0.0374
3030.00,0.0373
3029.00,0.0372
3028.00,0.0372
3027.00,0.0372
3026.00,0.0372
3025.00,0.0372
3024.00,0.0371
3023.00,0.0371
3022.00,0.0371
3021.00,0.0370
3020.00,0.0370
3019.00,0.0369
3018.00,0.0368
3017.00,0.0367
3016.00,0.0367
3015.00,0.0367
3014.00,0.0367
3013.00,0.0366
3012.00,0.0366
3011.00,0.0365
3010.00,0.0364
3009.00,0.0363
3008.00,0.0361
3007.00,0.0359
3006.00,0.0358
3005.00,0.0357
3004.00,0.0356
3003.00,0.0355
3002.00,0.0353
3001.00,0.0352
3000.00,0.0350
2999.00,0.0349
2998.00,0.0347
2997.00,0.0346
2996.00,0.0345
2995.00,0.0345
2994.00,0.0344
2993.00,0.0344
2992.00,0.0343
2991.00,0.0342
2990.00,0.0341
2989.00,0.0340
2988.00,0.0339
2987.00,0.0338
2986.00,0.0335
2985.00,0.0331
2984.00,0.0328
2983.00,0.0325
2982.00,0.0323
2981.00,0.0324
2980.00,0.0325
2979.00,0.0327
2978.00,0.0329
2977.00,0.0331
2976.00,0.0333
2975.00,0.0333
2974.00,0.0333
2973.00,0.0333
2972.00,0.0332
2971.00,0.0333
2970.00,0.0334
2969.00,0.0336
2968.00,0.0338
2967.00,0.0339
2966.00,0.0340
2965.00,0.0341
2964.00,0.0342
2963.00,0.0343
2962.00,0.0344
2961.00,0.0345
2960.00,0.0346
2959.00,0.0346
2958.00,0.0346
2957.00,0.0346
2956.00,0.0347
2955.00,0.0349
2954.00,0.0350
2953.00,0.0351
2952.00,0.0351
2951.00,0.0352
2950.00,0.0352
2949.00,0.0353
2948.00,0.0353
2947.00,0.0354
2946.00,0.0354
2945.00,0.0355
2944.00,0.0356
2943.00,0.0357
2942.00,0.0358
2941.00,0.0359
2940.00,0.0359
2939.00,0.0359
2938.00,0.0360
2937.00,0.0361
2936.00,0.0362
2935.00,0.0362
2934.00,0.0363
2933.00,0.0364
2932.00,0.0364
2931.00,0.0365
2930.00,0.0365
2929.00,0.0366
2928.00,0.0367
2927.00,0.0368
2926.00,0.0368
2925.00,0.0368
2924.00,0.0368
2923.00,0.0368
2922.00,0.0368
2921.00,0.0367
2920.00,0.0366
2919.00,0.0364
2918.00,0.0362
2917.00,0.0361
2916.00,0.0359
2915.00,0.0359
2914.00,0.0358
2913.00,0.0357
2912.00,0.0356
2911.00,0.0356
2910.00,0.0355
2909.00,0.0354
2908.00,0.0354
2907.00,0.0353
2906.00,0.0352
2905.00,0.0351
2904.00,0.0350
2903.00,0.0350
2902.00,0.0349
2901.00,0.0349
2900.00,0.0349
2899.00,0.0348
2898.00,0.0347
2897.00,0.0347
2896.00,0.0346
2895.00,0.0346
2894.00,0.0345
2893.00,0.0344
2892.00,0.0344
2891.00,0.0344
2890.00,0.0343
2889.00,0.0343
2888.00,0.0343
2887.00,0.0343
2886.00,0.0342
2885.00,0.0341
2884.00,0.0341
2883.00,0.0340
2882.00,0.0340
2881.00,0.0341
2880.00,0.0341
2879.00,0.0342
2878.00,0.0342
2877.00,0.0343
2876.00,0.0343
2875.00,0.0343
2874.00,0.0343
2873.00,0.0342
2872.00,0.0342
2871.00,0.0342
2870.00,0.0342
2869.00,0.0342
2868.00,0.0342
2867.00,0.0342
2866.00,0.0343
2865.00,0.0343
2864.00,0.0344
2863.00,0.0344
2862.00,0.0345
2861.00,0.0345
2860.00,0.0346
2859.00,0.0348
2858.00,0.0349
2857.00,0.0350
2856.00,0.0351
2855.00,0.0351
2854.00,0.0350
2853.00,0.0350
2852.00,0.0350
2851.00,0.0350
2850.00,0.0349
2849.00,0.0348
2848.00,0.0347
2847.00,0.0345
2846.00,0.0344
2845.00,0.0343
2844.00,0.0343
2843.00,0.0342
2842.00,0.0341
2841.00,0.0340
2840.00,0.0339
2839.00,0.0338
2838.00,0.0337
2837.00,0.0337
2836.00,0.0337
2835.00,0.0337
2834.00,0.0337
2833.00,0.0337
2832.00,0.0336
2831.00,0.0335
2830.00,0.0335
2829.00,0.0335
2828.00,0.0335
2827.00,0.0335
2826.00,0.0334
2825.00,0.0334
2824.00,0.0334
2823.00,0.0334
2822.00,0.0333
2821.00,0.0333
2820.00,0.0332
2819.00,0.0332
2818.00,0.0331
2817.00,0.0331
2816.00,0.0330
2815.00,0.0330
2814.00,0.0329
2813.00,0.0329
2812.00,0.0329
2811.00,0.0329
2810.00,0.0329
2809.00,0.0328
2808.00,0.0328
2807.00,0.0328
2806.00,0.0328
2805.00,0.0328
2804.00,0.0328
2803.00,0.0328
2802.00,0.0327
2801.00,0.0327
2800.00,0.0327
2799.00,0.0327
2798.00,0.0326
2797.00,0.0326
2796.00,0.0326
2795.00,0.0325
2794.00,0.0325
2793.00,0.0325
2792.00,0.0325
2791.00,0.0325
2790.00,0.0325
2789.00,0.0325
2788.00,0.0324
2787.00,0.0324
2786.00,0.0324
2785.00,0.0323
2784.00,0.0323
2783.00,0.0323
2782.00,0.0322
2781.00,0.0321
2780.00,0.0320
2779.00,0.0320
2778.00,0.0320
2777.00,0.0321
2776.00,0.0321
2775.00,0.0321
2774.00,0.0321
2773.00,0.0320
2772.00,0.0320
2771.00,0.0319
2770.00,0.0318
2769.00,0.0317
2768.00,0.0317
2767.00,0.0317
2766.00,0.0317
2765.00,0.0317
2764.00,0.0317
2763.00,0.0317
2762.00,0.0317
2761.00,0.0317
2760.00,0.0317
2759.00,0.0317
2758.00,0.0316
2757.00,0.0316
2756.00,0.0316
2755.00,0.0316
2754.00,0.0315
2753.00,0.0315
2752.00,0.0315
2751.00,0.0315
2750.00,0.0315
2749.00,0.0315
2748.00,0.0315
2747.00,0.0315
2746.00,0.0315
2745.00,0.0314
2744.00,0.0314
2743.00,0.0313
2742.00,0.0313
2741.00,0.0313
2740.00,0.0313
2739.00,0.0313
2738.00,0.0312
2737.00,0.0312
2736.00,0.0311
2735.00,0.0311
2734.00,0.0311
2733.00,0.0311
2732.00,0.0311
2731.00,0.0311
2730.00,0.0311
2729.00,0.0310
2728.00,0.0310
2727.00,0.0310
2726.00,0.0310
2725.00,0.0310
2724.00,0.0310
2723.00,0.0309
2722.00,0.0309
2721.00,0.0308
2720.00,0.0308
2719.00,0.0308
2718.00,0.0308
2717.00,0.0308
2716.00,0.0308
2715.00,0.0308
2714.00,0.0308
2713.00,0.0308
2712.00,0.0307
2711.00,0.0307
2710.00,0.0307
2709.00,0.0307
2708.00,0.0306
2707.00,0.0306
2706.00,0.0306
2705.00,0.0306
2704.00,0.0305
2703.00,0.0305
2702.00,0.0305
2701.00,0.0305
2700.00,0.0305
2699.00,0.0305
2698.00,0.0305
2697.00,0.0304
2696.00,0.0304
2695.00,0.0304
2694.00,0.0304
2693.00,0.0304
2692.00,0.0304
2691.00,0.0303
2690.00,0.0303
2689.00,0.0303
2688.00,0.0303
2687.00,0.0303
2686.00,0.0303
2685.00,0.0302
2684.00,0.0302
2683.00,0.0302
2682.00,0.0302
2681.00,0.0301
2680.00,0.0301
2679.00,0.0300
2678.00,0.0300
2677.00,0.0299
2676.00,0.0299
2675.00,0.0299
2674.00,0.0299
2673.00,0.0299
2672.00,0.0299
2671.00,0.0298
2670.00,0.0298
2669.00,0.0298
2668.00,0.0298
2667.00,0.0298
2666.00,0.0298
2665.00,0.0298
2664.00,0.0298
2663.00,0.0298
2662.00,0.0299
2661.00,0.0299
2660.00,0.0299
2659.00,0.0299
2658.00,0.0299
2657.00,0.0299
2656.00,0.0299
2655.00,0.0299
2654.00,0.0299
2653.00,0.0299
2652.00,0.0299
2651.00,0.0299
2650.00,0.0299
2649.00,0.0299
2648.00,0.0299
2647.00,0.0298
2646.00,0.0298
2645.00,0.0298
2644.00,0.0298
2643.00,0.0298
2642.00,0.0298
2641.00,0.0298
2640.00,0.0298
2639.00,0.0298
2638.00,0.0298
2637.00,0.0298
2636.00,0.0298
2635.00,0.0298
2634.00,0.0298
2633.00,0.0298
2632.00,0.0299
2631.00,0.0299
2630.00,0.0298
2629.00,0.0297
2628.00,0.0297
2627.00,0.0296
2626.00,0.0297
2625.00,0.0298
2624.00,0.0298
2623.00,0.0299
2622.00,0.0299
2621.00,0.0299
2620.00,0.0298
2619.00,0.0298
2618.00,0.0298
2617.00,0.0298
2616.00,0.0298
2615.00,0.0298
2614.00,0.0297
2613.00,0.0297
2612.00,0.0298
2611.00,0.0299
2610.00,0.0298
2609.00,0.0298
2608.00,0.0297
2607.00,0.0297
2606.00,0.0298
2605.00,0.0298
2604.00,0.0298
2603.00,0.0299
2602.00,0.0298
2601.00,0.0298
2600.00,0.0298
2599.00,0.0297
2598.00,0.0297
2597.00,0.0296
2596.00,0.0296
2595.00,0.0296
2594.00,0.0296
2593.00,0.0296
2592.00,0.0297
2591.00,0.0297
2590.00,0.0297
2589.00,0.0297
2588.00,0.0297
2587.00,0.0297
2586.00,0.0296
2585.00,0.0296
2584.00,0.0296
2583.00,0.0296
2582.00,0.0296
2581.00,0.0296
2580.00,0.0297
2579.00,0.0297
2578.00,0.0298
2577.00,0.0297
2576.00,0.0296
2575.00,0.0295
2574.00,0.0295
2573.00,0.0296
2572.00,0.0296
2571.00,0.0295
2570.00,0.0295
2569.00,0.0294
2568.00,0.0294
2567.00,0.0295
2566.00,0.0297
2565.00,0.0297
2564.00,0.0297
2563.00,0.0297
2562.00,0.0297
2561.00,0.0298
2560.00,0.0297
2559.00,0.0297
2558.00,0.0297
2557.00,0.0297
2556.00,0.0297
2555.00,0.0297
2554.00,0.0296
2553.00,0.0296
2552.00,0.0295
2551.00,0.0294
2550.00,0.0293
2549.00,0.0292
2548.00,0.0291
2547.00,0.0291
2546.00,0.0291
2545.00,0.0292
2544.00,0.0293
2543.00,0.0293
2542.00,0.0292
2541.00,0.0291
2540.00,0.0290
2539.00,0.0289
2538.00,0.0288
2537.00,0.0288
2536.00,0.0289
2535.00,0.0290
2534.00,0.0291
2533.00,0.0291
2532.00,0.0292
2531.00,0.0291
2530.00,0.0291
2529.00,0.0290
2528.00,0.0290
2527.00,0.0290
2526.00,0.0290
2525.00,0.0289
2524.00,0.0288
2523.00,0.0289
2522.00,0.0289
2521.00,0.0289
2520.00,0.0290
2519.00,0.0291
2518.00,0.0292
2517.00,0.0292
2516.00,0.0292
2515.00,0.0292
2514.00,0.0291
2513.00,0.0290
2512.00,0.0289
2511.00,0.0289
2510.00,0.0290
2509.00,0.0290
2508.00,0.0290
2507.00,0.0290
2506.00,0.0289
2505.00,0.0289
2504.00,0.0288
2503.00,0.0288
2502.00,0.0289
2501.00,0.0290
2500.00,0.0290
2499.00,0.0290
2498.00,0.0290
2497.00,0.0290
2496.00,0.0289
2495.00,0.0290
2494.00,0.0290
2493.00,0.0290
2492.00,0.0290
2491.00,0.0291
2490.00,0.0291
2489.00,0.0291
2488.00,0.0291
2487.00,0.0290
2486.00,0.0290
2485.00,0.0289
2484.00,0.0288
2483.00,0.0288
2482.00,0.0288
2481.00,0.0289
2480.00,0.0289
2479.00,0.0289
2478.00,0.0289
2477.00,0.0288
2476.00,0.0288
2475.00,0.0287
2474.00,0.0287
2473.00,0.0287
2472.00,0.0287
2471.00,0.0287
2470.00,0.0287
2469.00,0.0287
2468.00,0.0286
2467.00,0.0286
2466.00,0.0286
2465.00,0.0285
2464.00,0.0285
2463.00,0.0285
2462.00,0.0285
2461.00,0.0285
2460.00,0.0286
2459.00,0.0286
2458.00,0.0287
2457.00,0.0287
2456.00,0.0287
2455.00,0.0287
2454.00,0.0287
2453.00,0.0288
2452.00,0.0288
2451.00,0.0288
2450.00,0.0287
2449.00,0.0286
2448.00,0.0285
2447.00,0.0285
2446.00,0.0285
2445.00,0.0285
2444.00,0.0284
2443.00,0.0284
2442.00,0.0284
2441.00,0.0284
2440.00,0.0285
2439.00,0.0285
2438.00,0.0284
2437.00,0.0284
2436.00,0.0283
2435.00,0.0282
2434.00,0.0282
2433.00,0.0281
2432.00,0.0281
2431.00,0.0282
2430.00,0.0282
2429.00,0.0283
2428.00,0.0283
2427.00,0.0282
2426.00,0.0282
2425.00,0.0282
2424.00,0.0282
2423.00,0.0282
2422.00,0.0282
2421.00,0.0281
2420.00,0.0281
2419.00,0.0281
2418.00,0.0281
2417.00,0.0280
2416.00,0.0280
2415.00,0.0279
2414.00,0.0279
2413.00,0.0280
2412.00,0.0280
2411.00,0.0280
2410.00,0.0280
2409.00,0.0280
2408.00,0.0280
2407.00,0.0280
2406.00,0.0279
2405.00,0.0279
2404.00,0.0278
2403.00,0.0278
2402.00,0.0277
2401.00,0.0277
2400.00,0.0277
2399.00,0.0277
2398.00,0.0276
2397.00,0.0276
2396.00,0.0276
2395.00,0.0276
2394.00,0.0275
2393.00,0.0275
2392.00,0.0275
2391.00,0.0274
2390.00,0.0274
2389.00,0.0274
2388.00,0.0273
2387.00,0.0273
2386.00,0.0272
2385.00,0.0271
2384.00,0.0270
2383.00,0.0269
2382.00,0.0268
2381.00,0.0269
2380.00,0.0269
2379.00,0.0269
2378.00,0.0269
2377.00,0.0268
2376.00,0.0267
2375.00,0.0267
2374.00,0.0267
2373.00,0.0267
2372.00,0.0267
2371.00,0.0265
2370.00,0.0263
2369.00,0.0260
2368.00,0.0259
2367.00,0.0259
2366.00,0.0262
2365.00,0.0265
2364.00,0.0266
2363.00,0.0264
2362.00,0.0263
2361.00,0.0262
2360.00,0.0263
2359.00,0.0263
2358.00,0.0263
2357.00,0.0263
2356.00,0.0263
2355.00,0.0262
2354.00,0.0262
2353.00,0.0262
2352.00,0.0262
2351.00,0.0262
2350.00,0.0261
2349.00,0.0261
2348.00,0.0261
2347.00,0.0259
2346.00,0.0258
2345.00,0.0257
2344.00,0.0259
2343.00,0.0261
2342.00,0.0264
2341.00,0.0265
2340.00,0.0266
2339.00,0.0264
2338.00,0.0262
2337.00,0.0260
2336.00,0.0260
2335.00,0.0262
2334.00,0.0263
2333.00,0.0263
2332.00,0.0262
2331.00,0.0260
2330.00,0.0259
2329.00,0.0258
2328.00,0.0259
2327.00,0.0260
2326.00,0.0261
2325.00,0.0261
2324.00,0.0261
2323.00,0.0260
2322.00,0.0260
2321.00,0.0260
2320.00,0.0261
2319.00,0.0261
2318.00,0.0261
2317.00,0.0261
2316.00,0.0261
2315.00,0.0261
2314.00,0.0261
2313.00,0.0261
2312.00,0.0261
2311.00,0.0261
2310.00,0.0262
2309.00,0.0263
2308.00,0.0264
2307.00,0.0264
2306.00,0.0264
2305.00,0.0264
2304.00,0.0263
2303.00,0.0262
2302.00,0.0261
2301.00,0.0260
2300.00,0.0261
2299.00,0.0262
2298.00,0.0262
2297.00,0.0262
2296.00,0.0262
2295.00,0.0262
2294.00,0.0263
2293.00,0.0265
2292.00,0.0267
2291.00,0.0269
2290.00,0.0268
2289.00,0.0268
2288.00,0.0268
2287.00,0.0269
2286.00,0.0270
2285.00,0.0271
2284.00,0.0272
2283.00,0.0272
2282.00,0.0272
2281.00,0.0271
2280.00,0.0270
2279.00,0.0270
2278.00,0.0270
2277.00,0.0270
2276.00,0.0269
2275.00,0.0268
2274.00,0.0266
2273.00,0.0265
2272.00,0.0265
2271.00,0.0265
2270.00,0.0266
2269.00,0.0266
2268.00,0.0266
2267.00,0.0266
2266.00,0.0267
2265.00,0.0267
2264.00,0.0268
2263.00,0.0268
2262.00,0.0269
2261.00,0.0269
2260.00,0.0270
2259.00,0.0269
2258.00,0.0267
2257.00,0.0264
2256.00,0.0262
2255.00,0.0262
2254.00,0.0263
2253.00,0.0263
2252.00,0.0263
2251.00,0.0264
2250.00,0.0264
2249.00,0.0264
2248.00,0.0263
2247.00,0.0263
2246.00,0.0265
2245.00,0.0266
2244.00,0.0267
2243.00,0.0268
2242.00,0.0268
2241.00,0.0267
2240.00,0.0265
2239.00,0.0264
2238.00,0.0263
2237.00,0.0263
2236.00,0.0263
2235.00,0.0263
2234.00,0.0263
2233.00,0.0264
2232.00,0.0263
2231.00,0.0262
2230.00,0.0262
2229.00,0.0262
2228.00,0.0262
2227.00,0.0263
2226.00,0.0264
2225.00,0.0264
2224.00,0.0263
2223.00,0.0261
2222.00,0.0260
2221.00,0.0260
2220.00,0.0260
2219.00,0.0261
2218.00,0.0261
2217.00,0.0262
2216.00,0.0263
2215.00,0.0265
2214.00,0.0265
2213.00,0.0265
2212.00,0.0264
2211.00,0.0263
2210.00,0.0262
2209.00,0.0262
2208.00,0.0262
2207.00,0.0263
2206.00,0.0263
2205.00,0.0262
2204.00,0.0261
2203.00,0.0260
2202.00,0.0259
2201.00,0.0258
2200.00,0.0257
2199.00,0.0257
2198.00,0.0257
2197.00,0.0257
2196.00,0.0257
2195.00,0.0258
2194.00,0.0258
2193.00,0.0257
2192.00,0.0256
2191.00,0.0253
2190.00,0.0250
2189.00,0.0248
2188.00,0.0249
2187.00,0.0254
2186.00,0.0259
2185.00,0.0261
2184.00,0.0259
2183.00,0.0254
2182.00,0.0252
2181.00,0.0251
2180.00,0.0252
2179.00,0.0255
2178.00,0.0257
2177.00,0.0257
2176.00,0.0256
2175.00,0.0254
2174.00,0.0253
2173.00,0.0253
2172.00,0.0254
2171.00,0.0255
2170.00,0.0258
2169.00,0.0260
2168.00,0.0261
2167.00,0.0261
2166.00,0.0262
2165.00,0.0263
2164.00,0.0264
2163.00,0.0264
2162.00,0.0264
2161.00,0.0262
2160.00,0.0257
2159.00,0.0251
2158.00,0.0246
2157.00,0.0245
2156.00,0.0244
2155.00,0.0245
2154.00,0.0248
2153.00,0.0250
2152.00,0.0251
2151.00,0.0248
2150.00,0.0245
2149.00,0.0243
2148.00,0.0244
2147.00,0.0246
2146.00,0.0248
2145.00,0.0250
2144.00,0.0250
2143.00,0.0250
2142.00,0.0251
2141.00,0.0252
2140.00,0.0253
2139.00,0.0251
2138.00,0.0248
2137.00,0.0246
2136.00,0.0243
2135.00,0.0241
2134.00,0.0240
2133.00,0.0241
2132.00,0.0241
2131.00,0.0241
2130.00,0.0242
2129.00,0.0243
2128.00,0.0245
2127.00,0.0246
2126.00,0.0246
2125.00,0.0245
2124.00,0.0245
2123.00,0.0244
2122.00,0.0243
2121.00,0.0243
2120.00,0.0242
2119.00,0.0241
2118.00,0.0241
2117.00,0.0241
2116.00,0.0240
2115.00,0.0238
2114.00,0.0237
2113.00,0.0236
2112.00,0.0236
2111.00,0.0238
2110.00,0.0240
2109.00,0.0242
2108.00,0.0244
2107.00,0.0245
2106.00,0.0246
2105.00,0.0246
2104.00,0.0245
2103.00,0.0244
2102.00,0.0243
2101.00,0.0241
2100.00,0.0239
2099.00,0.0236
2098.00,0.0234
2097.00,0.0234
2096.00,0.0235
2095.00,0.0236
2094.00,0.0236
2093.00,0.0237
2092.00,0.0237
2091.00,0.0236
2090.00,0.0235
2089.00,0.0234
2088.00,0.0234
2087.00,0.0235
2086.00,0.0236
2085.00,0.0237
2084.00,0.0238
2083.00,0.0238
2082.00,0.0238
2081.00,0.0238
2080.00,0.0238
2079.00,0.0238
2078.00,0.0238
2077.00,0.0238
2076.00,0.0238
2075.00,0.0238
2074.00,0.0238
2073.00,0.0237
2072.00,0.0238
2071.00,0.0239
2070.00,0.0239
2069.00,0.0238
2068.00,0.0235
2067.00,0.0234
2066.00,0.0233
2065.00,0.0234
2064.00,0.0236
2063.00,0.0237
2062.00,0.0239
2061.00,0.0238
2060.00,0.0237
2059.00,0.0234
2058.00,0.0233
2057.00,0.0234
2056.00,0.0235
2055.00,0.0235
2054.00,0.0237
2053.00,0.0239
2052.00,0.0240
2051.00,0.0239
2050.00,0.0237
2049.00,0.0234
2048.00,0.0233
2047.00,0.0235
2046.00,0.0237
2045.00,0.0240
2044.00,0.0242
2043.00,0.0242
2042.00,0.0242
2041.00,0.0240
2040.00,0.0238
2039.00,0.0236
2038.00,0.0236
2037.00,0.0238
2036.00,0.0239
2035.00,0.0239
2034.00,0.0236
2033.00,0.0234
2032.00,0.0236
2031.00,0.0238
2030.00,0.0239
2029.00,0.0238
2028.00,0.0236
2027.00,0.0234
2026.00,0.0233
2025.00,0.0231
2024.00,0.0228
2023.00,0.0225
2022.00,0.0223
2021.00,0.0222
2020.00,0.0221
2019.00,0.0220
2018.00,0.0218
2017.00,0.0217
2016.00,0.0218
2015.00,0.0221
2014.00,0.0224
2013.00,0.0225
2012.00,0.0224
2011.00,0.0224
2010.00,0.0225
2009.00,0.0226
2008.00,0.0226
2007.00,0.0225
2006.00,0.0223
2005.00,0.0221
2004.00,0.0220
2003.00,0.0221
2002.00,0.0224
2001.00,0.0228
2000.00,0.0228
1999.00,0.0226
1998.00,0.0224
1997.00,0.0224
1996.00,0.0226
1995.00,0.0229
1994.00,0.0231
1993.00,0.0232
1992.00,0.0231
1991.00,0.0228
1990.00,0.0225
1989.00,0.0222
1988.00,0.0221
1987.00,0.0220
1986.00,0.0221
1985.00,0.0222
1984.00,0.0223
1983.00,0.0224
1982.00,0.0225
1981.00,0.0225
1980.00,0.0222
1979.00,0.0219
1978.00,0.0214
1977.00,0.0211
1976.00,0.0211
1975.00,0.0214
1974.00,0.0217
1973.00,0.0219
1972.00,0.0219
1971.00,0.0217
1970.00,0.0217
1969.00,0.0218
1968.00,0.0219
1967.00,0.0217
1966.00,0.0215
1965.00,0.0214
1964.00,0.0214
1963.00,0.0214
1962.00,0.0214
1961.00,0.0214
1960.00,0.0214
1959.00,0.0215
1958.00,0.0215
1957.00,0.0215
1956.00,0.0213
1955.00,0.0213
1954.00,0.0214
1953.00,0.0215
1952.00,0.0215
1951.00,0.0213
1950.00,0.0210
1949.00,0.0208
1948.00,0.0207
1947.00,0.0208
1946.00,0.0209
1945.00,0.0208
1944.00,0.0206
1943.00,0.0203
1942.00,0.0200
1941.00,0.0200
1940.00,0.0199
1939.00,0.0199
1938.00,0.0199
1937.00,0.0200
1936.00,0.0200
1935.00,0.0199
1934.00,0.0198
1933.00,0.0197
1932.00,0.0198
1931.00,0.0200
1930.00,0.0202
1929.00,0.0203
1928.00,0.0204
1927.00,0.0204
1926.00,0.0204
1925.00,0.0203
1924.00,0.0202
1923.00,0.0200
1922.00,0.0199
1921.00,0.0199
1920.00,0.0199
1919.00,0.0198
1918.00,0.0196
1917.00,0.0194
1916.00,0.0195
1915.00,0.0195
1914.00,0.0196
1913.00,0.0195
1912.00,0.0195
1911.00,0.0194
1910.00,0.0193
1909.00,0.0191
1908.00,0.0190
1907.00,0.0189
1906.00,0.0189
1905.00,0.0190
1904.00,0.0190
1903.00,0.0190
1902.00,0.0190
1901.00,0.0190
1900.00,0.0189
1899.00,0.0189
1898.00,0.0189
1897.00,0.0189
1896.00,0.0187
1895.00,0.0185
1894.00,0.0184
1893.00,0.0185
1892.00,0.0187
1891.00,0.0187
1890.00,0.0185
1889.00,0.0184
1888.00,0.0183
1887.00,0.0182
1886.00,0.0182
1885.00,0.0182
1884.00,0.0183
1883.00,0.0183
1882.00,0.0183
1881.00,0.0182
1880.00,0.0182
1879.00,0.0181
1878.00,0.0179
1877.00,0.0179
1876.00,0.0178
1875.00,0.0179
1874.00,0.0180
1873.00,0.0181
1872.00,0.0182
1871.00,0.0181
1870.00,0.0179
1869.00,0.0176
1868.00,0.0172
1867.00,0.0171
1866.00,0.0172
1865.00,0.0173
1864.00,0.0174
1863.00,0.0173
1862.00,0.0172
1861.00,0.0171
1860.00,0.0170
1859.00,0.0170
1858.00,0.0170
1857.00,0.0170
1856.00,0.0170
1855.00,0.0170
1854.00,0.0169
1853.00,0.0168
1852.00,0.0168
1851.00,0.0168
1850.00,0.0168
1849.00,0.0168
1848.00,0.0167
1847.00,0.0168
1846.00,0.0168
1845.00,0.0167
1844.00,0.0164
1843.00,0.0161
1842.00,0.0161
1841.00,0.0163
1840.00,0.0164
1839.00,0.0163
1838.00,0.0162
1837.00,0.0161
1836.00,0.0160
1835.00,0.0160
1834.00,0.0161
1833.00,0.0162
1832.00,0.0163
1831.00,0.0162
1830.00,0.0158
1829.00,0.0155
1828.00,0.0155
1827.00,0.0155
1826.00,0.0155
1825.00,0.0154
1824.00,0.0152
1823.00,0.0152
1822.00,0.0152
1821.00,0.0153
1820.00,0.0153
1819.00,0.0152
1818.00,0.0150
1817.00,0.0149
1816.00,0.0149
1815.00,0.0148
1814.00,0.0149
1813.00,0.0149
1812.00,0.0148
1811.00,0.0147
1810.00,0.0146
1809.00,0.0146
1808.00,0.0147
1807.00,0.0147
1806.00,0.0148
1805.00,0.0148
1804.00,0.0148
1803.00,0.0148
1802.00,0.0148
1801.00,0.0146
1800.00,0.0145
1799.00,0.0145
1798.00,0.0146
1797.00,0.0148
1796.00,0.0149
1795.00,0.0151
1794.00,0.0152
1793.00,0.0152
1792.00,0.0150
1791.00,0.0149
1790.00,0.0149
1789.00,0.0151
1788.00,0.0153
1787.00,0.0155
1786.00,0.0156
1785.00,0.0157
1784.00,0.0158
1783.00,0.0159
1782.00,0.0160
1781.00,0.0160
1780.00,0.0160
1779.00,0.0161
1778.00,0.0163
1777.00,0.0166
1776.00,0.0169
1775.00,0.0172
1774.00,0.0174
1773.00,0.0175
1772.00,0.0173
1771.00,0.0172
1770.00,0.0175
1769.00,0.0179
1768.00,0.0181
1767.00,0.0183
1766.00,0.0185
1765.00,0.0187
1764.00,0.0190
1763.00,0.0191
1762.00,0.0190
1761.00,0.0190
1760.00,0.0192
1759.00,0.0195
1758.00,0.0197
1757.00,0.0198
1756.00,0.0201
1755.00,0.0204
1754.00,0.0209
1753.00,0.0212
1752.00,0.0213
1751.00,0.0213
1750.00,0.0214
1749.00,0.0215
1748.00,0.0217
1747.00,0.0220
1746.00,0.0223
1745.00,0.0226
1744.00,0.0229
1743.00,0.0231
1742.00,0.0234
1741.00,0.0237
1740.00,0.0239
1739.00,0.0241
1738.00,0.0243
1737.00,0.0248
1736.00,0.0253
1735.00,0.0256
1734.00,0.0257
1733.00,0.0256
1732.00,0.0257
1731.00,0.0260
1730.00,0.0262
1729.00,0.0265
1728.00,0.0268
1727.00,0.0272
1726.00,0.0275
1725.00,0.0278
1724.00,0.0280
1723.00,0.0282
1722.00,0.0283
1721.00,0.0285
1720.00,0.0286
1719.00,0.0286
1718.00,0.0287
1717.00,0.0288
1716.00,0.0289
1715.00,0.0291
1714.00,0.0293
1713.00,0.0295
1712.00,0.0297
1711.00,0.0299
1710.00,0.0299
1709.00,0.0299
1708.00,0.0300
1707.00,0.0300
1706.00,0.0299
1705.00,0.0299
1704.00,0.0301
1703.00,0.0304
1702.00,0.0307
1701.00,0.0309
1700.00,0.0308
1699.00,0.0305
1698.00,0.0305
1697.00,0.0306
1696.00,0.0306
1695.00,0.0304
1694.00,0.0304
1693.00,0.0306
1692.00,0.0307
1691.00,0.0307
1690.00,0.0307
1689.00,0.0308
1688.00,0.0308
1687.00,0.0309
1686.00,0.0308
1685.00,0.0308
1684.00,0.0306
1683.00,0.0306
1682.00,0.0308
1681.00,0.0310
1680.00,0.0311
1679.00,0.0313
1678.00,0.0316
1677.00,0.0319
1676.00,0.0322
1675.00,0.0324
1674.00,0.0324
1673.00,0.0325
1672.00,0.0325
1671.00,0.0326
1670.00,0.0327
1669.00,0.0329
1668.00,0.0330
1667.00,0.0332
1666.00,0.0334
1665.00,0.0336
1664.00,0.0337
1663.00,0.0339
1662.00,0.0341
1661.00,0.0343
1660.00,0.0347
1659.00,0.0350
1658.00,0.0352
1657.00,0.0353
1656.00,0.0352
1655.00,0.0352
1654.00,0.0355
1653.00,0.0360
1652.00,0.0361
1651.00,0.0363
1650.00,0.0365
1649.00,0.0365
1648.00,0.0367
1647.00,0.0371
1646.00,0.0375
1645.00,0.0379
1644.00,0.0382
1643.00,0.0384
1642.00,0.0385
1641.00,0.0386
1640.00,0.0387
1639.00,0.0388
1638.00,0.0389
1637.00,0.0392
1636.00,0.0399
1635.00,0.0404
1634.00,0.0407
1633.00,0.0409
1632.00,0.0409
1631.00,0.0410
1630.00,0.0412
1629.00,0.0414
1628.00,0.0417
1627.00,0.0419
1626.00,0.0422
1625.00,0.0425
1624.00,0.0429
1623.00,0.0433
1622.00,0.0436
1621.00,0.0437
1620.00,0.0438
1619.00,0.0439
1618.00,0.0442
1617.00,0.0446
1616.00,0.0450
1615.00,0.0453
1614.00,0.0455
1613.00,0.0456
1612.00,0.0457
1611.00,0.0459
1610.00,0.0462
1609.00,0.0464
1608.00,0.0466
1607.00,0.0469
1606.00,0.0472
1605.00,0.0475
1604.00,0.0477
1603.00,0.0479
1602.00,0.0480
1601.00,0.0481
1600.00,0.0483
1599.00,0.0485
1598.00,0.0487
1597.00,0.0489
1596.00,0.0492
1595.00,0.0494
1594.00,0.0496
1593.00,0.0498
1592.00,0.0500
1591.00,0.0502
1590.00,0.0504
1589.00,0.0506
1588.00,0.0508
1587.00,0.0510
1586.00,0.0513
1585.00,0.0514
1584.00,0.0515
1583.00,0.0516
1582.00,0.0518
1581.00,0.0518
1580.00,0.0518
1579.00,0.0519
1578.00,0.0520
1577.00,0.0524
1576.00,0.0528
1575.00,0.0529
1574.00,0.0528
1573.00,0.0526
1572.00,0.0524
1571.00,0.0524
1570.00,0.0527
1569.00,0.0529
1568.00,0.0530
1567.00,0.0530
1566.00,0.0529
1565.00,0.0528
1564.00,0.0526
1563.00,0.0524
1562.00,0.0521
1561.00,0.0514
1560.00,0.0516
1559.00,0.0528
1558.00,0.0531
1557.00,0.0529
1556.00,0.0528
1555.00,0.0526
1554.00,0.0525
1553.00,0.0524
1552.00,0.0522
1551.00,0.0519
1550.00,0.0517
1549.00,0.0514
1548.00,0.0512
1547.00,0.0509
1546.00,0.0506
1545.00,0.0503
1544.00,0.0500
1543.00,0.0497
1542.00,0.0494
1541.00,0.0494
1540.00,0.0494
1539.00,0.0492
1538.00,0.0490
1537.00,0.0488
1536.00,0.0485
1535.00,0.0482
1534.00,0.0480
1533.00,0.0479
1532.00,0.0477
1531.00,0.0475
1530.00,0.0472
1529.00,0.0469
1528.00,0.0467
1527.00,0.0464
1526.00,0.0461
1525.00,0.0458
1524.00,0.0455
1523.00,0.0452
1522.00,0.0451
1521.00,0.0450
1520.00,0.0449
1519.00,0.0448
1518.00,0.0445
1517.00,0.0442
1516.00,0.0440
1515.00,0.0438
1514.00,0.0437
1513.00,0.0435
1512.00,0.0433
1511.00,0.0429
1510.00,0.0425
1509.00,0.0422
1508.00,0.0421
1507.00,0.0422
1506.00,0.0421
1505.00,0.0421
1504.00,0.0421
1503.00,0.0419
1502.00,0.0415
1501.00,0.0413
1500.00,0.0411
1499.00,0.0411
1498.00,0.0411
1497.00,0.0411
1496.00,0.0411
1495.00,0.0410
1494.00,0.0407
1493.00,0.0405
1492.00,0.0403
1491.00,0.0402
1490.00,0.0401
1489.00,0.0401
1488.00,0.0401
1487.00,0.0401
1486.00,0.0401
1485.00,0.0400
1484.00,0.0400
1483.00,0.0399
1482.00,0.0398
1481.00,0.0398
1480.00,0.0398
1479.00,0.0397
1478.00,0.0397
1477.00,0.0396
1476.00,0.0396
1475.00,0.0396
1474.00,0.0397
1473.00,0.0400
1472.00,0.0402
1471.00,0.0404
1470.00,0.0406
1469.00,0.0407
1468.00,0.0408
1467.00,0.0408
1466.00,0.0408
1465.00,0.0408
1464.00,0.0408
1463.00,0.0408
1462.00,0.0407
1461.00,0.0405
1460.00,0.0404
1459.00,0.0404
1458.00,0.0407
1457.00,0.0412
1456.00,0.0414
1455.00,0.0415
1454.00,0.0415
1453.00,0.0415
1452.00,0.0416
1451.00,0.0417
1450.00,0.0419
1449.00,0.0421
1448.00,0.0424
1447.00,0.0427
1446.00,0.0428
1445.00,0.0428
1444.00,0.0429
1443.00,0.0429
1442.00,0.0429
1441.00,0.0429
1440.00,0.0430
1439.00,0.0432
1438.00,0.0434
1437.00,0.0438
1436.00,0.0441
1435.00,0.0441
1434.00,0.0441
1433.00,0.0440
1432.00,0.0441
1431.00,0.0442
1430.00,0.0442
1429.00,0.0443
1428.00,0.0444
1427.00,0.0445
1426.00,0.0445
1425.00,0.0445
1424.00,0.0446
1423.00,0.0447
1422.00,0.0448
1421.00,0.0448
1420.00,0.0450
1419.00,0.0453
1418.00,0.0455
1417.00,0.0456
1416.00,0.0457
1415.00,0.0457
1414.00,0.0457
1413.00,0.0456
1412.00,0.0456
1411.00,0.0457
1410.00,0.0457
1409.00,0.0457
1408.00,0.0458
1407.00,0.0458
1406.00,0.0458
1405.00,0.0458
1404.00,0.0459
1403.00,0.0459
1402.00,0.0459
1401.00,0.0459
1400.00,0.0459
1399.00,0.0460
1398.00,0.0461
1397.00,0.0461
1396.00,0.0462
1395.00,0.0463
1394.00,0.0464
1393.00,0.0465
1392.00,0.0466
1391.00,0.0467
1390.00,0.0467
1389.00,0.0467
1388.00,0.0469
1387.00,0.0471
1386.00,0.0472
1385.00,0.0472
1384.00,0.0472
1383.00,0.0472
1382.00,0.0473
1381.00,0.0475
1380.00,0.0476
1379.00,0.0477
1378.00,0.0478
1377.00,0.0478
1376.00,0.0479
1375.00,0.0481
1374.00,0.0482
1373.00,0.0484
1372.00,0.0485
1371.00,0.0486
1370.00,0.0486
1369.00,0.0486
1368.00,0.0487
1367.00,0.0487
1366.00,0.0487
1365.00,0.0486
1364.00,0.0486
1363.00,0.0486
1362.00,0.0488
1361.00,0.0489
1360.00,0.0490
1359.00,0.0490
1358.00,0.0489
1357.00,0.0489
1356.00,0.0490
1355.00,0.0490
1354.00,0.0490
1353.00,0.0490
1352.00,0.0489
1351.00,0.0488
1350.00,0.0487
1349.00,0.0486
1348.00,0.0485
1347.00,0.0485
1346.00,0.0485
1345.00,0.0484
1344.00,0.0483
1343.00,0.0482
1342.00,0.0481
1341.00,0.0481
1340.00,0.0482
1339.00,0.0482
1338.00,0.0482
1337.00,0.0482
1336.00,0.0482
1335.00,0.0481
1334.00,0.0480
1333.00,0.0479
1332.00,0.0478
1331.00,0.0477
1330.00,0.0477
1329.00,0.0477
1328.00,0.0476
1327.00,0.0475
1326.00,0.0474
1325.00,0.0474
1324.00,0.0474
1323.00,0.0474
1322.00,0.0475
1321.00,0.0476
1320.00,0.0476
1319.00,0.0475
1318.00,0.0474
1317.00,0.0472
1316.00,0.0471
1315.00,0.0470
1314.00,0.0470
1313.00,0.0471
1312.00,0.0472
1311.00,0.0473
1310.00,0.0473
1309.00,0.0472
1308.00,0.0471
1307.00,0.0471
1306.00,0.0470
1305.00,0.0470
1304.00,0.0470
1303.00,0.0471
1302.00,0.0471
1301.00,0.0471
1300.00,0.0470
1299.00,0.0470
1298.00,0.0469
1297.00,0.0468
1296.00,0.0468
1295.00,0.0468
1294.00,0.0469
1293.00,0.0470
1292.00,0.0471
1291.00,0.0471
1290.00,0.0472
1289.00,0.0472
1288.00,0.0472
1287.00,0.0472
1286.00,0.0472
1285.00,0.0472
1284.00,0.0473
1283.00,0.0474
1282.00,0.0474
1281.00,0.0474
1280.00,0.0473
1279.00,0.0473
1278.00,0.0472
1277.00,0.0472
1276.00,0.0472
1275.00,0.0472
1274.00,0.0472
1273.00,0.0473
1272.00,0.0473
1271.00,0.0474
1270.00,0.0475
1269.00,0.0475
1268.00,0.0476
1267.00,0.0476
1266.00,0.0477
1265.00,0.0478
1264.00,0.0479
1263.00,0.0479
1262.00,0.0479
1261.00,0.0479
1260.00,0.0480
1259.00,0.0481
1258.00,0.0483
1257.00,0.0484
1256.00,0.0484
1255.00,0.0484
1254.00,0.0485
1253.00,0.0486
1252.00,0.0488
1251.00,0.0489
1250.00,0.0489
1249.00,0.0490
1248.00,0.0491
1247.00,0.0492
1246.00,0.0493
1245.00,0.0495
1244.00,0.0496
1243.00,0.0498
1242.00,0.0498
1241.00,0.0498
1240.00,0.0498
1239.00,0.0499
1238.00,0.0500
1237.00,0.0502
1236.00,0.0503
1235.00,0.0504
1234.00,0.0505
1233.00,0.0505
1232.00,0.0506
1231.00,0.0506
1230.00,0.0506
1229.00,0.0506
1228.00,0.0506
1227.00,0.0507
1226.00,0.0508
1225.00,0.0507
1224.00,0.0507
1223.00,0.0507
1222.00,0.0508
1221.00,0.0509
1220.00,0.0510
1219.00,0.0510
1218.00,0.0510
1217.00,0.0510
1216.00,0.0510
1215.00,0.0510
1214.00,0.0510
1213.00,0.0509
1212.00,0.0510
1211.00,0.0511
1210.00,0.0512
1209.00,0.0513
1208.00,0.0514
1207.00,0.0514
1206.00,0.0513
1205.00,0.0512
1204.00,0.0512
1203.00,0.0511
1202.00,0.0511
1201.00,0.0511
1200.00,0.0512
1199.00,0.0512
1198.00,0.0512
1197.00,0.0512
1196.00,0.0511
1195.00,0.0511
1194.00,0.0511
1193.00,0.0511
1192.00,0.0511
1191.00,0.0511
1190.00,0.0510
1189.00,0.0509
1188.00,0.0508
1187.00,0.0508
1186.00,0.0509
1185.00,0.0509
1184.00,0.0509
1183.00,0.0509
1182.00,0.0509
1181.00,0.0508
1180.00,0.0506
1179.00,0.0506
1178.00,0.0505
1177.00,0.0506
1176.00,0.0506
1175.00,0.0507
1174.00,0.0507
1173.00,0.0507
1172.00,0.0507
1171.00,0.0507
1170.00,0.0506
1169.00,0.0506
1168.00,0.0506
1167.00,0.0507
1166.00,0.0508
1165.00,0.0509
1164.00,0.0509
1163.00,0.0510
1162.00,0.0511
1161.00,0.0510
1160.00,0.0510
1159.00,0.0509
1158.00,0.0507
1157.00,0.0507
1156.00,0.0507
1155.00,0.0508
1154.00,0.0508
1153.00,0.0508
1152.00,0.0507
1151.00,0.0507
1150.00,0.0506
1149.00,0.0506
1148.00,0.0505
1147.00,0.0505
1146.00,0.0505
1145.00,0.0506
1144.00,0.0507
1143.00,0.0508
1142.00,0.0509
1141.00,0.0509
1140.00,0.0510
1139.00,0.0511
1138.00,0.0511
1137.00,0.0512
1136.00,0.0513
1135.00,0.0515
1134.00,0.0517
1133.00,0.0518
1132.00,0.0519
1131.00,0.0520
1130.00,0.0521
1129.00,0.0524
1128.00,0.0527
1127.00,0.0529
1126.00,0.0528
1125.00,0.0528
1124.00,0.0529
1123.00,0.0533
1122.00,0.0539
1121.00,0.0544
1120.00,0.0548
1119.00,0.0551
1118.00,0.0552
1117.00,0.0553
1116.00,0.0555
1115.00,0.0558
1114.00,0.0561
1113.00,0.0562
1112.00,0.0562
1111.00,0.0563
1110.00,0.0565
1109.00,0.0567
1108.00,0.0570
1107.00,0.0571
1106.00,0.0573
1105.00,0.0574
1104.00,0.0577
1103.00,0.0580
1102.00,0.0584
1101.00,0.0587
1100.00,0.0589
1099.00,0.0590
1098.00,0.0591
1097.00,0.0592
1096.00,0.0593
1095.00,0.0593
1094.00,0.0594
1093.00,0.0596
1092.00,0.0599
1091.00,0.0601
1090.00,0.0601
1089.00,0.0600
1088.00,0.0598
1087.00,0.0599
1086.00,0.0600
1085.00,0.0602
1084.00,0.0604
1083.00,0.0605
1082.00,0.0606
1081.00,0.0608
1080.00,0.0610
1079.00,0.0614
1078.00,0.0617
1077.00,0.0619
1076.00,0.0619
1075.00,0.0616
1074.00,0.0614
1073.00,0.0613
1072.00,0.0613
1071.00,0.0613
1070.00,0.0611
1069.00,0.0610
1068.00,0.0610
1067.00,0.0612
1066.00,0.0615
1065.00,0.0619
1064.00,0.0623
1063.00,0.0626
1062.00,0.0627
1061.00,0.0626
1060.00,0.0624
1059.00,0.0623
1058.00,0.0623
1057.00,0.0625
1056.00,0.0626
1055.00,0.0627
1054.00,0.0629
1053.00,0.0632
1052.00,0.0634
1051.00,0.0635
1050.00,0.0635
1049.00,0.0636
1048.00,0.0637
1047.00,0.0637
1046.00,0.0636
1045.00,0.0637
1044.00,0.0637
1043.00,0.0638
1042.00,0.0637
1041.00,0.0636
1040.00,0.0636
1039.00,0.0637
1038.00,0.0639
1037.00,0.0641
1036.00,0.0642
1035.00,0.0642
1034.00,0.0641
1033.00,0.0641
1032.00,0.0641
1031.00,0.0640
1030.00,0.0638
1029.00,0.0635
1028.00,0.0632
1027.00,0.0629
1026.00,0.0628
1025.00,0.0627
1024.00,0.0625
1023.00,0.0622
1022.00,0.0618
1021.00,0.0615
1020.00,0.0612
1019.00,0.0610
1018.00,0.0609
1017.00,0.0608
1016.00,0.0607
1015.00,0.0607
1014.00,0.0607
1013.00,0.0606
1012.00,0.0605
1011.00,0.0605
1010.00,0.0605
1009.00,0.0604
1008.00,0.0603
1007.00,0.0602
1006.00,0.0601
1005.00,0.0600
1004.00,0.0599
1003.00,0.0598
1002.00,0.0596
1001.00,0.0593
1000.00,0.0589
999.00,0.0585
998.00,0.0581
997.00,0.0578
996.00,0.0577
995.00,0.0576
994.00,0.0574
993.00,0.0571
992.00,0.0567
991.00,0.0563
990.00,0.0560
989.00,0.0557
988.00,0.0555
987.00,0.0555
986.00,0.0555
985.00,0.0554
984.00,0.0552
983.00,0.0548
982.00,0.0546
981.00,0.0544
980.00,0.0542
979.00,0.0540
978.00,0.0538
977.00,0.0535
976.00,0.0532
975.00,0.0529
974.00,0.0527
973.00,0.0525
972.00,0.0524
971.00,0.0522
970.00,0.0520
969.00,0.0516
968.00,0.0514
967.00,0.0511
966.00,0.0510
965.00,0.0508
964.00,0.0508
963.00,0.0508
962.00,0.0508
961.00,0.0508
960.00,0.0507
959.00,0.0505
958.00,0.0503
957.00,0.0502
956.00,0.0501
955.00,0.0499
954.00,0.0498
953.00,0.0497
952.00,0.0497
951.00,0.0499
950.00,0.0500
949.00,0.0500
948.00,0.0500
947.00,0.0498
946.00,0.0495
945.00,0.0494
944.00,0.0493
943.00,0.0493
942.00,0.0494
941.00,0.0496
940.00,0.0499
939.00,0.0501
938.00,0.0503
937.00,0.0502
936.00,0.0500
935.00,0.0497
934.00,0.0497
933.00,0.0498
932.00,0.0501
931.00,0.0504
930.00,0.0505
929.00,0.0506
928.00,0.0506
927.00,0.0507
926.00,0.0507
925.00,0.0507
924.00,0.0508
923.00,0.0509
922.00,0.0509
921.00,0.0509
920.00,0.0509
919.00,0.0509
918.00,0.0510
917.00,0.0512
916.00,0.0515
915.00,0.0518
914.00,0.0518
913.00,0.0518
912.00,0.0517
911.00,0.0516
910.00,0.0515
909.00,0.0512
908.00,0.0509
907.00,0.0507
906.00,0.0508
905.00,0.0511
904.00,0.0513
903.00,0.0515
902.00,0.0515
901.00,0.0513
900.00,0.0510
899.00,0.0510
898.00,0.0510
897.00,0.0511
896.00,0.0511
895.00,0.0509
894.00,0.0507
893.00,0.0505
892.00,0.0503
891.00,0.0502
890.00,0.0501
889.00,0.0501
888.00,0.0502
887.00,0.0500
886.00,0.0498
885.00,0.0496
884.00,0.0495
883.00,0.0497
882.00,0.0499
881.00,0.0499
880.00,0.0497
879.00,0.0494
878.00,0.0491
877.00,0.0487
876.00,0.0484
875.00,0.0483
874.00,0.0483
873.00,0.0483
872.00,0.0484
871.00,0.0484
870.00,0.0483
869.00,0.0482
868.00,0.0480
867.00,0.0478
866.00,0.0478
865.00,0.0479
864.00,0.0481
863.00,0.0483
862.00,0.0483
861.00,0.0482
860.00,0.0482
859.00,0.0481
858.00,0.0479
857.00,0.0478
856.00,0.0477
855.00,0.0477
854.00,0.0479
853.00,0.0481
852.00,0.0483
851.00,0.0485
850.00,0.0486
849.00,0.0488
848.00,0.0490
847.00,0.0492
846.00,0.0493
845.00,0.0495
844.00,0.0496
843.00,0.0497
842.00,0.0496
841.00,0.0496
840.00,0.0495
839.00,0.0495
838.00,0.0496
837.00,0.0497
836.00,0.0499
835.00,0.0501
834.00,0.0501
833.00,0.0500
832.00,0.0500
831.00,0.0500
830.00,0.0500
829.00,0.0499
828.00,0.0500
827.00,0.0502
826.00,0.0505
825.00,0.0510
824.00,0.0515
823.00,0.0518
822.00,0.0520
821.00,0.0521
820.00,0.0522
819.00,0.0523
818.00,0.0521
817.00,0.0519
816.00,0.0517
815.00,0.0517
814.00,0.0519
813.00,0.0524
812.00,0.0527
811.00,0.0529
810.00,0.0530
809.00,0.0531
808.00,0.0532
807.00,0.0533
806.00,0.0534
805.00,0.0536
804.00,0.0539
803.00,0.0541
802.00,0.0544
801.00,0.0548
800.00,0.0553
799.00,0.0557
798.00,0.0559
797.00,0.0560
796.00,0.0560
795.00,0.0560
794.00,0.0560
793.00,0.0560
792.00,0.0560
791.00,0.0561
790.00,0.0562
789.00,0.0563
788.00,0.0564
787.00,0.0565
786.00,0.0567
785.00,0.0569
784.00,0.0571
783.00,0.0573
782.00,0.0573
781.00,0.0572
780.00,0.0572
779.00,0.0571
778.00,0.0572
777.00,0.0573
776.00,0.0574
775.00,0.0574
774.00,0.0572
773.00,0.0570
772.00,0.0568
771.00,0.0569
770.00,0.0570
769.00,0.0572
768.00,0.0573
767.00,0.0572
766.00,0.0570
765.00,0.0567
764.00,0.0566
763.00,0.0564
762.00,0.0563
761.00,0.0562
760.00,0.0564
759.00,0.0568
758.00,0.0572
757.00,0.0575
756.00,0.0576
755.00,0.0574
754.00,0.0573
753.00,0.0573
752.00,0.0574
751.00,0.0576
750.00,0.0578
749.00,0.0580
748.00,0.0581
747.00,0.0580
746.00,0.0579
745.00,0.0577
744.00,0.0576
743.00,0.0575
742.00,0.0575
741.00,0.0575
740.00,0.0575
739.00,0.0574
738.00,0.0573
737.00,0.0573
736.00,0.0572
735.00,0.0572
734.00,0.0572
733.00,0.0572
732.00,0.0572
731.00,0.0572
730.00,0.0573
729.00,0.0575
728.00,0.0578
727.00,0.0582
726.00,0.0586
725.00,0.0587
724.00,0.0586
723.00,0.0585
722.00,0.0585
721.00,0.0588
720.00,0.0590
719.00,0.0591
718.00,0.0591
717.00,0.0589
716.00,0.0588
715.00,0.0587
714.00,0.0587
713.00,0.0589
712.00,0.0591
711.00,0.0593
710.00,0.0593
709.00,0.0593
708.00,0.0594
707.00,0.0595
706.00,0.0599
705.00,0.0604
704.00,0.0610
703.00,0.0615
702.00,0.0616
701.00,0.0615
700.00,0.0613
699.00,0.0613
698.00,0.0614
697.00,0.0615
696.00,0.0616
695.00,0.0618
694.00,0.0621
693.00,0.0625
692.00,0.0628
691.00,0.0631
690.00,0.0632
689.00,0.0633
688.00,0.0633
687.00,0.0632
686.00,0.0630
685.00,0.0628
684.00,0.0627
683.00,0.0625
682.00,0.0623
681.00,0.0622
680.00,0.0624
679.00,0.0625
678.00,0.0627
677.00,0.0629
676.00,0.0630
675.00,0.0630
674.00,0.0630
673.00,0.0630
672.00,0.0631
671.00,0.0632
670.00,0.0637
669.00,0.0645
668.00,0.0654
667.00,0.0658
666.00,0.0657
665.00,0.0654
664.00,0.0651
663.00,0.0645
662.00,0.0639
661.00,0.0634
660.00,0.0633
659.00,0.0635
658.00,0.0641
657.00,0.0649
656.00,0.0657
655.00,0.0660
654.00,0.0656
653.00,0.0649
652.00,0.0644
651.00,0.0641
650.00,0.0642
