Created as New Dataset,Monday, April 03 2023
cm-1,A
4000.00,0.0244
3999.00,0.0244
3998.00,0.0244
3997.00,0.0244
3996.00,0.0244
3995.00,0.0244
3994.00,0.0243
3993.00,0.0243
3992.00,0.0243
3991.00,0.0243
3990.00,0.0242
3989.00,0.0242
3988.00,0.0242
3987.00,0.0242
3986.00,0.0242
3985.00,0.0242
3984.00,0.0242
3983.00,0.0242
3982.00,0.0242
3981.00,0.0241
3980.00,0.0241
3979.00,0.0241
3978.00,0.0241
3977.00,0.0241
3976.00,0.0241
3975.00,0.0241
3974.00,0.0240
3973.00,0.0240
3972.00,0.0241
3971.00,0.0241
3970.00,0.0241
3969.00,0.0241
3968.00,0.0241
3967.00,0.0240
3966.00,0.0240
3965.00,0.0239
3964.00,0.0240
3963.00,0.0241
3962.00,0.0241
3961.00,0.0241
3960.00,0.0240
3959.00,0.0240
3958.00,0.0239
3957.00,0.0239
3956.00,0.0239
3955.00,0.0239
3954.00,0.0238
3953.00,0.0238
3952.00,0.0238
3951.00,0.0239
3950.00,0.0240
3949.00,0.0241
3948.00,0.0241
3947.00,0.0241
3946.00,0.0241
3945.00,0.0240
3944.00,0.0239
3943.00,0.0237
3942.00,0.0236
3941.00,0.0236
3940.00,0.0237
3939.00,0.0238
3938.00,0.0238
3937.00,0.0238
3936.00,0.0238
3935.00,0.0238
3934.00,0.0238
3933.00,0.0237
3932.00,0.0237
3931.00,0.0237
3930.00,0.0237
3929.00,0.0237
3928.00,0.0237
3927.00,0.0237
3926.00,0.0237
3925.00,0.0237
3924.00,0.0236
3923.00,0.0237
3922.00,0.0237
3921.00,0.0237
3920.00,0.0236
3919.00,0.0236
3918.00,0.0237
3917.00,0.0237
3916.00,0.0237
3915.00,0.0237
3914.00,0.0236
3913.00,0.0236
3912.00,0.0235
3911.00,0.0234
3910.00,0.0234
3909.00,0.0234
3908.00,0.0234
3907.00,0.0234
3906.00,0.0234
3905.00,0.0234
3904.00,0.0235
3903.00,0.0236
3902.00,0.0238
3901.00,0.0239
3900.00,0.0238
3899.00,0.0237
3898.00,0.0236
3897.00,0.0235
3896.00,0.0235
3895.00,0.0235
3894.00,0.0235
3893.00,0.0234
3892.00,0.0234
3891.00,0.0233
3890.00,0.0232
3889.00,0.0234
3888.00,0.0234
3887.00,0.0234
3886.00,0.0233
3885.00,0.0233
3884.00,0.0233
3883.00,0.0234
3882.00,0.0234
3881.00,0.0231
3880.00,0.0229
3879.00,0.0230
3878.00,0.0232
3877.00,0.0235
3876.00,0.0235
3875.00,0.0234
3874.00,0.0232
3873.00,0.0232
3872.00,0.0233
3871.00,0.0234
3870.00,0.0233
3869.00,0.0233
3868.00,0.0234
3867.00,0.0235
3866.00,0.0235
3865.00,0.0234
3864.00,0.0234
3863.00,0.0234
3862.00,0.0234
3861.00,0.0234
3860.00,0.0234
3859.00,0.0233
3858.00,0.0231
3857.00,0.0230
3856.00,0.0229
3855.00,0.0230
3854.00,0.0233
3853.00,0.0233
3852.00,0.0232
3851.00,0.0233
3850.00,0.0233
3849.00,0.0231
3848.00,0.0230
3847.00,0.0229
3846.00,0.0229
3845.00,0.0229
3844.00,0.0229
3843.00,0.0229
3842.00,0.0230
3841.00,0.0232
3840.00,0.0233
3839.00,0.0234
3838.00,0.0233
3837.00,0.0231
3836.00,0.0231
3835.00,0.0230
3834.00,0.0230
3833.00,0.0229
3832.00,0.0228
3831.00,0.0228
3830.00,0.0229
3829.00,0.0229
3828.00,0.0229
3827.00,0.0227
3826.00,0.0226
3825.00,0.0227
3824.00,0.0229
3823.00,0.0231
3822.00,0.0231
3821.00,0.0230
3820.00,0.0229
3819.00,0.0230
3818.00,0.0231
3817.00,0.0230
3816.00,0.0228
3815.00,0.0227
3814.00,0.0228
3813.00,0.0229
3812.00,0.0228
3811.00,0.0226
3810.00,0.0225
3809.00,0.0226
3808.00,0.0227
3807.00,0.0227
3806.00,0.0228
3805.00,0.0230
3804.00,0.0232
3803.00,0.0233
3802.00,0.0231
3801.00,0.0229
3800.00,0.0228
3799.00,0.0229
3798.00,0.0228
3797.00,0.0225
3796.00,0.0223
3795.00,0.0222
3794.00,0.0223
3793.00,0.0224
3792.00,0.0224
3791.00,0.0224
3790.00,0.0223
3789.00,0.0224
3788.00,0.0224
3787.00,0.0224
3786.00,0.0224
3785.00,0.0224
3784.00,0.0223
3783.00,0.0223
3782.00,0.0224
3781.00,0.0223
3780.00,0.0222
3779.00,0.0221
3778.00,0.0220
3777.00,0.0220
3776.00,0.0221
3775.00,0.0221
3774.00,0.0220
3773.00,0.0221
3772.00,0.0221
3771.00,0.0221
3770.00,0.0221
3769.00,0.0220
3768.00,0.0221
3767.00,0.0221
3766.00,0.0220
3765.00,0.0219
3764.00,0.0220
3763.00,0.0221
3762.00,0.0222
3761.00,0.0222
3760.00,0.0221
3759.00,0.0220
3758.00,0.0220
3757.00,0.0219
3756.00,0.0219
3755.00,0.0220
3754.00,0.0221
3753.00,0.0222
3752.00,0.0224
3751.00,0.0226
3750.00,0.0226
3749.00,0.0226
3748.00,0.0227
3747.00,0.0227
3746.00,0.0226
3745.00,0.0223
3744.00,0.0220
3743.00,0.0219
3742.00,0.0221
3741.00,0.0222
3740.00,0.0221
3739.00,0.0221
3738.00,0.0221
3737.00,0.0221
3736.00,0.0220
3735.00,0.0219
3734.00,0.0217
3733.00,0.0217
3732.00,0.0216
3731.00,0.0216
3730.00,0.0217
3729.00,0.0218
3728.00,0.0217
3727.00,0.0216
3726.00,0.0216
3725.00,0.0215
3724.00,0.0215
3723.00,0.0215
3722.00,0.0214
3721.00,0.0215
3720.00,0.0215
3719.00,0.0216
3718.00,0.0216
3717.00,0.0216
3716.00,0.0216
3715.00,0.0217
3714.00,0.0219
3713.00,0.0221
3712.00,0.0223
3711.00,0.0223
3710.00,0.0221
3709.00,0.0221
3708.00,0.0221
3707.00,0.0223
3706.00,0.0225
3705.00,0.0227
3704.00,0.0228
3703.00,0.0229
3702.00,0.0229
3701.00,0.0230
3700.00,0.0231
3699.00,0.0233
3698.00,0.0235
3697.00,0.0235
3696.00,0.0235
3695.00,0.0235
3694.00,0.0235
3693.00,0.0235
3692.00,0.0236
3691.00,0.0238
3690.00,0.0240
3689.00,0.0239
3688.00,0.0237
3687.00,0.0235
3686.00,0.0234
3685.00,0.0233
3684.00,0.0231
3683.00,0.0230
3682.00,0.0229
3681.00,0.0227
3680.00,0.0226
3679.00,0.0225
3678.00,0.0225
3677.00,0.0226
3676.00,0.0225
3675.00,0.0224
3674.00,0.0224
3673.00,0.0227
3672.00,0.0229
3671.00,0.0230
3670.00,0.0230
3669.00,0.0230
3668.00,0.0230
3667.00,0.0231
3666.00,0.0230
3665.00,0.0229
3664.00,0.0229
3663.00,0.0230
3662.00,0.0231
3661.00,0.0232
3660.00,0.0234
3659.00,0.0236
3658.00,0.0239
3657.00,0.0241
3656.00,0.0242
3655.00,0.0244
3654.00,0.0246
3653.00,0.0247
3652.00,0.0247
3651.00,0.0248
3650.00,0.0249
3649.00,0.0250
3648.00,0.0249
3647.00,0.0249
3646.00,0.0249
3645.00,0.0249
3644.00,0.0250
3643.00,0.0250
3642.00,0.0250
3641.00,0.0250
3640.00,0.0250
3639.00,0.0250
3638.00,0.0250
3637.00,0.0251
3636.00,0.0252
3635.00,0.0252
3634.00,0.0253
3633.00,0.0254
3632.00,0.0256
3631.00,0.0258
3630.00,0.0261
3629.00,0.0264
3628.00,0.0266
3627.00,0.0268
3626.00,0.0270
3625.00,0.0271
3624.00,0.0271
3623.00,0.0272
3622.00,0.0275
3621.00,0.0278
3620.00,0.0280
3619.00,0.0281
3618.00,0.0281
3617.00,0.0280
3616.00,0.0280
3615.00,0.0279
3614.00,0.0278
3613.00,0.0277
3612.00,0.0277
3611.00,0.0278
3610.00,0.0280
3609.00,0.0281
3608.00,0.0282
3607.00,0.0282
3606.00,0.0281
3605.00,0.0281
3604.00,0.0281
3603.00,0.0281
3602.00,0.0283
3601.00,0.0285
3600.00,0.0285
3599.00,0.0285
3598.00,0.0285
3597.00,0.0285
3596.00,0.0285
3595.00,0.0285
3594.00,0.0286
3593.00,0.0286
3592.00,0.0286
3591.00,0.0286
3590.00,0.0288
3589.00,0.0290
3588.00,0.0292
3587.00,0.0294
3586.00,0.0294
3585.00,0.0295
3584.00,0.0295
3583.00,0.0295
3582.00,0.0295
3581.00,0.0295
3580.00,0.0295
3579.00,0.0296
3578.00,0.0297
3577.00,0.0298
3576.00,0.0299
3575.00,0.0299
3574.00,0.0300
3573.00,0.0301
3572.00,0.0301
3571.00,0.0301
3570.00,0.0301
3569.00,0.0302
3568.00,0.0305
3567.00,0.0308
3566.00,0.0310
3565.00,0.0310
3564.00,0.0309
3563.00,0.0309
3562.00,0.0309
3561.00,0.0309
3560.00,0.0310
3559.00,0.0311
3558.00,0.0312
3557.00,0.0313
3556.00,0.0314
3555.00,0.0315
3554.00,0.0316
3553.00,0.0317
3552.00,0.0317
3551.00,0.0319
3550.00,0.0320
3549.00,0.0321
3548.00,0.0322
3547.00,0.0323
3546.00,0.0324
3545.00,0.0325
3544.00,0.0325
3543.00,0.0326
3542.00,0.0326
3541.00,0.0326
3540.00,0.0325
3539.00,0.0325
3538.00,0.0324
3537.00,0.0324
3536.00,0.0325
3535.00,0.0326
3534.00,0.0328
3533.00,0.0329
3532.00,0.0330
3531.00,0.0331
3530.00,0.0332
3529.00,0.0332
3528.00,0.0332
3527.00,0.0333
3526.00,0.0334
3525.00,0.0335
3524.00,0.0337
3523.00,0.0338
3522.00,0.0338
3521.00,0.0338
3520.00,0.0337
3519.00,0.0337
3518.00,0.0336
3517.00,0.0336
3516.00,0.0336
3515.00,0.0337
3514.00,0.0338
3513.00,0.0340
3512.00,0.0341
3511.00,0.0342
3510.00,0.0343
3509.00,0.0344
3508.00,0.0344
3507.00,0.0345
3506.00,0.0345
3505.00,0.0346
3504.00,0.0347
3503.00,0.0348
3502.00,0.0349
3501.00,0.0349
3500.00,0.0349
3499.00,0.0349
3498.00,0.0350
3497.00,0.0351
3496.00,0.0352
3495.00,0.0352
3494.00,0.0352
3493.00,0.0352
3492.00,0.0352
3491.00,0.0352
3490.00,0.0352
3489.00,0.0353
3488.00,0.0353
3487.00,0.0354
3486.00,0.0355
3485.00,0.0356
3484.00,0.0357
3483.00,0.0358
3482.00,0.0358
3481.00,0.0359
3480.00,0.0359
3479.00,0.0359
3478.00,0.0360
3477.00,0.0361
3476.00,0.0362
3475.00,0.0363
3474.00,0.0364
3473.00,0.0365
3472.00,0.0366
3471.00,0.0366
3470.00,0.0366
3469.00,0.0366
3468.00,0.0366
3467.00,0.0367
3466.00,0.0368
3465.00,0.0369
3464.00,0.0370
3463.00,0.0370
3462.00,0.0369
3461.00,0.0369
3460.00,0.0369
3459.00,0.0371
3458.00,0.0372
3457.00,0.0372
3456.00,0.0372
3455.00,0.0372
3454.00,0.0372
3453.00,0.0372
3452.00,0.0373
3451.00,0.0374
3450.00,0.0375
3449.00,0.0375
3448.00,0.0376
3447.00,0.0377
3446.00,0.0378
3445.00,0.0378
3444.00,0.0379
3443.00,0.0379
3442.00,0.0379
3441.00,0.0378
3440.00,0.0378
3439.00,0.0378
3438.00,0.0378
3437.00,0.0379
3436.00,0.0379
3435.00,0.0379
3434.00,0.0379
3433.00,0.0380
3432.00,0.0381
3431.00,0.0382
3430.00,0.0382
3429.00,0.0382
3428.00,0.0382
3427.00,0.0383
3426.00,0.0383
3425.00,0.0385
3424.00,0.0386
3423.00,0.0388
3422.00,0.0388
3421.00,0.0389
3420.00,0.0389
3419.00,0.0389
3418.00,0.0389
3417.00,0.0389
3416.00,0.0388
3415.00,0.0388
3414.00,0.0388
3413.00,0.0389
3412.00,0.0390
3411.00,0.0391
3410.00,0.0392
3409.00,0.0393
3408.00,0.0393
3407.00,0.0393
3406.00,0.0393
3405.00,0.0393
3404.00,0.0393
3403.00,0.0393
3402.00,0.0393
3401.00,0.0394
3400.00,0.0395
3399.00,0.0395
3398.00,0.0395
3397.00,0.0395
3396.00,0.0395
3395.00,0.0396
3394.00,0.0396
3393.00,0.0397
3392.00,0.0398
3391.00,0.0398
3390.00,0.0399
3389.00,0.0399
3388.00,0.0399
3387.00,0.0398
3386.00,0.0398
3385.00,0.0398
3384.00,0.0399
3383.00,0.0400
3382.00,0.0401
3381.00,0.0401
3380.00,0.0402
3379.00,0.0402
3378.00,0.0403
3377.00,0.0403
3376.00,0.0403
3375.00,0.0403
3374.00,0.0403
3373.00,0.0402
3372.00,0.0402
3371.00,0.0401
3370.00,0.0402
3369.00,0.0403
3368.00,0.0404
3367.00,0.0405
3366.00,0.0405
3365.00,0.0404
3364.00,0.0404
3363.00,0.0405
3362.00,0.0406
3361.00,0.0407
3360.00,0.0408
3359.00,0.0408
3358.00,0.0408
3357.00,0.0408
3356.00,0.0408
3355.00,0.0408
3354.00,0.0409
3353.00,0.0409
3352.00,0.0409
3351.00,0.0410
3350.00,0.0410
3349.00,0.0411
3348.00,0.0411
3347.00,0.0411
3346.00,0.0410
3345.00,0.0410
3344.00,0.0410
3343.00,0.0410
3342.00,0.0410
3341.00,0.0411
3340.00,0.0411
3339.00,0.0412
3338.00,0.0412
3337.00,0.0412
3336.00,0.0412
3335.00,0.0412
3334.00,0.0412
3333.00,0.0412
3332.00,0.0412
3331.00,0.0411
3330.00,0.0410
3329.00,0.0410
3328.00,0.0410
3327.00,0.0411
3326.00,0.0412
3325.00,0.0413
3324.00,0.0414
3323.00,0.0414
3322.00,0.0413
3321.00,0.0412
3320.00,0.0412
3319.00,0.0411
3318.00,0.0411
3317.00,0.0411
3316.00,0.0412
3315.00,0.0412
3314.00,0.0412
3313.00,0.0412
3312.00,0.0411
3311.00,0.0411
3310.00,0.0412
3309.00,0.0413
3308.00,0.0413
3307.00,0.0414
3306.00,0.0413
3305.00,0.0413
3304.00,0.0413
3303.00,0.0413
3302.00,0.0413
3301.00,0.0413
3300.00,0.0413
3299.00,0.0413
3298.00,0.0413
3297.00,0.0414
3296.00,0.0414
3295.00,0.0415
3294.00,0.0415
3293.00,0.0415
3292.00,0.0414
3291.00,0.0414
3290.00,0.0414
3289.00,0.0414
3288.00,0.0414
3287.00,0.0414
3286.00,0.0415
3285.00,0.0415
3284.00,0.0416
3283.00,0.0416
3282.00,0.0416
3281.00,0.0415
3280.00,0.0415
3279.00,0.0415
3278.00,0.0415
3277.00,0.0415
3276.00,0.0416
3275.00,0.0416
3274.00,0.0416
3273.00,0.0416
3272.00,0.0417
3271.00,0.0417
3270.00,0.0418
3269.00,0.0418
3268.00,0.0418
3267.00,0.0418
3266.00,0.0417
3265.00,0.0416
3264.00,0.0415
3263.00,0.0414
3262.00,0.0414
3261.00,0.0415
3260.00,0.0415
3259.00,0.0415
3258.00,0.0415
3257.00,0.0415
3256.00,0.0414
3255.00,0.0414
3254.00,0.0414
3253.00,0.0415
3252.00,0.0415
3251.00,0.0414
3250.00,0.0414
3249.00,0.0413
3248.00,0.0412
3247.00,0.0412
3246.00,0.0412
3245.00,0.0413
3244.00,0.0413
3243.00,0.0413
3242.00,0.0413
3241.00,0.0413
3240.00,0.0413
3239.00,0.0414
3238.00,0.0414
3237.00,0.0415
3236.00,0.0416
3235.00,0.0416
3234.00,0.0416
3233.00,0.0416
3232.00,0.0416
3231.00,0.0415
3230.00,0.0415
3229.00,0.0414
3228.00,0.0414
3227.00,0.0414
3226.00,0.0413
3225.00,0.0413
3224.00,0.0413
3223.00,0.0413
3222.00,0.0413
3221.00,0.0413
3220.00,0.0412
3219.00,0.0412
3218.00,0.0411
3217.00,0.0412
3216.00,0.0412
3215.00,0.0413
3214.00,0.0413
3213.00,0.0413
3212.00,0.0412
3211.00,0.0411
3210.00,0.0411
3209.00,0.0411
3208.00,0.0411
3207.00,0.0411
3206.00,0.0411
3205.00,0.0412
3204.00,0.0412
3203.00,0.0412
3202.00,0.0412
3201.00,0.0412
3200.00,0.0412
3199.00,0.0412
3198.00,0.0412
3197.00,0.0412
3196.00,0.0411
3195.00,0.0411
3194.00,0.0411
3193.00,0.0411
3192.00,0.0410
3191.00,0.0410
3190.00,0.0409
3189.00,0.0408
3188.00,0.0408
3187.00,0.0407
3186.00,0.0407
3185.00,0.0408
3184.00,0.0408
3183.00,0.0408
3182.00,0.0409
3181.00,0.0409
3180.00,0.0408
3179.00,0.0408
3178.00,0.0407
3177.00,0.0406
3176.00,0.0405
3175.00,0.0406
3174.00,0.0406
3173.00,0.0406
3172.00,0.0406
3171.00,0.0406
3170.00,0.0406
3169.00,0.0406
3168.00,0.0405
3167.00,0.0405
3166.00,0.0405
3165.00,0.0406
3164.00,0.0406
3163.00,0.0407
3162.00,0.0407
3161.00,0.0406
3160.00,0.0405
3159.00,0.0404
3158.00,0.0403
3157.00,0.0402
3156.00,0.0403
3155.00,0.0403
3154.00,0.0404
3153.00,0.0404
3152.00,0.0404
3151.00,0.0404
3150.00,0.0403
3149.00,0.0403
3148.00,0.0403
3147.00,0.0402
3146.00,0.0402
3145.00,0.0402
3144.00,0.0402
3143.00,0.0402
3142.00,0.0402
3141.00,0.0401
3140.00,0.0401
3139.00,0.0401
3138.00,0.0401
3137.00,0.0401
3136.00,0.0402
3135.00,0.0402
3134.00,0.0402
3133.00,0.0401
3132.00,0.0401
3131.00,0.0401
3130.00,0.0401
3129.00,0.0400
3128.00,0.0400
3127.00,0.0400
3126.00,0.0399
3125.00,0.0399
3124.00,0.0399
3123.00,0.0399
3122.00,0.0399
3121.00,0.0399
3120.00,0.0399
3119.00,0.0399
3118.00,0.0399
3117.00,0.0398
3116.00,0.0398
3115.00,0.0398
3114.00,0.0398
3113.00,0.0397
3112.00,0.0397
3111.00,0.0397
3110.00,0.0397
3109.00,0.0397
3108.00,0.0396
3107.00,0.0397
3106.00,0.0397
3105.00,0.0397
3104.00,0.0397
3103.00,0.0397
3102.00,0.0397
3101.00,0.0396
3100.00,0.0396
3099.00,0.0395
3098.00,0.0395
3097.00,0.0396
3096.00,0.0396
3095.00,0.0397
3094.00,0.0398
3093.00,0.0398
3092.00,0.0398
3091.00,0.0397
3090.00,0.0396
3089.00,0.0395
3088.00,0.0394
3087.00,0.0394
3086.00,0.0395
3085.00,0.0395
3084.00,0.0396
3083.00,0.0396
3082.00,0.0395
3081.00,0.0395
3080.00,0.0396
3079.00,0.0396
3078.00,0.0396
3077.00,0.0396
3076.00,0.0396
3075.00,0.0396
3074.00,0.0396
3073.00,0.0396
3072.00,0.0396
3071.00,0.0396
3070.00,0.0396
3069.00,0.0396
3068.00,0.0396
3067.00,0.0395
3066.00,0.0395
3065.00,0.0394
3064.00,0.0393
3063.00,0.0393
3062.00,0.0393
3061.00,0.0393
3060.00,0.0393
3059.00,0.0393
3058.00,0.0393
3057.00,0.0393
3056.00,0.0393
3055.00,0.0393
3054.00,0.0392
3053.00,0.0392
3052.00,0.0392
3051.00,0.0392
3050.00,0.0393
3049.00,0.0393
3048.00,0.0393
3047.00,0.0393
3046.00,0.0393
3045.00,0.0392
3044.00,0.0391
3043.00,0.0390
3042.00,0.0389
3041.00,0.0389
3040.00,0.0388
3039.00,0.0388
3038.00,0.0389
3037.00,0.0389
3036.00,0.0390
3035.00,0.0390
3034.00,0.0390
3033.00,0.0390
3032.00,0.0389
3031.00,0.0389
3030.00,0.0388
3029.00,0.0387
3028.00,0.0386
3027.00,0.0386
3026.00,0.0386
3025.00,0.0386
3024.00,0.0386
3023.00,0.0385
3022.00,0.0385
3021.00,0.0385
3020.00,0.0385
3019.00,0.0384
3018.00,0.0383
3017.00,0.0383
3016.00,0.0383
3015.00,0.0382
3014.00,0.0381
3013.00,0.0380
3012.00,0.0379
3011.00,0.0379
3010.00,0.0378
3009.00,0.0377
3008.00,0.0376
3007.00,0.0375
3006.00,0.0373
3005.00,0.0373
3004.00,0.0372
3003.00,0.0370
3002.00,0.0369
3001.00,0.0367
3000.00,0.0366
2999.00,0.0365
2998.00,0.0363
2997.00,0.0362
2996.00,0.0361
2995.00,0.0361
2994.00,0.0360
2993.00,0.0359
2992.00,0.0359
2991.00,0.0358
2990.00,0.0357
2989.00,0.0357
2988.00,0.0356
2987.00,0.0354
2986.00,0.0351
2985.00,0.0348
2984.00,0.0344
2983.00,0.0341
2982.00,0.0340
2981.00,0.0340
2980.00,0.0342
2979.00,0.0344
2978.00,0.0346
2977.00,0.0348
2976.00,0.0349
2975.00,0.0350
2974.00,0.0350
2973.00,0.0349
2972.00,0.0348
2971.00,0.0348
2970.00,0.0349
2969.00,0.0350
2968.00,0.0352
2967.00,0.0353
2966.00,0.0353
2965.00,0.0353
2964.00,0.0354
2963.00,0.0355
2962.00,0.0356
2961.00,0.0357
2960.00,0.0357
2959.00,0.0357
2958.00,0.0358
2957.00,0.0358
2956.00,0.0359
2955.00,0.0360
2954.00,0.0361
2953.00,0.0361
2952.00,0.0362
2951.00,0.0363
2950.00,0.0363
2949.00,0.0363
2948.00,0.0364
2947.00,0.0364
2946.00,0.0364
2945.00,0.0365
2944.00,0.0365
2943.00,0.0366
2942.00,0.0367
2941.00,0.0367
2940.00,0.0366
2939.00,0.0366
2938.00,0.0365
2937.00,0.0365
2936.00,0.0365
2935.00,0.0364
2934.00,0.0364
2933.00,0.0364
2932.00,0.0363
2931.00,0.0363
2930.00,0.0363
2929.00,0.0363
2928.00,0.0362
2927.00,0.0362
2926.00,0.0361
2925.00,0.0360
2924.00,0.0360
2923.00,0.0359
2922.00,0.0359
2921.00,0.0359
2920.00,0.0358
2919.00,0.0358
2918.00,0.0357
2917.00,0.0357
2916.00,0.0358
2915.00,0.0358
2914.00,0.0359
2913.00,0.0360
2912.00,0.0361
2911.00,0.0361
2910.00,0.0362
2909.00,0.0362
2908.00,0.0362
2907.00,0.0362
2906.00,0.0362
2905.00,0.0362
2904.00,0.0361
2903.00,0.0361
2902.00,0.0361
2901.00,0.0361
2900.00,0.0361
2899.00,0.0361
2898.00,0.0361
2897.00,0.0361
2896.00,0.0360
2895.00,0.0360
2894.00,0.0360
2893.00,0.0359
2892.00,0.0359
2891.00,0.0359
2890.00,0.0359
2889.00,0.0358
2888.00,0.0358
2887.00,0.0358
2886.00,0.0358
2885.00,0.0358
2884.00,0.0357
2883.00,0.0357
2882.00,0.0357
2881.00,0.0358
2880.00,0.0358
2879.00,0.0358
2878.00,0.0359
2877.00,0.0359
2876.00,0.0359
2875.00,0.0358
2874.00,0.0358
2873.00,0.0357
2872.00,0.0356
2871.00,0.0356
2870.00,0.0356
2869.00,0.0356
2868.00,0.0356
2867.00,0.0357
2866.00,0.0357
2865.00,0.0357
2864.00,0.0357
2863.00,0.0357
2862.00,0.0356
2861.00,0.0356
2860.00,0.0356
2859.00,0.0356
2858.00,0.0357
2857.00,0.0356
2856.00,0.0356
2855.00,0.0355
2854.00,0.0354
2853.00,0.0353
2852.00,0.0354
2851.00,0.0354
2850.00,0.0355
2849.00,0.0355
2848.00,0.0355
2847.00,0.0355
2846.00,0.0355
2845.00,0.0356
2844.00,0.0356
2843.00,0.0356
2842.00,0.0355
2841.00,0.0355
2840.00,0.0354
2839.00,0.0354
2838.00,0.0353
2837.00,0.0353
2836.00,0.0354
2835.00,0.0354
2834.00,0.0355
2833.00,0.0354
2832.00,0.0353
2831.00,0.0353
2830.00,0.0352
2829.00,0.0353
2828.00,0.0353
2827.00,0.0353
2826.00,0.0352
2825.00,0.0352
2824.00,0.0351
2823.00,0.0351
2822.00,0.0351
2821.00,0.0350
2820.00,0.0350
2819.00,0.0349
2818.00,0.0349
2817.00,0.0349
2816.00,0.0348
2815.00,0.0348
2814.00,0.0348
2813.00,0.0348
2812.00,0.0348
2811.00,0.0347
2810.00,0.0347
2809.00,0.0347
2808.00,0.0346
2807.00,0.0346
2806.00,0.0346
2805.00,0.0346
2804.00,0.0346
2803.00,0.0346
2802.00,0.0346
2801.00,0.0345
2800.00,0.0345
2799.00,0.0346
2798.00,0.0346
2797.00,0.0345
2796.00,0.0345
2795.00,0.0345
2794.00,0.0345
2793.00,0.0344
2792.00,0.0344
2791.00,0.0344
2790.00,0.0344
2789.00,0.0344
2788.00,0.0344
2787.00,0.0343
2786.00,0.0343
2785.00,0.0342
2784.00,0.0342
2783.00,0.0341
2782.00,0.0340
2781.00,0.0339
2780.00,0.0339
2779.00,0.0339
2778.00,0.0339
2777.00,0.0339
2776.00,0.0340
2775.00,0.0340
2774.00,0.0339
2773.00,0.0339
2772.00,0.0339
2771.00,0.0338
2770.00,0.0337
2769.00,0.0336
2768.00,0.0335
2767.00,0.0335
2766.00,0.0335
2765.00,0.0336
2764.00,0.0336
2763.00,0.0336
2762.00,0.0336
2761.00,0.0336
2760.00,0.0336
2759.00,0.0335
2758.00,0.0335
2757.00,0.0334
2756.00,0.0334
2755.00,0.0334
2754.00,0.0333
2753.00,0.0333
2752.00,0.0333
2751.00,0.0333
2750.00,0.0333
2749.00,0.0333
2748.00,0.0334
2747.00,0.0333
2746.00,0.0333
2745.00,0.0333
2744.00,0.0332
2743.00,0.0332
2742.00,0.0332
2741.00,0.0332
2740.00,0.0332
2739.00,0.0331
2738.00,0.0331
2737.00,0.0330
2736.00,0.0330
2735.00,0.0330
2734.00,0.0330
2733.00,0.0330
2732.00,0.0330
2731.00,0.0330
2730.00,0.0329
2729.00,0.0329
2728.00,0.0329
2727.00,0.0328
2726.00,0.0328
2725.00,0.0328
2724.00,0.0328
2723.00,0.0327
2722.00,0.0327
2721.00,0.0327
2720.00,0.0327
2719.00,0.0327
2718.00,0.0327
2717.00,0.0327
2716.00,0.0327
2715.00,0.0326
2714.00,0.0326
2713.00,0.0326
2712.00,0.0326
2711.00,0.0326
2710.00,0.0326
2709.00,0.0325
2708.00,0.0324
2707.00,0.0324
2706.00,0.0324
2705.00,0.0323
2704.00,0.0323
2703.00,0.0323
2702.00,0.0322
2701.00,0.0322
2700.00,0.0322
2699.00,0.0322
2698.00,0.0322
2697.00,0.0321
2696.00,0.0321
2695.00,0.0321
2694.00,0.0321
2693.00,0.0321
2692.00,0.0321
2691.00,0.0321
2690.00,0.0321
2689.00,0.0321
2688.00,0.0320
2687.00,0.0320
2686.00,0.0320
2685.00,0.0320
2684.00,0.0320
2683.00,0.0319
2682.00,0.0319
2681.00,0.0319
2680.00,0.0318
2679.00,0.0317
2678.00,0.0317
2677.00,0.0316
2676.00,0.0316
2675.00,0.0316
2674.00,0.0316
2673.00,0.0316
2672.00,0.0316
2671.00,0.0315
2670.00,0.0315
2669.00,0.0314
2668.00,0.0314
2667.00,0.0315
2666.00,0.0315
2665.00,0.0315
2664.00,0.0315
2663.00,0.0315
2662.00,0.0316
2661.00,0.0315
2660.00,0.0315
2659.00,0.0316
2658.00,0.0316
2657.00,0.0316
2656.00,0.0316
2655.00,0.0315
2654.00,0.0315
2653.00,0.0315
2652.00,0.0315
2651.00,0.0316
2650.00,0.0316
2649.00,0.0316
2648.00,0.0315
2647.00,0.0315
2646.00,0.0314
2645.00,0.0314
2644.00,0.0315
2643.00,0.0315
2642.00,0.0315
2641.00,0.0315
2640.00,0.0315
2639.00,0.0315
2638.00,0.0315
2637.00,0.0315
2636.00,0.0314
2635.00,0.0314
2634.00,0.0315
2633.00,0.0315
2632.00,0.0315
2631.00,0.0315
2630.00,0.0315
2629.00,0.0314
2628.00,0.0313
2627.00,0.0313
2626.00,0.0313
2625.00,0.0314
2624.00,0.0314
2623.00,0.0315
2622.00,0.0315
2621.00,0.0315
2620.00,0.0314
2619.00,0.0314
2618.00,0.0314
2617.00,0.0314
2616.00,0.0313
2615.00,0.0312
2614.00,0.0312
2613.00,0.0312
2612.00,0.0313
2611.00,0.0314
2610.00,0.0314
2609.00,0.0313
2608.00,0.0312
2607.00,0.0312
2606.00,0.0312
2605.00,0.0313
2604.00,0.0314
2603.00,0.0315
2602.00,0.0315
2601.00,0.0314
2600.00,0.0314
2599.00,0.0313
2598.00,0.0313
2597.00,0.0312
2596.00,0.0312
2595.00,0.0311
2594.00,0.0311
2593.00,0.0312
2592.00,0.0312
2591.00,0.0313
2590.00,0.0313
2589.00,0.0313
2588.00,0.0313
2587.00,0.0313
2586.00,0.0312
2585.00,0.0312
2584.00,0.0311
2583.00,0.0311
2582.00,0.0312
2581.00,0.0312
2580.00,0.0313
2579.00,0.0313
2578.00,0.0313
2577.00,0.0312
2576.00,0.0311
2575.00,0.0310
2574.00,0.0310
2573.00,0.0311
2572.00,0.0311
2571.00,0.0311
2570.00,0.0310
2569.00,0.0309
2568.00,0.0310
2567.00,0.0311
2566.00,0.0312
2565.00,0.0312
2564.00,0.0312
2563.00,0.0312
2562.00,0.0312
2561.00,0.0312
2560.00,0.0311
2559.00,0.0311
2558.00,0.0311
2557.00,0.0311
2556.00,0.0312
2555.00,0.0312
2554.00,0.0312
2553.00,0.0311
2552.00,0.0310
2551.00,0.0309
2550.00,0.0308
2549.00,0.0307
2548.00,0.0306
2547.00,0.0305
2546.00,0.0306
2545.00,0.0306
2544.00,0.0307
2543.00,0.0307
2542.00,0.0307
2541.00,0.0306
2540.00,0.0305
2539.00,0.0304
2538.00,0.0303
2537.00,0.0303
2536.00,0.0304
2535.00,0.0304
2534.00,0.0305
2533.00,0.0306
2532.00,0.0306
2531.00,0.0306
2530.00,0.0305
2529.00,0.0305
2528.00,0.0304
2527.00,0.0304
2526.00,0.0304
2525.00,0.0303
2524.00,0.0303
2523.00,0.0303
2522.00,0.0303
2521.00,0.0303
2520.00,0.0303
2519.00,0.0304
2518.00,0.0305
2517.00,0.0306
2516.00,0.0306
2515.00,0.0306
2514.00,0.0305
2513.00,0.0304
2512.00,0.0303
2511.00,0.0303
2510.00,0.0304
2509.00,0.0304
2508.00,0.0305
2507.00,0.0305
2506.00,0.0304
2505.00,0.0304
2504.00,0.0304
2503.00,0.0304
2502.00,0.0304
2501.00,0.0304
2500.00,0.0305
2499.00,0.0305
2498.00,0.0305
2497.00,0.0304
2496.00,0.0304
2495.00,0.0305
2494.00,0.0306
2493.00,0.0306
2492.00,0.0306
2491.00,0.0306
2490.00,0.0305
2489.00,0.0306
2488.00,0.0306
2487.00,0.0305
2486.00,0.0304
2485.00,0.0303
2484.00,0.0302
2483.00,0.0301
2482.00,0.0302
2481.00,0.0303
2480.00,0.0303
2479.00,0.0303
2478.00,0.0303
2477.00,0.0302
2476.00,0.0301
2475.00,0.0301
2474.00,0.0301
2473.00,0.0301
2472.00,0.0302
2471.00,0.0302
2470.00,0.0302
2469.00,0.0301
2468.00,0.0300
2467.00,0.0299
2466.00,0.0299
2465.00,0.0299
2464.00,0.0299
2463.00,0.0299
2462.00,0.0299
2461.00,0.0299
2460.00,0.0300
2459.00,0.0300
2458.00,0.0300
2457.00,0.0300
2456.00,0.0301
2455.00,0.0301
2454.00,0.0301
2453.00,0.0302
2452.00,0.0302
2451.00,0.0302
2450.00,0.0301
2449.00,0.0300
2448.00,0.0299
2447.00,0.0299
2446.00,0.0298
2445.00,0.0298
2444.00,0.0298
2443.00,0.0297
2442.00,0.0297
2441.00,0.0297
2440.00,0.0297
2439.00,0.0298
2438.00,0.0298
2437.00,0.0298
2436.00,0.0298
2435.00,0.0297
2434.00,0.0296
2433.00,0.0296
2432.00,0.0295
2431.00,0.0295
2430.00,0.0295
2429.00,0.0295
2428.00,0.0295
2427.00,0.0295
2426.00,0.0295
2425.00,0.0295
2424.00,0.0295
2423.00,0.0295
2422.00,0.0295
2421.00,0.0294
2420.00,0.0294
2419.00,0.0294
2418.00,0.0294
2417.00,0.0293
2416.00,0.0293
2415.00,0.0293
2414.00,0.0293
2413.00,0.0293
2412.00,0.0293
2411.00,0.0293
2410.00,0.0293
2409.00,0.0293
2408.00,0.0293
2407.00,0.0292
2406.00,0.0292
2405.00,0.0292
2404.00,0.0291
2403.00,0.0290
2402.00,0.0290
2401.00,0.0289
2400.00,0.0289
2399.00,0.0289
2398.00,0.0289
2397.00,0.0289
2396.00,0.0288
2395.00,0.0288
2394.00,0.0287
2393.00,0.0287
2392.00,0.0286
2391.00,0.0286
2390.00,0.0285
2389.00,0.0285
2388.00,0.0284
2387.00,0.0283
2386.00,0.0282
2385.00,0.0280
2384.00,0.0278
2383.00,0.0277
2382.00,0.0276
2381.00,0.0276
2380.00,0.0276
2379.00,0.0276
2378.00,0.0276
2377.00,0.0275
2376.00,0.0274
2375.00,0.0273
2374.00,0.0273
2373.00,0.0273
2372.00,0.0272
2371.00,0.0271
2370.00,0.0269
2369.00,0.0266
2368.00,0.0264
2367.00,0.0264
2366.00,0.0266
2365.00,0.0269
2364.00,0.0270
2363.00,0.0269
2362.00,0.0268
2361.00,0.0268
2360.00,0.0268
2359.00,0.0268
2358.00,0.0267
2357.00,0.0266
2356.00,0.0266
2355.00,0.0265
2354.00,0.0266
2353.00,0.0266
2352.00,0.0266
2351.00,0.0266
2350.00,0.0266
2349.00,0.0266
2348.00,0.0266
2347.00,0.0264
2346.00,0.0262
2345.00,0.0261
2344.00,0.0263
2343.00,0.0265
2342.00,0.0269
2341.00,0.0271
2340.00,0.0272
2339.00,0.0270
2338.00,0.0266
2337.00,0.0263
2336.00,0.0262
2335.00,0.0262
2334.00,0.0263
2333.00,0.0264
2332.00,0.0264
2331.00,0.0263
2330.00,0.0262
2329.00,0.0261
2328.00,0.0262
2327.00,0.0264
2326.00,0.0266
2325.00,0.0267
2324.00,0.0267
2323.00,0.0266
2322.00,0.0265
2321.00,0.0266
2320.00,0.0266
2319.00,0.0265
2318.00,0.0264
2317.00,0.0264
2316.00,0.0264
2315.00,0.0264
2314.00,0.0265
2313.00,0.0264
2312.00,0.0265
2311.00,0.0265
2310.00,0.0267
2309.00,0.0268
2308.00,0.0269
2307.00,0.0269
2306.00,0.0269
2305.00,0.0268
2304.00,0.0267
2303.00,0.0266
2302.00,0.0265
2301.00,0.0265
2300.00,0.0267
2299.00,0.0268
2298.00,0.0270
2297.00,0.0270
2296.00,0.0271
2295.00,0.0271
2294.00,0.0273
2293.00,0.0275
2292.00,0.0277
2291.00,0.0278
2290.00,0.0277
2289.00,0.0277
2288.00,0.0277
2287.00,0.0278
2286.00,0.0279
2285.00,0.0281
2284.00,0.0282
2283.00,0.0282
2282.00,0.0282
2281.00,0.0281
2280.00,0.0280
2279.00,0.0279
2278.00,0.0279
2277.00,0.0278
2276.00,0.0277
2275.00,0.0276
2274.00,0.0274
2273.00,0.0273
2272.00,0.0272
2271.00,0.0272
2270.00,0.0273
2269.00,0.0273
2268.00,0.0273
2267.00,0.0273
2266.00,0.0274
2265.00,0.0274
2264.00,0.0275
2263.00,0.0276
2262.00,0.0276
2261.00,0.0275
2260.00,0.0275
2259.00,0.0274
2258.00,0.0272
2257.00,0.0270
2256.00,0.0268
2255.00,0.0267
2254.00,0.0268
2253.00,0.0269
2252.00,0.0270
2251.00,0.0270
2250.00,0.0270
2249.00,0.0270
2248.00,0.0270
2247.00,0.0271
2246.00,0.0272
2245.00,0.0274
2244.00,0.0274
2243.00,0.0274
2242.00,0.0273
2241.00,0.0272
2240.00,0.0271
2239.00,0.0270
2238.00,0.0270
2237.00,0.0270
2236.00,0.0270
2235.00,0.0271
2234.00,0.0272
2233.00,0.0272
2232.00,0.0272
2231.00,0.0270
2230.00,0.0269
2229.00,0.0268
2228.00,0.0269
2227.00,0.0270
2226.00,0.0271
2225.00,0.0271
2224.00,0.0269
2223.00,0.0268
2222.00,0.0266
2221.00,0.0266
2220.00,0.0266
2219.00,0.0266
2218.00,0.0267
2217.00,0.0268
2216.00,0.0269
2215.00,0.0271
2214.00,0.0272
2213.00,0.0271
2212.00,0.0268
2211.00,0.0264
2210.00,0.0262
2209.00,0.0262
2208.00,0.0264
2207.00,0.0265
2206.00,0.0266
2205.00,0.0266
2204.00,0.0266
2203.00,0.0264
2202.00,0.0263
2201.00,0.0262
2200.00,0.0262
2199.00,0.0262
2198.00,0.0263
2197.00,0.0264
2196.00,0.0265
2195.00,0.0264
2194.00,0.0263
2193.00,0.0261
2192.00,0.0260
2191.00,0.0258
2190.00,0.0256
2189.00,0.0254
2188.00,0.0255
2187.00,0.0259
2186.00,0.0264
2185.00,0.0266
2184.00,0.0263
2183.00,0.0259
2182.00,0.0256
2181.00,0.0256
2180.00,0.0258
2179.00,0.0261
2178.00,0.0264
2177.00,0.0265
2176.00,0.0264
2175.00,0.0262
2174.00,0.0260
2173.00,0.0259
2172.00,0.0260
2171.00,0.0262
2170.00,0.0265
2169.00,0.0268
2168.00,0.0269
2167.00,0.0270
2166.00,0.0271
2165.00,0.0272
2164.00,0.0274
2163.00,0.0274
2162.00,0.0273
2161.00,0.0269
2160.00,0.0262
2159.00,0.0253
2158.00,0.0247
2157.00,0.0244
2156.00,0.0245
2155.00,0.0247
2154.00,0.0250
2153.00,0.0253
2152.00,0.0254
2151.00,0.0252
2150.00,0.0249
2149.00,0.0247
2148.00,0.0247
2147.00,0.0250
2146.00,0.0253
2145.00,0.0255
2144.00,0.0256
2143.00,0.0257
2142.00,0.0257
2141.00,0.0257
2140.00,0.0256
2139.00,0.0254
2138.00,0.0251
2137.00,0.0249
2136.00,0.0247
2135.00,0.0245
2134.00,0.0245
2133.00,0.0245
2132.00,0.0245
2131.00,0.0245
2130.00,0.0247
2129.00,0.0248
2128.00,0.0250
2127.00,0.0250
2126.00,0.0249
2125.00,0.0247
2124.00,0.0245
2123.00,0.0245
2122.00,0.0245
2121.00,0.0245
2120.00,0.0245
2119.00,0.0245
2118.00,0.0244
2117.00,0.0244
2116.00,0.0243
2115.00,0.0241
2114.00,0.0240
2113.00,0.0240
2112.00,0.0241
2111.00,0.0243
2110.00,0.0245
2109.00,0.0246
2108.00,0.0247
2107.00,0.0247
2106.00,0.0247
2105.00,0.0246
2104.00,0.0246
2103.00,0.0246
2102.00,0.0246
2101.00,0.0246
2100.00,0.0245
2099.00,0.0243
2098.00,0.0241
2097.00,0.0240
2096.00,0.0240
2095.00,0.0240
2094.00,0.0240
2093.00,0.0241
2092.00,0.0242
2091.00,0.0241
2090.00,0.0240
2089.00,0.0240
2088.00,0.0241
2087.00,0.0241
2086.00,0.0242
2085.00,0.0242
2084.00,0.0243
2083.00,0.0243
2082.00,0.0243
2081.00,0.0242
2080.00,0.0242
2079.00,0.0242
2078.00,0.0241
2077.00,0.0241
2076.00,0.0242
2075.00,0.0242
2074.00,0.0242
2073.00,0.0242
2072.00,0.0243
2071.00,0.0243
2070.00,0.0243
2069.00,0.0241
2068.00,0.0239
2067.00,0.0237
2066.00,0.0236
2065.00,0.0236
2064.00,0.0237
2063.00,0.0238
2062.00,0.0239
2061.00,0.0239
2060.00,0.0238
2059.00,0.0237
2058.00,0.0237
2057.00,0.0239
2056.00,0.0239
2055.00,0.0239
2054.00,0.0239
2053.00,0.0240
2052.00,0.0242
2051.00,0.0241
2050.00,0.0240
2049.00,0.0237
2048.00,0.0236
2047.00,0.0236
2046.00,0.0238
2045.00,0.0241
2044.00,0.0243
2043.00,0.0244
2042.00,0.0243
2041.00,0.0242
2040.00,0.0238
2039.00,0.0235
2038.00,0.0235
2037.00,0.0238
2036.00,0.0241
2035.00,0.0242
2034.00,0.0241
2033.00,0.0240
2032.00,0.0241
2031.00,0.0242
2030.00,0.0242
2029.00,0.0240
2028.00,0.0237
2027.00,0.0235
2026.00,0.0233
2025.00,0.0231
2024.00,0.0230
2023.00,0.0228
2022.00,0.0227
2021.00,0.0225
2020.00,0.0224
2019.00,0.0222
2018.00,0.0221
2017.00,0.0221
2016.00,0.0223
2015.00,0.0225
2014.00,0.0227
2013.00,0.0228
2012.00,0.0228
2011.00,0.0227
2010.00,0.0227
2009.00,0.0227
2008.00,0.0226
2007.00,0.0224
2006.00,0.0221
2005.00,0.0220
2004.00,0.0221
2003.00,0.0223
2002.00,0.0228
2001.00,0.0232
2000.00,0.0233
1999.00,0.0231
1998.00,0.0229
1997.00,0.0228
1996.00,0.0230
1995.00,0.0233
1994.00,0.0235
1993.00,0.0236
1992.00,0.0234
1991.00,0.0230
1990.00,0.0226
1989.00,0.0224
1988.00,0.0223
1987.00,0.0224
1986.00,0.0225
1985.00,0.0226
1984.00,0.0226
1983.00,0.0226
1982.00,0.0226
1981.00,0.0225
1980.00,0.0222
1979.00,0.0218
1978.00,0.0213
1977.00,0.0210
1976.00,0.0210
1975.00,0.0214
1974.00,0.0218
1973.00,0.0219
1972.00,0.0218
1971.00,0.0216
1970.00,0.0216
1969.00,0.0218
1968.00,0.0218
1967.00,0.0216
1966.00,0.0213
1965.00,0.0211
1964.00,0.0212
1963.00,0.0214
1962.00,0.0215
1961.00,0.0215
1960.00,0.0215
1959.00,0.0214
1958.00,0.0214
1957.00,0.0213
1956.00,0.0212
1955.00,0.0212
1954.00,0.0212
1953.00,0.0213
1952.00,0.0213
1951.00,0.0212
1950.00,0.0210
1949.00,0.0210
1948.00,0.0210
1947.00,0.0211
1946.00,0.0211
1945.00,0.0209
1944.00,0.0206
1943.00,0.0203
1942.00,0.0201
1941.00,0.0200
1940.00,0.0200
1939.00,0.0199
1938.00,0.0199
1937.00,0.0200
1936.00,0.0200
1935.00,0.0199
1934.00,0.0198
1933.00,0.0197
1932.00,0.0197
1931.00,0.0198
1930.00,0.0200
1929.00,0.0202
1928.00,0.0203
1927.00,0.0204
1926.00,0.0204
1925.00,0.0204
1924.00,0.0203
1923.00,0.0202
1922.00,0.0201
1921.00,0.0200
1920.00,0.0198
1919.00,0.0196
1918.00,0.0194
1917.00,0.0193
1916.00,0.0194
1915.00,0.0195
1914.00,0.0196
1913.00,0.0196
1912.00,0.0196
1911.00,0.0196
1910.00,0.0195
1909.00,0.0193
1908.00,0.0191
1907.00,0.0189
1906.00,0.0189
1905.00,0.0190
1904.00,0.0191
1903.00,0.0191
1902.00,0.0190
1901.00,0.0190
1900.00,0.0189
1899.00,0.0190
1898.00,0.0190
1897.00,0.0190
1896.00,0.0189
1895.00,0.0187
1894.00,0.0186
1893.00,0.0187
1892.00,0.0188
1891.00,0.0188
1890.00,0.0187
1889.00,0.0186
1888.00,0.0185
1887.00,0.0184
1886.00,0.0184
1885.00,0.0184
1884.00,0.0184
1883.00,0.0183
1882.00,0.0183
1881.00,0.0182
1880.00,0.0181
1879.00,0.0180
1878.00,0.0179
1877.00,0.0178
1876.00,0.0177
1875.00,0.0178
1874.00,0.0179
1873.00,0.0180
1872.00,0.0182
1871.00,0.0183
1870.00,0.0182
1869.00,0.0178
1868.00,0.0174
1867.00,0.0172
1866.00,0.0172
1865.00,0.0173
1864.00,0.0173
1863.00,0.0173
1862.00,0.0172
1861.00,0.0171
1860.00,0.0170
1859.00,0.0170
1858.00,0.0170
1857.00,0.0171
1856.00,0.0171
1855.00,0.0171
1854.00,0.0170
1853.00,0.0168
1852.00,0.0168
1851.00,0.0168
1850.00,0.0168
1849.00,0.0168
1848.00,0.0168
1847.00,0.0169
1846.00,0.0169
1845.00,0.0168
1844.00,0.0165
1843.00,0.0162
1842.00,0.0161
1841.00,0.0162
1840.00,0.0163
1839.00,0.0163
1838.00,0.0162
1837.00,0.0161
1836.00,0.0161
1835.00,0.0160
1834.00,0.0160
1833.00,0.0161
1832.00,0.0163
1831.00,0.0162
1830.00,0.0160
1829.00,0.0157
1828.00,0.0156
1827.00,0.0157
1826.00,0.0157
1825.00,0.0156
1824.00,0.0154
1823.00,0.0153
1822.00,0.0154
1821.00,0.0154
1820.00,0.0153
1819.00,0.0152
1818.00,0.0151
1817.00,0.0150
1816.00,0.0149
1815.00,0.0149
1814.00,0.0150
1813.00,0.0150
1812.00,0.0149
1811.00,0.0147
1810.00,0.0146
1809.00,0.0146
1808.00,0.0147
1807.00,0.0148
1806.00,0.0149
1805.00,0.0149
1804.00,0.0150
1803.00,0.0150
1802.00,0.0150
1801.00,0.0148
1800.00,0.0147
1799.00,0.0146
1798.00,0.0147
1797.00,0.0148
1796.00,0.0150
1795.00,0.0151
1794.00,0.0152
1793.00,0.0152
1792.00,0.0150
1791.00,0.0148
1790.00,0.0148
1789.00,0.0150
1788.00,0.0153
1787.00,0.0155
1786.00,0.0157
1785.00,0.0158
1784.00,0.0159
1783.00,0.0160
1782.00,0.0161
1781.00,0.0161
1780.00,0.0161
1779.00,0.0162
1778.00,0.0164
1777.00,0.0168
1776.00,0.0171
1775.00,0.0174
1774.00,0.0177
1773.00,0.0176
1772.00,0.0174
1771.00,0.0173
1770.00,0.0175
1769.00,0.0179
1768.00,0.0182
1767.00,0.0184
1766.00,0.0186
1765.00,0.0190
1764.00,0.0193
1763.00,0.0195
1762.00,0.0195
1761.00,0.0195
1760.00,0.0197
1759.00,0.0201
1758.00,0.0203
1757.00,0.0205
1756.00,0.0207
1755.00,0.0210
1754.00,0.0214
1753.00,0.0218
1752.00,0.0221
1751.00,0.0222
1750.00,0.0222
1749.00,0.0223
1748.00,0.0224
1747.00,0.0228
1746.00,0.0232
1745.00,0.0236
1744.00,0.0240
1743.00,0.0243
1742.00,0.0246
1741.00,0.0249
1740.00,0.0252
1739.00,0.0254
1738.00,0.0257
1737.00,0.0262
1736.00,0.0268
1735.00,0.0273
1734.00,0.0275
1733.00,0.0275
1732.00,0.0277
1731.00,0.0280
1730.00,0.0283
1729.00,0.0286
1728.00,0.0290
1727.00,0.0294
1726.00,0.0297
1725.00,0.0300
1724.00,0.0303
1723.00,0.0306
1722.00,0.0308
1721.00,0.0310
1720.00,0.0313
1719.00,0.0314
1718.00,0.0314
1717.00,0.0315
1716.00,0.0315
1715.00,0.0317
1714.00,0.0318
1713.00,0.0320
1712.00,0.0322
1711.00,0.0323
1710.00,0.0323
1709.00,0.0324
1708.00,0.0324
1707.00,0.0324
1706.00,0.0323
1705.00,0.0322
1704.00,0.0324
1703.00,0.0327
1702.00,0.0329
1701.00,0.0330
1700.00,0.0327
1699.00,0.0324
1698.00,0.0325
1697.00,0.0326
1696.00,0.0324
1695.00,0.0321
1694.00,0.0322
1693.00,0.0325
1692.00,0.0326
1691.00,0.0326
1690.00,0.0326
1689.00,0.0326
1688.00,0.0327
1687.00,0.0327
1686.00,0.0327
1685.00,0.0325
1684.00,0.0321
1683.00,0.0319
1682.00,0.0322
1681.00,0.0325
1680.00,0.0326
1679.00,0.0328
1678.00,0.0331
1677.00,0.0335
1676.00,0.0338
1675.00,0.0339
1674.00,0.0339
1673.00,0.0340
1672.00,0.0341
1671.00,0.0342
1670.00,0.0343
1669.00,0.0344
1668.00,0.0345
1667.00,0.0348
1666.00,0.0350
1665.00,0.0353
1664.00,0.0355
1663.00,0.0356
1662.00,0.0358
1661.00,0.0361
1660.00,0.0365
1659.00,0.0369
1658.00,0.0372
1657.00,0.0374
1656.00,0.0375
1655.00,0.0375
1654.00,0.0377
1653.00,0.0378
1652.00,0.0379
1651.00,0.0384
1650.00,0.0388
1649.00,0.0391
1648.00,0.0393
1647.00,0.0396
1646.00,0.0400
1645.00,0.0404
1644.00,0.0409
1643.00,0.0412
1642.00,0.0415
1641.00,0.0417
1640.00,0.0420
1639.00,0.0422
1638.00,0.0424
1637.00,0.0428
1636.00,0.0434
1635.00,0.0438
1634.00,0.0441
1633.00,0.0445
1632.00,0.0448
1631.00,0.0450
1630.00,0.0453
1629.00,0.0457
1628.00,0.0460
1627.00,0.0464
1626.00,0.0468
1625.00,0.0473
1624.00,0.0477
1623.00,0.0480
1622.00,0.0483
1621.00,0.0486
1620.00,0.0489
1619.00,0.0491
1618.00,0.0494
1617.00,0.0497
1616.00,0.0501
1615.00,0.0504
1614.00,0.0507
1613.00,0.0509
1612.00,0.0512
1611.00,0.0515
1610.00,0.0518
1609.00,0.0520
1608.00,0.0522
1607.00,0.0525
1606.00,0.0528
1605.00,0.0531
1604.00,0.0534
1603.00,0.0536
1602.00,0.0537
1601.00,0.0537
1600.00,0.0539
1599.00,0.0541
1598.00,0.0544
1597.00,0.0546
1596.00,0.0549
1595.00,0.0552
1594.00,0.0554
1593.00,0.0556
1592.00,0.0557
1591.00,0.0558
1590.00,0.0560
1589.00,0.0561
1588.00,0.0564
1587.00,0.0566
1586.00,0.0568
1585.00,0.0569
1584.00,0.0570
1583.00,0.0571
1582.00,0.0572
1581.00,0.0573
1580.00,0.0573
1579.00,0.0573
1578.00,0.0574
1577.00,0.0576
1576.00,0.0578
1575.00,0.0578
1574.00,0.0578
1573.00,0.0577
1572.00,0.0576
1571.00,0.0576
1570.00,0.0577
1569.00,0.0578
1568.00,0.0579
1567.00,0.0579
1566.00,0.0578
1565.00,0.0576
1564.00,0.0575
1563.00,0.0573
1562.00,0.0570
1561.00,0.0565
1560.00,0.0566
1559.00,0.0572
1558.00,0.0572
1557.00,0.0571
1556.00,0.0572
1555.00,0.0570
1554.00,0.0570
1553.00,0.0568
1552.00,0.0568
1551.00,0.0566
1550.00,0.0564
1549.00,0.0561
1548.00,0.0558
1547.00,0.0555
1546.00,0.0553
1545.00,0.0550
1544.00,0.0547
1543.00,0.0543
1542.00,0.0538
1541.00,0.0535
1540.00,0.0531
1539.00,0.0527
1538.00,0.0527
1537.00,0.0527
1536.00,0.0526
1535.00,0.0524
1534.00,0.0521
1533.00,0.0518
1532.00,0.0516
1531.00,0.0514
1530.00,0.0512
1529.00,0.0510
1528.00,0.0508
1527.00,0.0505
1526.00,0.0502
1525.00,0.0499
1524.00,0.0496
1523.00,0.0493
1522.00,0.0490
1521.00,0.0488
1520.00,0.0487
1519.00,0.0486
1518.00,0.0483
1517.00,0.0480
1516.00,0.0477
1515.00,0.0475
1514.00,0.0474
1513.00,0.0472
1512.00,0.0470
1511.00,0.0468
1510.00,0.0465
1509.00,0.0461
1508.00,0.0459
1507.00,0.0456
1506.00,0.0451
1505.00,0.0450
1504.00,0.0451
1503.00,0.0450
1502.00,0.0448
1501.00,0.0446
1500.00,0.0445
1499.00,0.0444
1498.00,0.0443
1497.00,0.0443
1496.00,0.0443
1495.00,0.0442
1494.00,0.0440
1493.00,0.0439
1492.00,0.0438
1491.00,0.0438
1490.00,0.0437
1489.00,0.0436
1488.00,0.0436
1487.00,0.0435
1486.00,0.0435
1485.00,0.0435
1484.00,0.0435
1483.00,0.0435
1482.00,0.0435
1481.00,0.0436
1480.00,0.0437
1479.00,0.0437
1478.00,0.0438
1477.00,0.0438
1476.00,0.0439
1475.00,0.0440
1474.00,0.0441
1473.00,0.0442
1472.00,0.0443
1471.00,0.0444
1470.00,0.0446
1469.00,0.0448
1468.00,0.0449
1467.00,0.0449
1466.00,0.0450
1465.00,0.0450
1464.00,0.0450
1463.00,0.0450
1462.00,0.0450
1461.00,0.0450
1460.00,0.0451
1459.00,0.0452
1458.00,0.0455
1457.00,0.0459
1456.00,0.0460
1455.00,0.0461
1454.00,0.0462
1453.00,0.0462
1452.00,0.0463
1451.00,0.0465
1450.00,0.0466
1449.00,0.0468
1448.00,0.0470
1447.00,0.0472
1446.00,0.0473
1445.00,0.0474
1444.00,0.0475
1443.00,0.0475
1442.00,0.0476
1441.00,0.0477
1440.00,0.0479
1439.00,0.0481
1438.00,0.0485
1437.00,0.0489
1436.00,0.0492
1435.00,0.0492
1434.00,0.0491
1433.00,0.0491
1432.00,0.0492
1431.00,0.0492
1430.00,0.0493
1429.00,0.0493
1428.00,0.0494
1427.00,0.0496
1426.00,0.0497
1425.00,0.0498
1424.00,0.0499
1423.00,0.0500
1422.00,0.0501
1421.00,0.0502
1420.00,0.0504
1419.00,0.0507
1418.00,0.0508
1417.00,0.0509
1416.00,0.0510
1415.00,0.0509
1414.00,0.0508
1413.00,0.0508
1412.00,0.0508
1411.00,0.0508
1410.00,0.0508
1409.00,0.0509
1408.00,0.0509
1407.00,0.0510
1406.00,0.0510
1405.00,0.0511
1404.00,0.0511
1403.00,0.0511
1402.00,0.0511
1401.00,0.0510
1400.00,0.0511
1399.00,0.0512
1398.00,0.0513
1397.00,0.0513
1396.00,0.0514
1395.00,0.0515
1394.00,0.0516
1393.00,0.0517
1392.00,0.0518
1391.00,0.0519
1390.00,0.0520
1389.00,0.0521
1388.00,0.0523
1387.00,0.0525
1386.00,0.0526
1385.00,0.0526
1384.00,0.0526
1383.00,0.0527
1382.00,0.0529
1381.00,0.0531
1380.00,0.0533
1379.00,0.0534
1378.00,0.0535
1377.00,0.0536
1376.00,0.0537
1375.00,0.0539
1374.00,0.0541
1373.00,0.0542
1372.00,0.0544
1371.00,0.0545
1370.00,0.0545
1369.00,0.0546
1368.00,0.0546
1367.00,0.0547
1366.00,0.0546
1365.00,0.0546
1364.00,0.0546
1363.00,0.0547
1362.00,0.0548
1361.00,0.0549
1360.00,0.0549
1359.00,0.0549
1358.00,0.0549
1357.00,0.0549
1356.00,0.0549
1355.00,0.0549
1354.00,0.0548
1353.00,0.0547
1352.00,0.0546
1351.00,0.0544
1350.00,0.0543
1349.00,0.0542
1348.00,0.0542
1347.00,0.0541
1346.00,0.0541
1345.00,0.0540
1344.00,0.0539
1343.00,0.0538
1342.00,0.0538
1341.00,0.0538
1340.00,0.0539
1339.00,0.0540
1338.00,0.0540
1337.00,0.0539
1336.00,0.0538
1335.00,0.0537
1334.00,0.0536
1333.00,0.0535
1332.00,0.0533
1331.00,0.0532
1330.00,0.0531
1329.00,0.0530
1328.00,0.0529
1327.00,0.0528
1326.00,0.0527
1325.00,0.0527
1324.00,0.0526
1323.00,0.0527
1322.00,0.0527
1321.00,0.0527
1320.00,0.0527
1319.00,0.0527
1318.00,0.0525
1317.00,0.0524
1316.00,0.0523
1315.00,0.0522
1314.00,0.0522
1313.00,0.0522
1312.00,0.0523
1311.00,0.0523
1310.00,0.0522
1309.00,0.0521
1308.00,0.0520
1307.00,0.0519
1306.00,0.0518
1305.00,0.0518
1304.00,0.0518
1303.00,0.0518
1302.00,0.0518
1301.00,0.0517
1300.00,0.0516
1299.00,0.0516
1298.00,0.0515
1297.00,0.0515
1296.00,0.0515
1295.00,0.0515
1294.00,0.0516
1293.00,0.0517
1292.00,0.0518
1291.00,0.0518
1290.00,0.0519
1289.00,0.0520
1288.00,0.0520
1287.00,0.0520
1286.00,0.0520
1285.00,0.0521
1284.00,0.0522
1283.00,0.0523
1282.00,0.0523
1281.00,0.0523
1280.00,0.0523
1279.00,0.0523
1278.00,0.0523
1277.00,0.0523
1276.00,0.0524
1275.00,0.0524
1274.00,0.0524
1273.00,0.0524
1272.00,0.0524
1271.00,0.0525
1270.00,0.0525
1269.00,0.0526
1268.00,0.0526
1267.00,0.0526
1266.00,0.0526
1265.00,0.0527
1264.00,0.0527
1263.00,0.0527
1262.00,0.0527
1261.00,0.0527
1260.00,0.0528
1259.00,0.0529
1258.00,0.0530
1257.00,0.0530
1256.00,0.0529
1255.00,0.0529
1254.00,0.0530
1253.00,0.0531
1252.00,0.0532
1251.00,0.0532
1250.00,0.0532
1249.00,0.0533
1248.00,0.0533
1247.00,0.0534
1246.00,0.0535
1245.00,0.0536
1244.00,0.0536
1243.00,0.0537
1242.00,0.0536
1241.00,0.0535
1240.00,0.0535
1239.00,0.0535
1238.00,0.0536
1237.00,0.0537
1236.00,0.0538
1235.00,0.0538
1234.00,0.0538
1233.00,0.0537
1232.00,0.0537
1231.00,0.0537
1230.00,0.0536
1229.00,0.0536
1228.00,0.0537
1227.00,0.0537
1226.00,0.0536
1225.00,0.0535
1224.00,0.0534
1223.00,0.0533
1222.00,0.0533
1221.00,0.0533
1220.00,0.0534
1219.00,0.0534
1218.00,0.0533
1217.00,0.0533
1216.00,0.0533
1215.00,0.0533
1214.00,0.0532
1213.00,0.0532
1212.00,0.0533
1211.00,0.0534
1210.00,0.0534
1209.00,0.0535
1208.00,0.0536
1207.00,0.0536
1206.00,0.0535
1205.00,0.0534
1204.00,0.0533
1203.00,0.0533
1202.00,0.0532
1201.00,0.0532
1200.00,0.0533
1199.00,0.0533
1198.00,0.0532
1197.00,0.0531
1196.00,0.0530
1195.00,0.0530
1194.00,0.0529
1193.00,0.0529
1192.00,0.0529
1191.00,0.0529
1190.00,0.0528
1189.00,0.0527
1188.00,0.0526
1187.00,0.0526
1186.00,0.0526
1185.00,0.0527
1184.00,0.0527
1183.00,0.0527
1182.00,0.0526
1181.00,0.0525
1180.00,0.0525
1179.00,0.0525
1178.00,0.0526
1177.00,0.0526
1176.00,0.0526
1175.00,0.0526
1174.00,0.0528
1173.00,0.0529
1172.00,0.0530
1171.00,0.0530
1170.00,0.0530
1169.00,0.0531
1168.00,0.0531
1167.00,0.0532
1166.00,0.0533
1165.00,0.0534
1164.00,0.0535
1163.00,0.0536
1162.00,0.0536
1161.00,0.0535
1160.00,0.0535
1159.00,0.0535
1158.00,0.0534
1157.00,0.0533
1156.00,0.0533
1155.00,0.0535
1154.00,0.0536
1153.00,0.0536
1152.00,0.0536
1151.00,0.0535
1150.00,0.0534
1149.00,0.0533
1148.00,0.0533
1147.00,0.0534
1146.00,0.0535
1145.00,0.0536
1144.00,0.0538
1143.00,0.0539
1142.00,0.0539
1141.00,0.0540
1140.00,0.0541
1139.00,0.0542
1138.00,0.0543
1137.00,0.0545
1136.00,0.0548
1135.00,0.0550
1134.00,0.0553
1133.00,0.0555
1132.00,0.0556
1131.00,0.0557
1130.00,0.0559
1129.00,0.0563
1128.00,0.0568
1127.00,0.0571
1126.00,0.0574
1125.00,0.0577
1124.00,0.0581
1123.00,0.0587
1122.00,0.0594
1121.00,0.0602
1120.00,0.0609
1119.00,0.0614
1118.00,0.0617
1117.00,0.0621
1116.00,0.0625
1115.00,0.0629
1114.00,0.0632
1113.00,0.0633
1112.00,0.0634
1111.00,0.0635
1110.00,0.0637
1109.00,0.0639
1108.00,0.0642
1107.00,0.0644
1106.00,0.0646
1105.00,0.0647
1104.00,0.0649
1103.00,0.0652
1102.00,0.0656
1101.00,0.0658
1100.00,0.0660
1099.00,0.0662
1098.00,0.0663
1097.00,0.0664
1096.00,0.0664
1095.00,0.0663
1094.00,0.0663
1093.00,0.0663
1092.00,0.0663
1091.00,0.0664
1090.00,0.0663
1089.00,0.0663
1088.00,0.0662
1087.00,0.0663
1086.00,0.0665
1085.00,0.0666
1084.00,0.0668
1083.00,0.0670
1082.00,0.0672
1081.00,0.0672
1080.00,0.0673
1079.00,0.0675
1078.00,0.0679
1077.00,0.0682
1076.00,0.0683
1075.00,0.0682
1074.00,0.0680
1073.00,0.0679
1072.00,0.0680
1071.00,0.0682
1070.00,0.0683
1069.00,0.0684
1068.00,0.0685
1067.00,0.0687
1066.00,0.0691
1065.00,0.0696
1064.00,0.0702
1063.00,0.0707
1062.00,0.0710
1061.00,0.0712
1060.00,0.0714
1059.00,0.0716
1058.00,0.0719
1057.00,0.0723
1056.00,0.0727
1055.00,0.0731
1054.00,0.0735
1053.00,0.0739
1052.00,0.0743
1051.00,0.0746
1050.00,0.0749
1049.00,0.0753
1048.00,0.0758
1047.00,0.0761
1046.00,0.0764
1045.00,0.0767
1044.00,0.0772
1043.00,0.0776
1042.00,0.0779
1041.00,0.0781
1040.00,0.0784
1039.00,0.0790
1038.00,0.0796
1037.00,0.0802
1036.00,0.0807
1035.00,0.0811
1034.00,0.0813
1033.00,0.0815
1032.00,0.0815
1031.00,0.0813
1030.00,0.0808
1029.00,0.0803
1028.00,0.0797
1027.00,0.0791
1026.00,0.0786
1025.00,0.0781
1024.00,0.0776
1023.00,0.0771
1022.00,0.0767
1021.00,0.0764
1020.00,0.0762
1019.00,0.0761
1018.00,0.0760
1017.00,0.0759
1016.00,0.0760
1015.00,0.0763
1014.00,0.0767
1013.00,0.0770
1012.00,0.0772
1011.00,0.0774
1010.00,0.0776
1009.00,0.0778
1008.00,0.0779
1007.00,0.0779
1006.00,0.0777
1005.00,0.0776
1004.00,0.0776
1003.00,0.0774
1002.00,0.0772
1001.00,0.0767
1000.00,0.0760
999.00,0.0751
998.00,0.0741
997.00,0.0733
996.00,0.0727
995.00,0.0721
994.00,0.0714
993.00,0.0707
992.00,0.0700
991.00,0.0692
990.00,0.0686
989.00,0.0680
988.00,0.0676
987.00,0.0673
986.00,0.0670
985.00,0.0667
984.00,0.0662
983.00,0.0657
982.00,0.0652
981.00,0.0648
980.00,0.0644
979.00,0.0640
978.00,0.0635
977.00,0.0629
976.00,0.0624
975.00,0.0620
974.00,0.0617
973.00,0.0615
972.00,0.0613
971.00,0.0611
970.00,0.0608
969.00,0.0605
968.00,0.0602
967.00,0.0600
966.00,0.0597
965.00,0.0595
964.00,0.0592
963.00,0.0591
962.00,0.0589
961.00,0.0588
960.00,0.0586
959.00,0.0585
958.00,0.0584
957.00,0.0583
956.00,0.0582
955.00,0.0581
954.00,0.0580
953.00,0.0580
952.00,0.0580
951.00,0.0581
950.00,0.0582
949.00,0.0583
948.00,0.0584
947.00,0.0584
946.00,0.0585
945.00,0.0586
944.00,0.0587
943.00,0.0589
942.00,0.0590
941.00,0.0592
940.00,0.0594
939.00,0.0597
938.00,0.0600
937.00,0.0601
936.00,0.0600
935.00,0.0598
934.00,0.0596
933.00,0.0597
932.00,0.0599
931.00,0.0602
930.00,0.0604
929.00,0.0606
928.00,0.0608
927.00,0.0610
926.00,0.0612
925.00,0.0613
924.00,0.0615
923.00,0.0616
922.00,0.0618
921.00,0.0620
920.00,0.0623
919.00,0.0626
918.00,0.0630
917.00,0.0635
916.00,0.0640
915.00,0.0643
914.00,0.0645
913.00,0.0644
912.00,0.0643
911.00,0.0640
910.00,0.0637
909.00,0.0632
908.00,0.0626
907.00,0.0623
906.00,0.0621
905.00,0.0621
904.00,0.0623
903.00,0.0624
902.00,0.0623
901.00,0.0619
900.00,0.0614
899.00,0.0609
898.00,0.0607
897.00,0.0607
896.00,0.0606
895.00,0.0605
894.00,0.0603
893.00,0.0601
892.00,0.0598
891.00,0.0595
890.00,0.0593
889.00,0.0592
888.00,0.0590
887.00,0.0587
886.00,0.0584
885.00,0.0581
884.00,0.0581
883.00,0.0583
882.00,0.0584
881.00,0.0583
880.00,0.0581
879.00,0.0579
878.00,0.0577
877.00,0.0575
876.00,0.0573
875.00,0.0571
874.00,0.0570
873.00,0.0569
872.00,0.0568
871.00,0.0567
870.00,0.0566
869.00,0.0564
868.00,0.0563
867.00,0.0561
866.00,0.0561
865.00,0.0562
864.00,0.0563
863.00,0.0565
862.00,0.0565
861.00,0.0565
860.00,0.0564
859.00,0.0563
858.00,0.0561
857.00,0.0560
856.00,0.0561
855.00,0.0563
854.00,0.0566
853.00,0.0568
852.00,0.0569
851.00,0.0569
850.00,0.0570
849.00,0.0571
848.00,0.0572
847.00,0.0575
846.00,0.0578
845.00,0.0581
844.00,0.0584
843.00,0.0585
842.00,0.0585
841.00,0.0585
840.00,0.0584
839.00,0.0582
838.00,0.0581
837.00,0.0581
836.00,0.0583
835.00,0.0585
834.00,0.0585
833.00,0.0586
832.00,0.0586
831.00,0.0587
830.00,0.0587
829.00,0.0588
828.00,0.0590
827.00,0.0593
826.00,0.0597
825.00,0.0601
824.00,0.0604
823.00,0.0606
822.00,0.0609
821.00,0.0611
820.00,0.0613
819.00,0.0614
818.00,0.0614
817.00,0.0612
816.00,0.0609
815.00,0.0609
814.00,0.0611
813.00,0.0616
812.00,0.0621
811.00,0.0624
810.00,0.0626
809.00,0.0628
808.00,0.0630
807.00,0.0632
806.00,0.0634
805.00,0.0637
804.00,0.0640
803.00,0.0643
802.00,0.0648
801.00,0.0654
800.00,0.0662
799.00,0.0667
798.00,0.0669
797.00,0.0668
796.00,0.0667
795.00,0.0666
794.00,0.0666
793.00,0.0665
792.00,0.0665
791.00,0.0667
790.00,0.0669
789.00,0.0671
788.00,0.0672
787.00,0.0672
786.00,0.0673
785.00,0.0675
784.00,0.0678
783.00,0.0680
782.00,0.0681
781.00,0.0681
780.00,0.0680
779.00,0.0679
778.00,0.0679
777.00,0.0681
776.00,0.0683
775.00,0.0683
774.00,0.0680
773.00,0.0676
772.00,0.0674
771.00,0.0675
770.00,0.0677
769.00,0.0679
768.00,0.0679
767.00,0.0678
766.00,0.0675
765.00,0.0674
764.00,0.0675
763.00,0.0677
762.00,0.0678
761.00,0.0678
760.00,0.0678
759.00,0.0680
758.00,0.0684
757.00,0.0687
756.00,0.0690
755.00,0.0690
754.00,0.0690
753.00,0.0689
752.00,0.0691
751.00,0.0693
750.00,0.0695
749.00,0.0697
748.00,0.0697
747.00,0.0698
746.00,0.0698
745.00,0.0697
744.00,0.0696
743.00,0.0695
742.00,0.0695
741.00,0.0695
740.00,0.0694
739.00,0.0691
738.00,0.0689
737.00,0.0688
736.00,0.0690
735.00,0.0692
734.00,0.0694
733.00,0.0695
732.00,0.0696
731.00,0.0697
730.00,0.0698
729.00,0.0700
728.00,0.0704
727.00,0.0708
726.00,0.0711
725.00,0.0713
724.00,0.0712
723.00,0.0711
722.00,0.0711
721.00,0.0713
720.00,0.0716
719.00,0.0718
718.00,0.0719
717.00,0.0720
716.00,0.0722
715.00,0.0723
714.00,0.0724
713.00,0.0726
712.00,0.0729
711.00,0.0733
710.00,0.0736
709.00,0.0739
708.00,0.0742
707.00,0.0746
706.00,0.0751
705.00,0.0759
704.00,0.0768
703.00,0.0774
702.00,0.0776
701.00,0.0775
700.00,0.0776
699.00,0.0780
698.00,0.0787
697.00,0.0794
696.00,0.0799
695.00,0.0802
694.00,0.0804
693.00,0.0807
692.00,0.0811
691.00,0.0814
690.00,0.0816
689.00,0.0817
688.00,0.0817
687.00,0.0816
686.00,0.0816
685.00,0.0816
684.00,0.0814
683.00,0.0812
682.00,0.0810
681.00,0.0810
680.00,0.0812
679.00,0.0814
678.00,0.0816
677.00,0.0819
676.00,0.0823
675.00,0.0826
674.00,0.0827
673.00,0.0827
672.00,0.0828
671.00,0.0830
670.00,0.0833
669.00,0.0841
668.00,0.0853
667.00,0.0860
666.00,0.0860
665.00,0.0859
664.00,0.0857
663.00,0.0856
662.00,0.0853
661.00,0.0849
660.00,0.0846
659.00,0.0844
658.00,0.0845
657.00,0.0850
656.00,0.0859
655.00,0.0867
654.00,0.0868
653.00,0.0864
652.00,0.0859
651.00,0.0859
650.00,0.0863
