Created as New Dataset,Monday, April 03 2023
cm-1,A
4000.00,0.0179
3999.00,0.0179
3998.00,0.0179
3997.00,0.0179
3996.00,0.0179
3995.00,0.0179
3994.00,0.0179
3993.00,0.0179
3992.00,0.0179
3991.00,0.0179
3990.00,0.0179
3989.00,0.0179
3988.00,0.0179
3987.00,0.0179
3986.00,0.0179
3985.00,0.0179
3984.00,0.0179
3983.00,0.0178
3982.00,0.0178
3981.00,0.0178
3980.00,0.0179
3979.00,0.0179
3978.00,0.0180
3977.00,0.0180
3976.00,0.0179
3975.00,0.0179
3974.00,0.0179
3973.00,0.0179
3972.00,0.0179
3971.00,0.0179
3970.00,0.0179
3969.00,0.0179
3968.00,0.0178
3967.00,0.0178
3966.00,0.0178
3965.00,0.0179
3964.00,0.0179
3963.00,0.0179
3962.00,0.0179
3961.00,0.0179
3960.00,0.0179
3959.00,0.0179
3958.00,0.0179
3957.00,0.0179
3956.00,0.0178
3955.00,0.0178
3954.00,0.0178
3953.00,0.0179
3952.00,0.0179
3951.00,0.0179
3950.00,0.0179
3949.00,0.0179
3948.00,0.0178
3947.00,0.0178
3946.00,0.0178
3945.00,0.0178
3944.00,0.0178
3943.00,0.0178
3942.00,0.0177
3941.00,0.0177
3940.00,0.0177
3939.00,0.0177
3938.00,0.0178
3937.00,0.0178
3936.00,0.0179
3935.00,0.0179
3934.00,0.0180
3933.00,0.0180
3932.00,0.0179
3931.00,0.0178
3930.00,0.0178
3929.00,0.0177
3928.00,0.0177
3927.00,0.0178
3926.00,0.0178
3925.00,0.0178
3924.00,0.0177
3923.00,0.0177
3922.00,0.0177
3921.00,0.0177
3920.00,0.0177
3919.00,0.0177
3918.00,0.0177
3917.00,0.0176
3916.00,0.0176
3915.00,0.0175
3914.00,0.0176
3913.00,0.0176
3912.00,0.0176
3911.00,0.0176
3910.00,0.0177
3909.00,0.0177
3908.00,0.0177
3907.00,0.0177
3906.00,0.0177
3905.00,0.0176
3904.00,0.0175
3903.00,0.0175
3902.00,0.0175
3901.00,0.0176
3900.00,0.0176
3899.00,0.0175
3898.00,0.0175
3897.00,0.0175
3896.00,0.0176
3895.00,0.0177
3894.00,0.0177
3893.00,0.0177
3892.00,0.0176
3891.00,0.0175
3890.00,0.0174
3889.00,0.0174
3888.00,0.0175
3887.00,0.0176
3886.00,0.0176
3885.00,0.0176
3884.00,0.0175
3883.00,0.0176
3882.00,0.0177
3881.00,0.0176
3880.00,0.0174
3879.00,0.0173
3878.00,0.0173
3877.00,0.0174
3876.00,0.0176
3875.00,0.0176
3874.00,0.0176
3873.00,0.0176
3872.00,0.0176
3871.00,0.0176
3870.00,0.0175
3869.00,0.0174
3868.00,0.0173
3867.00,0.0175
3866.00,0.0176
3865.00,0.0176
3864.00,0.0175
3863.00,0.0175
3862.00,0.0175
3861.00,0.0175
3860.00,0.0175
3859.00,0.0175
3858.00,0.0174
3857.00,0.0172
3856.00,0.0170
3855.00,0.0171
3854.00,0.0174
3853.00,0.0175
3852.00,0.0173
3851.00,0.0173
3850.00,0.0175
3849.00,0.0176
3848.00,0.0176
3847.00,0.0176
3846.00,0.0175
3845.00,0.0175
3844.00,0.0175
3843.00,0.0175
3842.00,0.0175
3841.00,0.0175
3840.00,0.0176
3839.00,0.0176
3838.00,0.0175
3837.00,0.0174
3836.00,0.0173
3835.00,0.0173
3834.00,0.0173
3833.00,0.0174
3832.00,0.0174
3831.00,0.0174
3830.00,0.0175
3829.00,0.0175
3828.00,0.0175
3827.00,0.0175
3826.00,0.0174
3825.00,0.0173
3824.00,0.0172
3823.00,0.0172
3822.00,0.0173
3821.00,0.0173
3820.00,0.0172
3819.00,0.0172
3818.00,0.0173
3817.00,0.0174
3816.00,0.0173
3815.00,0.0172
3814.00,0.0172
3813.00,0.0173
3812.00,0.0173
3811.00,0.0172
3810.00,0.0171
3809.00,0.0170
3808.00,0.0171
3807.00,0.0172
3806.00,0.0171
3805.00,0.0172
3804.00,0.0173
3803.00,0.0174
3802.00,0.0175
3801.00,0.0174
3800.00,0.0173
3799.00,0.0173
3798.00,0.0173
3797.00,0.0173
3796.00,0.0172
3795.00,0.0171
3794.00,0.0171
3793.00,0.0171
3792.00,0.0171
3791.00,0.0171
3790.00,0.0171
3789.00,0.0171
3788.00,0.0172
3787.00,0.0172
3786.00,0.0172
3785.00,0.0171
3784.00,0.0171
3783.00,0.0170
3782.00,0.0170
3781.00,0.0171
3780.00,0.0171
3779.00,0.0170
3778.00,0.0169
3777.00,0.0169
3776.00,0.0169
3775.00,0.0170
3774.00,0.0169
3773.00,0.0169
3772.00,0.0170
3771.00,0.0170
3770.00,0.0169
3769.00,0.0169
3768.00,0.0168
3767.00,0.0169
3766.00,0.0169
3765.00,0.0169
3764.00,0.0168
3763.00,0.0168
3762.00,0.0169
3761.00,0.0169
3760.00,0.0170
3759.00,0.0170
3758.00,0.0170
3757.00,0.0169
3756.00,0.0169
3755.00,0.0168
3754.00,0.0168
3753.00,0.0168
3752.00,0.0169
3751.00,0.0170
3750.00,0.0170
3749.00,0.0169
3748.00,0.0168
3747.00,0.0167
3746.00,0.0166
3745.00,0.0165
3744.00,0.0164
3743.00,0.0163
3742.00,0.0165
3741.00,0.0167
3740.00,0.0168
3739.00,0.0167
3738.00,0.0167
3737.00,0.0167
3736.00,0.0167
3735.00,0.0165
3734.00,0.0163
3733.00,0.0161
3732.00,0.0161
3731.00,0.0161
3730.00,0.0162
3729.00,0.0164
3728.00,0.0165
3727.00,0.0165
3726.00,0.0164
3725.00,0.0164
3724.00,0.0164
3723.00,0.0164
3722.00,0.0164
3721.00,0.0163
3720.00,0.0163
3719.00,0.0163
3718.00,0.0164
3717.00,0.0164
3716.00,0.0163
3715.00,0.0163
3714.00,0.0162
3713.00,0.0162
3712.00,0.0162
3711.00,0.0162
3710.00,0.0161
3709.00,0.0161
3708.00,0.0161
3707.00,0.0161
3706.00,0.0162
3705.00,0.0162
3704.00,0.0161
3703.00,0.0161
3702.00,0.0161
3701.00,0.0161
3700.00,0.0161
3699.00,0.0162
3698.00,0.0163
3697.00,0.0163
3696.00,0.0163
3695.00,0.0162
3694.00,0.0162
3693.00,0.0162
3692.00,0.0161
3691.00,0.0162
3690.00,0.0163
3689.00,0.0163
3688.00,0.0163
3687.00,0.0163
3686.00,0.0163
3685.00,0.0164
3684.00,0.0165
3683.00,0.0164
3682.00,0.0164
3681.00,0.0164
3680.00,0.0163
3679.00,0.0161
3678.00,0.0161
3677.00,0.0162
3676.00,0.0164
3675.00,0.0164
3674.00,0.0163
3673.00,0.0165
3672.00,0.0167
3671.00,0.0168
3670.00,0.0167
3669.00,0.0166
3668.00,0.0164
3667.00,0.0165
3666.00,0.0167
3665.00,0.0168
3664.00,0.0169
3663.00,0.0169
3662.00,0.0170
3661.00,0.0170
3660.00,0.0170
3659.00,0.0171
3658.00,0.0171
3657.00,0.0172
3656.00,0.0173
3655.00,0.0173
3654.00,0.0173
3653.00,0.0173
3652.00,0.0172
3651.00,0.0173
3650.00,0.0177
3649.00,0.0179
3648.00,0.0180
3647.00,0.0179
3646.00,0.0179
3645.00,0.0181
3644.00,0.0183
3643.00,0.0184
3642.00,0.0185
3641.00,0.0186
3640.00,0.0187
3639.00,0.0187
3638.00,0.0188
3637.00,0.0188
3636.00,0.0189
3635.00,0.0190
3634.00,0.0190
3633.00,0.0190
3632.00,0.0189
3631.00,0.0190
3630.00,0.0192
3629.00,0.0195
3628.00,0.0195
3627.00,0.0195
3626.00,0.0197
3625.00,0.0199
3624.00,0.0199
3623.00,0.0199
3622.00,0.0200
3621.00,0.0202
3620.00,0.0204
3619.00,0.0206
3618.00,0.0207
3617.00,0.0207
3616.00,0.0208
3615.00,0.0209
3614.00,0.0210
3613.00,0.0210
3612.00,0.0210
3611.00,0.0210
3610.00,0.0211
3609.00,0.0212
3608.00,0.0213
3607.00,0.0214
3606.00,0.0214
3605.00,0.0215
3604.00,0.0216
3603.00,0.0217
3602.00,0.0218
3601.00,0.0219
3600.00,0.0220
3599.00,0.0219
3598.00,0.0219
3597.00,0.0219
3596.00,0.0220
3595.00,0.0221
3594.00,0.0223
3593.00,0.0223
3592.00,0.0223
3591.00,0.0223
3590.00,0.0223
3589.00,0.0224
3588.00,0.0225
3587.00,0.0226
3586.00,0.0226
3585.00,0.0226
3584.00,0.0227
3583.00,0.0228
3582.00,0.0229
3581.00,0.0230
3580.00,0.0231
3579.00,0.0231
3578.00,0.0232
3577.00,0.0232
3576.00,0.0233
3575.00,0.0233
3574.00,0.0234
3573.00,0.0234
3572.00,0.0234
3571.00,0.0234
3570.00,0.0235
3569.00,0.0237
3568.00,0.0240
3567.00,0.0242
3566.00,0.0242
3565.00,0.0241
3564.00,0.0241
3563.00,0.0241
3562.00,0.0242
3561.00,0.0242
3560.00,0.0243
3559.00,0.0243
3558.00,0.0243
3557.00,0.0244
3556.00,0.0245
3555.00,0.0245
3554.00,0.0246
3553.00,0.0247
3552.00,0.0248
3551.00,0.0248
3550.00,0.0248
3549.00,0.0249
3548.00,0.0249
3547.00,0.0251
3546.00,0.0252
3545.00,0.0252
3544.00,0.0252
3543.00,0.0252
3542.00,0.0252
3541.00,0.0252
3540.00,0.0252
3539.00,0.0253
3538.00,0.0253
3537.00,0.0254
3536.00,0.0255
3535.00,0.0255
3534.00,0.0256
3533.00,0.0256
3532.00,0.0256
3531.00,0.0257
3530.00,0.0258
3529.00,0.0259
3528.00,0.0260
3527.00,0.0261
3526.00,0.0262
3525.00,0.0263
3524.00,0.0263
3523.00,0.0263
3522.00,0.0262
3521.00,0.0262
3520.00,0.0263
3519.00,0.0263
3518.00,0.0264
3517.00,0.0264
3516.00,0.0265
3515.00,0.0265
3514.00,0.0265
3513.00,0.0265
3512.00,0.0265
3511.00,0.0266
3510.00,0.0267
3509.00,0.0268
3508.00,0.0268
3507.00,0.0268
3506.00,0.0268
3505.00,0.0269
3504.00,0.0269
3503.00,0.0271
3502.00,0.0271
3501.00,0.0271
3500.00,0.0271
3499.00,0.0272
3498.00,0.0272
3497.00,0.0273
3496.00,0.0274
3495.00,0.0275
3494.00,0.0275
3493.00,0.0275
3492.00,0.0275
3491.00,0.0276
3490.00,0.0276
3489.00,0.0277
3488.00,0.0277
3487.00,0.0278
3486.00,0.0278
3485.00,0.0278
3484.00,0.0278
3483.00,0.0279
3482.00,0.0279
3481.00,0.0280
3480.00,0.0280
3479.00,0.0281
3478.00,0.0281
3477.00,0.0281
3476.00,0.0282
3475.00,0.0282
3474.00,0.0282
3473.00,0.0282
3472.00,0.0282
3471.00,0.0282
3470.00,0.0283
3469.00,0.0283
3468.00,0.0284
3467.00,0.0284
3466.00,0.0285
3465.00,0.0285
3464.00,0.0285
3463.00,0.0286
3462.00,0.0287
3461.00,0.0288
3460.00,0.0288
3459.00,0.0288
3458.00,0.0288
3457.00,0.0289
3456.00,0.0289
3455.00,0.0289
3454.00,0.0290
3453.00,0.0291
3452.00,0.0291
3451.00,0.0291
3450.00,0.0291
3449.00,0.0292
3448.00,0.0293
3447.00,0.0294
3446.00,0.0294
3445.00,0.0294
3444.00,0.0295
3443.00,0.0295
3442.00,0.0295
3441.00,0.0296
3440.00,0.0296
3439.00,0.0296
3438.00,0.0296
3437.00,0.0296
3436.00,0.0297
3435.00,0.0297
3434.00,0.0297
3433.00,0.0297
3432.00,0.0298
3431.00,0.0298
3430.00,0.0299
3429.00,0.0299
3428.00,0.0300
3427.00,0.0300
3426.00,0.0300
3425.00,0.0300
3424.00,0.0301
3423.00,0.0301
3422.00,0.0302
3421.00,0.0302
3420.00,0.0303
3419.00,0.0303
3418.00,0.0303
3417.00,0.0303
3416.00,0.0303
3415.00,0.0303
3414.00,0.0303
3413.00,0.0304
3412.00,0.0304
3411.00,0.0304
3410.00,0.0305
3409.00,0.0305
3408.00,0.0305
3407.00,0.0305
3406.00,0.0306
3405.00,0.0306
3404.00,0.0307
3403.00,0.0308
3402.00,0.0308
3401.00,0.0309
3400.00,0.0309
3399.00,0.0308
3398.00,0.0308
3397.00,0.0308
3396.00,0.0309
3395.00,0.0310
3394.00,0.0310
3393.00,0.0311
3392.00,0.0311
3391.00,0.0310
3390.00,0.0310
3389.00,0.0310
3388.00,0.0310
3387.00,0.0311
3386.00,0.0311
3385.00,0.0312
3384.00,0.0312
3383.00,0.0312
3382.00,0.0312
3381.00,0.0312
3380.00,0.0312
3379.00,0.0313
3378.00,0.0314
3377.00,0.0314
3376.00,0.0314
3375.00,0.0314
3374.00,0.0314
3373.00,0.0314
3372.00,0.0314
3371.00,0.0314
3370.00,0.0314
3369.00,0.0314
3368.00,0.0315
3367.00,0.0315
3366.00,0.0316
3365.00,0.0317
3364.00,0.0317
3363.00,0.0317
3362.00,0.0317
3361.00,0.0317
3360.00,0.0317
3359.00,0.0317
3358.00,0.0317
3357.00,0.0317
3356.00,0.0318
3355.00,0.0318
3354.00,0.0318
3353.00,0.0318
3352.00,0.0318
3351.00,0.0319
3350.00,0.0319
3349.00,0.0319
3348.00,0.0319
3347.00,0.0319
3346.00,0.0318
3345.00,0.0318
3344.00,0.0319
3343.00,0.0319
3342.00,0.0320
3341.00,0.0320
3340.00,0.0321
3339.00,0.0321
3338.00,0.0321
3337.00,0.0321
3336.00,0.0321
3335.00,0.0321
3334.00,0.0322
3333.00,0.0322
3332.00,0.0322
3331.00,0.0322
3330.00,0.0322
3329.00,0.0322
3328.00,0.0322
3327.00,0.0323
3326.00,0.0323
3325.00,0.0323
3324.00,0.0323
3323.00,0.0323
3322.00,0.0322
3321.00,0.0323
3320.00,0.0323
3319.00,0.0323
3318.00,0.0324
3317.00,0.0324
3316.00,0.0324
3315.00,0.0323
3314.00,0.0323
3313.00,0.0323
3312.00,0.0323
3311.00,0.0323
3310.00,0.0324
3309.00,0.0324
3308.00,0.0325
3307.00,0.0325
3306.00,0.0325
3305.00,0.0325
3304.00,0.0325
3303.00,0.0325
3302.00,0.0325
3301.00,0.0326
3300.00,0.0326
3299.00,0.0326
3298.00,0.0326
3297.00,0.0326
3296.00,0.0326
3295.00,0.0326
3294.00,0.0326
3293.00,0.0327
3292.00,0.0327
3291.00,0.0327
3290.00,0.0327
3289.00,0.0327
3288.00,0.0327
3287.00,0.0327
3286.00,0.0328
3285.00,0.0328
3284.00,0.0328
3283.00,0.0328
3282.00,0.0329
3281.00,0.0329
3280.00,0.0329
3279.00,0.0329
3278.00,0.0329
3277.00,0.0329
3276.00,0.0329
3275.00,0.0329
3274.00,0.0330
3273.00,0.0330
3272.00,0.0330
3271.00,0.0330
3270.00,0.0330
3269.00,0.0330
3268.00,0.0330
3267.00,0.0330
3266.00,0.0330
3265.00,0.0331
3264.00,0.0331
3263.00,0.0331
3262.00,0.0331
3261.00,0.0331
3260.00,0.0331
3259.00,0.0331
3258.00,0.0331
3257.00,0.0331
3256.00,0.0332
3255.00,0.0332
3254.00,0.0332
3253.00,0.0332
3252.00,0.0333
3251.00,0.0333
3250.00,0.0333
3249.00,0.0333
3248.00,0.0333
3247.00,0.0333
3246.00,0.0333
3245.00,0.0334
3244.00,0.0334
3243.00,0.0333
3242.00,0.0333
3241.00,0.0334
3240.00,0.0334
3239.00,0.0334
3238.00,0.0335
3237.00,0.0335
3236.00,0.0335
3235.00,0.0335
3234.00,0.0334
3233.00,0.0334
3232.00,0.0334
3231.00,0.0334
3230.00,0.0334
3229.00,0.0334
3228.00,0.0335
3227.00,0.0335
3226.00,0.0335
3225.00,0.0335
3224.00,0.0334
3223.00,0.0334
3222.00,0.0335
3221.00,0.0335
3220.00,0.0336
3219.00,0.0336
3218.00,0.0336
3217.00,0.0336
3216.00,0.0336
3215.00,0.0335
3214.00,0.0335
3213.00,0.0335
3212.00,0.0335
3211.00,0.0336
3210.00,0.0336
3209.00,0.0336
3208.00,0.0336
3207.00,0.0336
3206.00,0.0336
3205.00,0.0337
3204.00,0.0337
3203.00,0.0337
3202.00,0.0337
3201.00,0.0337
3200.00,0.0337
3199.00,0.0337
3198.00,0.0337
3197.00,0.0337
3196.00,0.0337
3195.00,0.0337
3194.00,0.0337
3193.00,0.0337
3192.00,0.0337
3191.00,0.0337
3190.00,0.0337
3189.00,0.0337
3188.00,0.0338
3187.00,0.0338
3186.00,0.0338
3185.00,0.0337
3184.00,0.0337
3183.00,0.0337
3182.00,0.0337
3181.00,0.0337
3180.00,0.0337
3179.00,0.0337
3178.00,0.0337
3177.00,0.0337
3176.00,0.0337
3175.00,0.0337
3174.00,0.0337
3173.00,0.0337
3172.00,0.0337
3171.00,0.0337
3170.00,0.0337
3169.00,0.0338
3168.00,0.0337
3167.00,0.0337
3166.00,0.0337
3165.00,0.0336
3164.00,0.0336
3163.00,0.0337
3162.00,0.0337
3161.00,0.0337
3160.00,0.0337
3159.00,0.0337
3158.00,0.0337
3157.00,0.0336
3156.00,0.0336
3155.00,0.0336
3154.00,0.0336
3153.00,0.0336
3152.00,0.0336
3151.00,0.0336
3150.00,0.0336
3149.00,0.0336
3148.00,0.0336
3147.00,0.0336
3146.00,0.0336
3145.00,0.0336
3144.00,0.0336
3143.00,0.0336
3142.00,0.0335
3141.00,0.0335
3140.00,0.0335
3139.00,0.0335
3138.00,0.0335
3137.00,0.0335
3136.00,0.0335
3135.00,0.0335
3134.00,0.0335
3133.00,0.0335
3132.00,0.0335
3131.00,0.0335
3130.00,0.0335
3129.00,0.0334
3128.00,0.0334
3127.00,0.0334
3126.00,0.0334
3125.00,0.0333
3124.00,0.0333
3123.00,0.0333
3122.00,0.0333
3121.00,0.0334
3120.00,0.0334
3119.00,0.0334
3118.00,0.0334
3117.00,0.0334
3116.00,0.0333
3115.00,0.0333
3114.00,0.0333
3113.00,0.0333
3112.00,0.0333
3111.00,0.0333
3110.00,0.0332
3109.00,0.0332
3108.00,0.0332
3107.00,0.0332
3106.00,0.0332
3105.00,0.0332
3104.00,0.0332
3103.00,0.0332
3102.00,0.0332
3101.00,0.0332
3100.00,0.0332
3099.00,0.0331
3098.00,0.0331
3097.00,0.0331
3096.00,0.0331
3095.00,0.0331
3094.00,0.0331
3093.00,0.0331
3092.00,0.0331
3091.00,0.0331
3090.00,0.0331
3089.00,0.0331
3088.00,0.0331
3087.00,0.0331
3086.00,0.0331
3085.00,0.0330
3084.00,0.0330
3083.00,0.0330
3082.00,0.0329
3081.00,0.0330
3080.00,0.0330
3079.00,0.0330
3078.00,0.0330
3077.00,0.0330
3076.00,0.0329
3075.00,0.0329
3074.00,0.0329
3073.00,0.0329
3072.00,0.0329
3071.00,0.0329
3070.00,0.0328
3069.00,0.0328
3068.00,0.0328
3067.00,0.0328
3066.00,0.0328
3065.00,0.0328
3064.00,0.0328
3063.00,0.0328
3062.00,0.0327
3061.00,0.0327
3060.00,0.0327
3059.00,0.0326
3058.00,0.0326
3057.00,0.0326
3056.00,0.0326
3055.00,0.0326
3054.00,0.0326
3053.00,0.0325
3052.00,0.0325
3051.00,0.0325
3050.00,0.0325
3049.00,0.0325
3048.00,0.0325
3047.00,0.0325
3046.00,0.0325
3045.00,0.0325
3044.00,0.0325
3043.00,0.0325
3042.00,0.0324
3041.00,0.0324
3040.00,0.0323
3039.00,0.0323
3038.00,0.0323
3037.00,0.0323
3036.00,0.0323
3035.00,0.0322
3034.00,0.0322
3033.00,0.0322
3032.00,0.0321
3031.00,0.0321
3030.00,0.0321
3029.00,0.0320
3028.00,0.0320
3027.00,0.0320
3026.00,0.0320
3025.00,0.0320
3024.00,0.0319
3023.00,0.0319
3022.00,0.0319
3021.00,0.0318
3020.00,0.0318
3019.00,0.0317
3018.00,0.0317
3017.00,0.0317
3016.00,0.0316
3015.00,0.0316
3014.00,0.0317
3013.00,0.0317
3012.00,0.0316
3011.00,0.0316
3010.00,0.0315
3009.00,0.0314
3008.00,0.0313
3007.00,0.0313
3006.00,0.0312
3005.00,0.0312
3004.00,0.0312
3003.00,0.0312
3002.00,0.0311
3001.00,0.0311
3000.00,0.0310
2999.00,0.0310
2998.00,0.0309
2997.00,0.0308
2996.00,0.0308
2995.00,0.0308
2994.00,0.0308
2993.00,0.0308
2992.00,0.0307
2991.00,0.0307
2990.00,0.0306
2989.00,0.0305
2988.00,0.0305
2987.00,0.0304
2986.00,0.0304
2985.00,0.0303
2984.00,0.0301
2983.00,0.0300
2982.00,0.0299
2981.00,0.0298
2980.00,0.0298
2979.00,0.0298
2978.00,0.0299
2977.00,0.0299
2976.00,0.0299
2975.00,0.0299
2974.00,0.0299
2973.00,0.0298
2972.00,0.0298
2971.00,0.0297
2970.00,0.0297
2969.00,0.0296
2968.00,0.0296
2967.00,0.0296
2966.00,0.0296
2965.00,0.0295
2964.00,0.0295
2963.00,0.0295
2962.00,0.0294
2961.00,0.0294
2960.00,0.0293
2959.00,0.0293
2958.00,0.0293
2957.00,0.0293
2956.00,0.0293
2955.00,0.0293
2954.00,0.0293
2953.00,0.0293
2952.00,0.0293
2951.00,0.0293
2950.00,0.0293
2949.00,0.0293
2948.00,0.0293
2947.00,0.0292
2946.00,0.0293
2945.00,0.0293
2944.00,0.0292
2943.00,0.0292
2942.00,0.0291
2941.00,0.0290
2940.00,0.0289
2939.00,0.0289
2938.00,0.0288
2937.00,0.0287
2936.00,0.0286
2935.00,0.0284
2934.00,0.0283
2933.00,0.0282
2932.00,0.0281
2931.00,0.0279
2930.00,0.0278
2929.00,0.0277
2928.00,0.0276
2927.00,0.0275
2926.00,0.0274
2925.00,0.0274
2924.00,0.0273
2923.00,0.0273
2922.00,0.0273
2921.00,0.0272
2920.00,0.0272
2919.00,0.0272
2918.00,0.0272
2917.00,0.0272
2916.00,0.0273
2915.00,0.0274
2914.00,0.0276
2913.00,0.0278
2912.00,0.0279
2911.00,0.0280
2910.00,0.0281
2909.00,0.0281
2908.00,0.0282
2907.00,0.0282
2906.00,0.0283
2905.00,0.0283
2904.00,0.0283
2903.00,0.0284
2902.00,0.0284
2901.00,0.0284
2900.00,0.0284
2899.00,0.0284
2898.00,0.0284
2897.00,0.0284
2896.00,0.0284
2895.00,0.0284
2894.00,0.0284
2893.00,0.0284
2892.00,0.0284
2891.00,0.0284
2890.00,0.0284
2889.00,0.0284
2888.00,0.0284
2887.00,0.0284
2886.00,0.0284
2885.00,0.0284
2884.00,0.0284
2883.00,0.0284
2882.00,0.0285
2881.00,0.0285
2880.00,0.0284
2879.00,0.0284
2878.00,0.0284
2877.00,0.0284
2876.00,0.0283
2875.00,0.0283
2874.00,0.0282
2873.00,0.0282
2872.00,0.0281
2871.00,0.0281
2870.00,0.0281
2869.00,0.0281
2868.00,0.0280
2867.00,0.0280
2866.00,0.0279
2865.00,0.0279
2864.00,0.0278
2863.00,0.0278
2862.00,0.0278
2861.00,0.0277
2860.00,0.0277
2859.00,0.0276
2858.00,0.0275
2857.00,0.0273
2856.00,0.0273
2855.00,0.0272
2854.00,0.0271
2853.00,0.0271
2852.00,0.0271
2851.00,0.0271
2850.00,0.0271
2849.00,0.0272
2848.00,0.0273
2847.00,0.0274
2846.00,0.0275
2845.00,0.0276
2844.00,0.0277
2843.00,0.0278
2842.00,0.0278
2841.00,0.0279
2840.00,0.0279
2839.00,0.0279
2838.00,0.0280
2837.00,0.0280
2836.00,0.0280
2835.00,0.0280
2834.00,0.0279
2833.00,0.0279
2832.00,0.0279
2831.00,0.0279
2830.00,0.0280
2829.00,0.0279
2828.00,0.0279
2827.00,0.0279
2826.00,0.0279
2825.00,0.0279
2824.00,0.0279
2823.00,0.0279
2822.00,0.0279
2821.00,0.0279
2820.00,0.0279
2819.00,0.0279
2818.00,0.0279
2817.00,0.0279
2816.00,0.0278
2815.00,0.0278
2814.00,0.0278
2813.00,0.0278
2812.00,0.0278
2811.00,0.0278
2810.00,0.0278
2809.00,0.0277
2808.00,0.0277
2807.00,0.0277
2806.00,0.0277
2805.00,0.0276
2804.00,0.0276
2803.00,0.0276
2802.00,0.0276
2801.00,0.0275
2800.00,0.0275
2799.00,0.0275
2798.00,0.0275
2797.00,0.0275
2796.00,0.0275
2795.00,0.0275
2794.00,0.0274
2793.00,0.0274
2792.00,0.0274
2791.00,0.0273
2790.00,0.0273
2789.00,0.0273
2788.00,0.0273
2787.00,0.0273
2786.00,0.0273
2785.00,0.0273
2784.00,0.0273
2783.00,0.0273
2782.00,0.0273
2781.00,0.0272
2780.00,0.0272
2779.00,0.0271
2778.00,0.0271
2777.00,0.0271
2776.00,0.0271
2775.00,0.0270
2774.00,0.0270
2773.00,0.0270
2772.00,0.0270
2771.00,0.0270
2770.00,0.0270
2769.00,0.0270
2768.00,0.0270
2767.00,0.0270
2766.00,0.0269
2765.00,0.0269
2764.00,0.0269
2763.00,0.0269
2762.00,0.0269
2761.00,0.0269
2760.00,0.0269
2759.00,0.0268
2758.00,0.0268
2757.00,0.0268
2756.00,0.0268
2755.00,0.0268
2754.00,0.0268
2753.00,0.0268
2752.00,0.0268
2751.00,0.0267
2750.00,0.0267
2749.00,0.0267
2748.00,0.0266
2747.00,0.0266
2746.00,0.0266
2745.00,0.0266
2744.00,0.0265
2743.00,0.0265
2742.00,0.0265
2741.00,0.0264
2740.00,0.0264
2739.00,0.0265
2738.00,0.0265
2737.00,0.0264
2736.00,0.0264
2735.00,0.0264
2734.00,0.0264
2733.00,0.0263
2732.00,0.0263
2731.00,0.0263
2730.00,0.0263
2729.00,0.0263
2728.00,0.0263
2727.00,0.0263
2726.00,0.0263
2725.00,0.0262
2724.00,0.0262
2723.00,0.0262
2722.00,0.0262
2721.00,0.0263
2720.00,0.0263
2719.00,0.0263
2718.00,0.0262
2717.00,0.0262
2716.00,0.0262
2715.00,0.0261
2714.00,0.0261
2713.00,0.0261
2712.00,0.0261
2711.00,0.0261
2710.00,0.0260
2709.00,0.0260
2708.00,0.0260
2707.00,0.0260
2706.00,0.0260
2705.00,0.0260
2704.00,0.0260
2703.00,0.0259
2702.00,0.0259
2701.00,0.0259
2700.00,0.0259
2699.00,0.0258
2698.00,0.0258
2697.00,0.0258
2696.00,0.0258
2695.00,0.0258
2694.00,0.0258
2693.00,0.0258
2692.00,0.0258
2691.00,0.0258
2690.00,0.0258
2689.00,0.0257
2688.00,0.0257
2687.00,0.0257
2686.00,0.0257
2685.00,0.0257
2684.00,0.0257
2683.00,0.0257
2682.00,0.0257
2681.00,0.0256
2680.00,0.0256
2679.00,0.0256
2678.00,0.0256
2677.00,0.0255
2676.00,0.0255
2675.00,0.0255
2674.00,0.0255
2673.00,0.0255
2672.00,0.0255
2671.00,0.0255
2670.00,0.0255
2669.00,0.0254
2668.00,0.0254
2667.00,0.0255
2666.00,0.0255
2665.00,0.0256
2664.00,0.0256
2663.00,0.0256
2662.00,0.0256
2661.00,0.0255
2660.00,0.0255
2659.00,0.0255
2658.00,0.0255
2657.00,0.0256
2656.00,0.0256
2655.00,0.0256
2654.00,0.0256
2653.00,0.0256
2652.00,0.0256
2651.00,0.0256
2650.00,0.0256
2649.00,0.0256
2648.00,0.0256
2647.00,0.0256
2646.00,0.0256
2645.00,0.0255
2644.00,0.0255
2643.00,0.0255
2642.00,0.0255
2641.00,0.0255
2640.00,0.0255
2639.00,0.0255
2638.00,0.0255
2637.00,0.0255
2636.00,0.0255
2635.00,0.0255
2634.00,0.0255
2633.00,0.0255
2632.00,0.0255
2631.00,0.0255
2630.00,0.0255
2629.00,0.0256
2628.00,0.0256
2627.00,0.0256
2626.00,0.0256
2625.00,0.0256
2624.00,0.0256
2623.00,0.0256
2622.00,0.0255
2621.00,0.0255
2620.00,0.0255
2619.00,0.0255
2618.00,0.0255
2617.00,0.0255
2616.00,0.0255
2615.00,0.0255
2614.00,0.0255
2613.00,0.0255
2612.00,0.0255
2611.00,0.0255
2610.00,0.0255
2609.00,0.0255
2608.00,0.0255
2607.00,0.0255
2606.00,0.0255
2605.00,0.0256
2604.00,0.0256
2603.00,0.0256
2602.00,0.0256
2601.00,0.0255
2600.00,0.0255
2599.00,0.0255
2598.00,0.0255
2597.00,0.0255
2596.00,0.0254
2595.00,0.0254
2594.00,0.0254
2593.00,0.0254
2592.00,0.0254
2591.00,0.0255
2590.00,0.0255
2589.00,0.0255
2588.00,0.0255
2587.00,0.0255
2586.00,0.0254
2585.00,0.0254
2584.00,0.0254
2583.00,0.0255
2582.00,0.0255
2581.00,0.0255
2580.00,0.0255
2579.00,0.0255
2578.00,0.0255
2577.00,0.0254
2576.00,0.0254
2575.00,0.0254
2574.00,0.0254
2573.00,0.0254
2572.00,0.0254
2571.00,0.0254
2570.00,0.0253
2569.00,0.0253
2568.00,0.0253
2567.00,0.0254
2566.00,0.0254
2565.00,0.0254
2564.00,0.0254
2563.00,0.0254
2562.00,0.0254
2561.00,0.0253
2560.00,0.0253
2559.00,0.0253
2558.00,0.0253
2557.00,0.0253
2556.00,0.0253
2555.00,0.0253
2554.00,0.0253
2553.00,0.0253
2552.00,0.0253
2551.00,0.0253
2550.00,0.0252
2549.00,0.0252
2548.00,0.0253
2547.00,0.0253
2546.00,0.0253
2545.00,0.0252
2544.00,0.0252
2543.00,0.0251
2542.00,0.0251
2541.00,0.0251
2540.00,0.0252
2539.00,0.0252
2538.00,0.0252
2537.00,0.0252
2536.00,0.0251
2535.00,0.0250
2534.00,0.0250
2533.00,0.0250
2532.00,0.0250
2531.00,0.0250
2530.00,0.0250
2529.00,0.0250
2528.00,0.0250
2527.00,0.0250
2526.00,0.0250
2525.00,0.0251
2524.00,0.0251
2523.00,0.0251
2522.00,0.0251
2521.00,0.0250
2520.00,0.0250
2519.00,0.0249
2518.00,0.0249
2517.00,0.0249
2516.00,0.0249
2515.00,0.0249
2514.00,0.0250
2513.00,0.0250
2512.00,0.0250
2511.00,0.0249
2510.00,0.0249
2509.00,0.0248
2508.00,0.0248
2507.00,0.0248
2506.00,0.0249
2505.00,0.0249
2504.00,0.0249
2503.00,0.0249
2502.00,0.0249
2501.00,0.0249
2500.00,0.0249
2499.00,0.0249
2498.00,0.0249
2497.00,0.0249
2496.00,0.0249
2495.00,0.0249
2494.00,0.0249
2493.00,0.0248
2492.00,0.0248
2491.00,0.0248
2490.00,0.0248
2489.00,0.0249
2488.00,0.0248
2487.00,0.0248
2486.00,0.0248
2485.00,0.0247
2484.00,0.0247
2483.00,0.0247
2482.00,0.0247
2481.00,0.0247
2480.00,0.0247
2479.00,0.0248
2478.00,0.0248
2477.00,0.0248
2476.00,0.0248
2475.00,0.0247
2474.00,0.0246
2473.00,0.0246
2472.00,0.0245
2471.00,0.0245
2470.00,0.0245
2469.00,0.0245
2468.00,0.0245
2467.00,0.0245
2466.00,0.0245
2465.00,0.0245
2464.00,0.0245
2463.00,0.0246
2462.00,0.0246
2461.00,0.0246
2460.00,0.0246
2459.00,0.0246
2458.00,0.0245
2457.00,0.0245
2456.00,0.0245
2455.00,0.0245
2454.00,0.0245
2453.00,0.0245
2452.00,0.0245
2451.00,0.0245
2450.00,0.0244
2449.00,0.0244
2448.00,0.0244
2447.00,0.0244
2446.00,0.0244
2445.00,0.0244
2444.00,0.0243
2443.00,0.0243
2442.00,0.0243
2441.00,0.0242
2440.00,0.0242
2439.00,0.0242
2438.00,0.0242
2437.00,0.0242
2436.00,0.0242
2435.00,0.0242
2434.00,0.0242
2433.00,0.0242
2432.00,0.0241
2431.00,0.0240
2430.00,0.0240
2429.00,0.0240
2428.00,0.0240
2427.00,0.0241
2426.00,0.0241
2425.00,0.0241
2424.00,0.0241
2423.00,0.0240
2422.00,0.0240
2421.00,0.0240
2420.00,0.0240
2419.00,0.0240
2418.00,0.0239
2417.00,0.0239
2416.00,0.0239
2415.00,0.0239
2414.00,0.0239
2413.00,0.0239
2412.00,0.0238
2411.00,0.0238
2410.00,0.0237
2409.00,0.0237
2408.00,0.0237
2407.00,0.0237
2406.00,0.0237
2405.00,0.0236
2404.00,0.0236
2403.00,0.0236
2402.00,0.0236
2401.00,0.0235
2400.00,0.0235
2399.00,0.0234
2398.00,0.0233
2397.00,0.0233
2396.00,0.0234
2395.00,0.0234
2394.00,0.0234
2393.00,0.0234
2392.00,0.0233
2391.00,0.0233
2390.00,0.0233
2389.00,0.0233
2388.00,0.0232
2387.00,0.0232
2386.00,0.0231
2385.00,0.0230
2384.00,0.0229
2383.00,0.0228
2382.00,0.0227
2381.00,0.0226
2380.00,0.0224
2379.00,0.0223
2378.00,0.0222
2377.00,0.0223
2376.00,0.0223
2375.00,0.0224
2374.00,0.0224
2373.00,0.0224
2372.00,0.0224
2371.00,0.0224
2370.00,0.0224
2369.00,0.0224
2368.00,0.0223
2367.00,0.0222
2366.00,0.0221
2365.00,0.0219
2364.00,0.0218
2363.00,0.0218
2362.00,0.0219
2361.00,0.0221
2360.00,0.0223
2359.00,0.0224
2358.00,0.0224
2357.00,0.0224
2356.00,0.0224
2355.00,0.0225
2354.00,0.0225
2353.00,0.0225
2352.00,0.0225
2351.00,0.0224
2350.00,0.0221
2349.00,0.0217
2348.00,0.0212
2347.00,0.0208
2346.00,0.0207
2345.00,0.0210
2344.00,0.0214
2343.00,0.0217
2342.00,0.0220
2341.00,0.0222
2340.00,0.0223
2339.00,0.0223
2338.00,0.0223
2337.00,0.0223
2336.00,0.0223
2335.00,0.0223
2334.00,0.0223
2333.00,0.0224
2332.00,0.0224
2331.00,0.0224
2330.00,0.0225
2329.00,0.0227
2328.00,0.0228
2327.00,0.0230
2326.00,0.0231
2325.00,0.0231
2324.00,0.0230
2323.00,0.0229
2322.00,0.0229
2321.00,0.0230
2320.00,0.0231
2319.00,0.0232
2318.00,0.0232
2317.00,0.0231
2316.00,0.0229
2315.00,0.0228
2314.00,0.0226
2313.00,0.0225
2312.00,0.0225
2311.00,0.0225
2310.00,0.0226
2309.00,0.0226
2308.00,0.0226
2307.00,0.0226
2306.00,0.0226
2305.00,0.0226
2304.00,0.0225
2303.00,0.0225
2302.00,0.0224
2301.00,0.0223
2300.00,0.0223
2299.00,0.0223
2298.00,0.0223
2297.00,0.0223
2296.00,0.0223
2295.00,0.0223
2294.00,0.0224
2293.00,0.0224
2292.00,0.0224
2291.00,0.0224
2290.00,0.0225
2289.00,0.0225
2288.00,0.0226
2287.00,0.0226
2286.00,0.0226
2285.00,0.0226
2284.00,0.0225
2283.00,0.0224
2282.00,0.0224
2281.00,0.0224
2280.00,0.0223
2279.00,0.0222
2278.00,0.0221
2277.00,0.0221
2276.00,0.0221
2275.00,0.0221
2274.00,0.0221
2273.00,0.0221
2272.00,0.0221
2271.00,0.0220
2270.00,0.0220
2269.00,0.0220
2268.00,0.0220
2267.00,0.0220
2266.00,0.0221
2265.00,0.0221
2264.00,0.0222
2263.00,0.0222
2262.00,0.0221
2261.00,0.0221
2260.00,0.0220
2259.00,0.0220
2258.00,0.0220
2257.00,0.0220
2256.00,0.0219
2255.00,0.0218
2254.00,0.0218
2253.00,0.0219
2252.00,0.0219
2251.00,0.0219
2250.00,0.0219
2249.00,0.0218
2248.00,0.0218
2247.00,0.0219
2246.00,0.0219
2245.00,0.0220
2244.00,0.0220
2243.00,0.0219
2242.00,0.0219
2241.00,0.0218
2240.00,0.0218
2239.00,0.0217
2238.00,0.0217
2237.00,0.0217
2236.00,0.0216
2235.00,0.0216
2234.00,0.0217
2233.00,0.0218
2232.00,0.0218
2231.00,0.0218
2230.00,0.0218
2229.00,0.0218
2228.00,0.0218
2227.00,0.0217
2226.00,0.0216
2225.00,0.0215
2224.00,0.0215
2223.00,0.0215
2222.00,0.0215
2221.00,0.0216
2220.00,0.0216
2219.00,0.0216
2218.00,0.0216
2217.00,0.0216
2216.00,0.0217
2215.00,0.0218
2214.00,0.0219
2213.00,0.0219
2212.00,0.0217
2211.00,0.0216
2210.00,0.0215
2209.00,0.0214
2208.00,0.0214
2207.00,0.0213
2206.00,0.0213
2205.00,0.0213
2204.00,0.0214
2203.00,0.0215
2202.00,0.0215
2201.00,0.0215
2200.00,0.0216
2199.00,0.0218
2198.00,0.0219
2197.00,0.0219
2196.00,0.0218
2195.00,0.0218
2194.00,0.0217
2193.00,0.0216
2192.00,0.0215
2191.00,0.0213
2190.00,0.0213
2189.00,0.0214
2188.00,0.0216
2187.00,0.0218
2186.00,0.0219
2185.00,0.0219
2184.00,0.0218
2183.00,0.0215
2182.00,0.0214
2181.00,0.0214
2180.00,0.0215
2179.00,0.0215
2178.00,0.0213
2177.00,0.0211
2176.00,0.0210
2175.00,0.0210
2174.00,0.0212
2173.00,0.0214
2172.00,0.0215
2171.00,0.0216
2170.00,0.0217
2169.00,0.0218
2168.00,0.0218
2167.00,0.0218
2166.00,0.0217
2165.00,0.0217
2164.00,0.0217
2163.00,0.0218
2162.00,0.0217
2161.00,0.0214
2160.00,0.0209
2159.00,0.0205
2158.00,0.0203
2157.00,0.0203
2156.00,0.0204
2155.00,0.0203
2154.00,0.0203
2153.00,0.0204
2152.00,0.0203
2151.00,0.0202
2150.00,0.0200
2149.00,0.0199
2148.00,0.0199
2147.00,0.0199
2146.00,0.0199
2145.00,0.0200
2144.00,0.0200
2143.00,0.0200
2142.00,0.0201
2141.00,0.0201
2140.00,0.0201
2139.00,0.0201
2138.00,0.0200
2137.00,0.0199
2136.00,0.0197
2135.00,0.0195
2134.00,0.0195
2133.00,0.0195
2132.00,0.0196
2131.00,0.0197
2130.00,0.0197
2129.00,0.0197
2128.00,0.0197
2127.00,0.0197
2126.00,0.0197
2125.00,0.0198
2124.00,0.0198
2123.00,0.0198
2122.00,0.0197
2121.00,0.0197
2120.00,0.0197
2119.00,0.0198
2118.00,0.0199
2117.00,0.0199
2116.00,0.0199
2115.00,0.0199
2114.00,0.0199
2113.00,0.0199
2112.00,0.0200
2111.00,0.0201
2110.00,0.0201
2109.00,0.0200
2108.00,0.0200
2107.00,0.0199
2106.00,0.0198
2105.00,0.0198
2104.00,0.0198
2103.00,0.0197
2102.00,0.0198
2101.00,0.0198
2100.00,0.0198
2099.00,0.0197
2098.00,0.0196
2097.00,0.0195
2096.00,0.0193
2095.00,0.0192
2094.00,0.0192
2093.00,0.0192
2092.00,0.0193
2091.00,0.0194
2090.00,0.0195
2089.00,0.0195
2088.00,0.0194
2087.00,0.0194
2086.00,0.0194
2085.00,0.0193
2084.00,0.0193
2083.00,0.0192
2082.00,0.0191
2081.00,0.0191
2080.00,0.0190
2079.00,0.0191
2078.00,0.0191
2077.00,0.0193
2076.00,0.0193
2075.00,0.0193
2074.00,0.0193
2073.00,0.0193
2072.00,0.0193
2071.00,0.0193
2070.00,0.0192
2069.00,0.0192
2068.00,0.0191
2067.00,0.0190
2066.00,0.0190
2065.00,0.0190
2064.00,0.0189
2063.00,0.0189
2062.00,0.0189
2061.00,0.0189
2060.00,0.0189
2059.00,0.0189
2058.00,0.0190
2057.00,0.0190
2056.00,0.0191
2055.00,0.0192
2054.00,0.0192
2053.00,0.0194
2052.00,0.0195
2051.00,0.0194
2050.00,0.0193
2049.00,0.0191
2048.00,0.0190
2047.00,0.0190
2046.00,0.0192
2045.00,0.0195
2044.00,0.0196
2043.00,0.0196
2042.00,0.0195
2041.00,0.0194
2040.00,0.0193
2039.00,0.0192
2038.00,0.0192
2037.00,0.0193
2036.00,0.0194
2035.00,0.0194
2034.00,0.0194
2033.00,0.0192
2032.00,0.0190
2031.00,0.0189
2030.00,0.0188
2029.00,0.0189
2028.00,0.0189
2027.00,0.0188
2026.00,0.0188
2025.00,0.0188
2024.00,0.0188
2023.00,0.0188
2022.00,0.0187
2021.00,0.0187
2020.00,0.0188
2019.00,0.0189
2018.00,0.0189
2017.00,0.0188
2016.00,0.0187
2015.00,0.0187
2014.00,0.0186
2013.00,0.0186
2012.00,0.0185
2011.00,0.0184
2010.00,0.0183
2009.00,0.0183
2008.00,0.0183
2007.00,0.0182
2006.00,0.0183
2005.00,0.0183
2004.00,0.0184
2003.00,0.0184
2002.00,0.0184
2001.00,0.0183
2000.00,0.0183
1999.00,0.0183
1998.00,0.0183
1997.00,0.0183
1996.00,0.0184
1995.00,0.0185
1994.00,0.0187
1993.00,0.0188
1992.00,0.0187
1991.00,0.0186
1990.00,0.0184
1989.00,0.0182
1988.00,0.0181
1987.00,0.0180
1986.00,0.0181
1985.00,0.0183
1984.00,0.0185
1983.00,0.0187
1982.00,0.0187
1981.00,0.0188
1980.00,0.0187
1979.00,0.0185
1978.00,0.0182
1977.00,0.0179
1976.00,0.0178
1975.00,0.0178
1974.00,0.0178
1973.00,0.0179
1972.00,0.0179
1971.00,0.0178
1970.00,0.0178
1969.00,0.0178
1968.00,0.0178
1967.00,0.0177
1966.00,0.0176
1965.00,0.0176
1964.00,0.0176
1963.00,0.0175
1962.00,0.0173
1961.00,0.0172
1960.00,0.0170
1959.00,0.0170
1958.00,0.0170
1957.00,0.0170
1956.00,0.0170
1955.00,0.0169
1954.00,0.0168
1953.00,0.0168
1952.00,0.0167
1951.00,0.0167
1950.00,0.0167
1949.00,0.0167
1948.00,0.0168
1947.00,0.0168
1946.00,0.0168
1945.00,0.0168
1944.00,0.0167
1943.00,0.0166
1942.00,0.0164
1941.00,0.0163
1940.00,0.0162
1939.00,0.0161
1938.00,0.0161
1937.00,0.0161
1936.00,0.0161
1935.00,0.0161
1934.00,0.0161
1933.00,0.0161
1932.00,0.0161
1931.00,0.0160
1930.00,0.0160
1929.00,0.0160
1928.00,0.0159
1927.00,0.0158
1926.00,0.0158
1925.00,0.0158
1924.00,0.0157
1923.00,0.0156
1922.00,0.0155
1921.00,0.0156
1920.00,0.0157
1919.00,0.0157
1918.00,0.0155
1917.00,0.0154
1916.00,0.0153
1915.00,0.0154
1914.00,0.0154
1913.00,0.0154
1912.00,0.0153
1911.00,0.0153
1910.00,0.0152
1909.00,0.0151
1908.00,0.0150
1907.00,0.0150
1906.00,0.0150
1905.00,0.0150
1904.00,0.0149
1903.00,0.0149
1902.00,0.0148
1901.00,0.0148
1900.00,0.0148
1899.00,0.0148
1898.00,0.0148
1897.00,0.0148
1896.00,0.0147
1895.00,0.0145
1894.00,0.0144
1893.00,0.0144
1892.00,0.0145
1891.00,0.0145
1890.00,0.0144
1889.00,0.0143
1888.00,0.0142
1887.00,0.0142
1886.00,0.0141
1885.00,0.0141
1884.00,0.0140
1883.00,0.0139
1882.00,0.0139
1881.00,0.0138
1880.00,0.0138
1879.00,0.0138
1878.00,0.0138
1877.00,0.0138
1876.00,0.0138
1875.00,0.0138
1874.00,0.0138
1873.00,0.0138
1872.00,0.0139
1871.00,0.0139
1870.00,0.0139
1869.00,0.0136
1868.00,0.0133
1867.00,0.0132
1866.00,0.0132
1865.00,0.0133
1864.00,0.0133
1863.00,0.0132
1862.00,0.0132
1861.00,0.0131
1860.00,0.0131
1859.00,0.0130
1858.00,0.0130
1857.00,0.0130
1856.00,0.0130
1855.00,0.0129
1854.00,0.0128
1853.00,0.0128
1852.00,0.0128
1851.00,0.0128
1850.00,0.0128
1849.00,0.0128
1848.00,0.0128
1847.00,0.0128
1846.00,0.0128
1845.00,0.0126
1844.00,0.0122
1843.00,0.0120
1842.00,0.0120
1841.00,0.0122
1840.00,0.0123
1839.00,0.0122
1838.00,0.0121
1837.00,0.0121
1836.00,0.0120
1835.00,0.0120
1834.00,0.0120
1833.00,0.0122
1832.00,0.0123
1831.00,0.0122
1830.00,0.0118
1829.00,0.0115
1828.00,0.0115
1827.00,0.0116
1826.00,0.0116
1825.00,0.0114
1824.00,0.0113
1823.00,0.0113
1822.00,0.0114
1821.00,0.0115
1820.00,0.0115
1819.00,0.0114
1818.00,0.0113
1817.00,0.0112
1816.00,0.0111
1815.00,0.0111
1814.00,0.0111
1813.00,0.0111
1812.00,0.0111
1811.00,0.0110
1810.00,0.0109
1809.00,0.0109
1808.00,0.0110
1807.00,0.0110
1806.00,0.0110
1805.00,0.0111
1804.00,0.0112
1803.00,0.0112
1802.00,0.0112
1801.00,0.0111
1800.00,0.0111
1799.00,0.0111
1798.00,0.0112
1797.00,0.0113
1796.00,0.0115
1795.00,0.0116
1794.00,0.0117
1793.00,0.0117
1792.00,0.0115
1791.00,0.0112
1790.00,0.0112
1789.00,0.0115
1788.00,0.0117
1787.00,0.0120
1786.00,0.0121
1785.00,0.0122
1784.00,0.0123
1783.00,0.0124
1782.00,0.0125
1781.00,0.0126
1780.00,0.0126
1779.00,0.0127
1778.00,0.0130
1777.00,0.0132
1776.00,0.0135
1775.00,0.0138
1774.00,0.0140
1773.00,0.0140
1772.00,0.0139
1771.00,0.0139
1770.00,0.0141
1769.00,0.0143
1768.00,0.0145
1767.00,0.0145
1766.00,0.0147
1765.00,0.0149
1764.00,0.0152
1763.00,0.0153
1762.00,0.0152
1761.00,0.0151
1760.00,0.0153
1759.00,0.0155
1758.00,0.0157
1757.00,0.0157
1756.00,0.0157
1755.00,0.0159
1754.00,0.0162
1753.00,0.0165
1752.00,0.0168
1751.00,0.0169
1750.00,0.0170
1749.00,0.0170
1748.00,0.0170
1747.00,0.0172
1746.00,0.0174
1745.00,0.0176
1744.00,0.0178
1743.00,0.0179
1742.00,0.0181
1741.00,0.0184
1740.00,0.0186
1739.00,0.0187
1738.00,0.0190
1737.00,0.0194
1736.00,0.0199
1735.00,0.0203
1734.00,0.0206
1733.00,0.0206
1732.00,0.0209
1731.00,0.0212
1730.00,0.0214
1729.00,0.0216
1728.00,0.0218
1727.00,0.0222
1726.00,0.0226
1725.00,0.0229
1724.00,0.0232
1723.00,0.0235
1722.00,0.0237
1721.00,0.0239
1720.00,0.0241
1719.00,0.0243
1718.00,0.0246
1717.00,0.0249
1716.00,0.0250
1715.00,0.0251
1714.00,0.0252
1713.00,0.0254
1712.00,0.0256
1711.00,0.0258
1710.00,0.0260
1709.00,0.0261
1708.00,0.0263
1707.00,0.0264
1706.00,0.0265
1705.00,0.0265
1704.00,0.0266
1703.00,0.0268
1702.00,0.0270
1701.00,0.0271
1700.00,0.0271
1699.00,0.0271
1698.00,0.0275
1697.00,0.0279
1696.00,0.0278
1695.00,0.0274
1694.00,0.0273
1693.00,0.0275
1692.00,0.0276
1691.00,0.0276
1690.00,0.0277
1689.00,0.0277
1688.00,0.0277
1687.00,0.0278
1686.00,0.0279
1685.00,0.0280
1684.00,0.0278
1683.00,0.0275
1682.00,0.0277
1681.00,0.0280
1680.00,0.0282
1679.00,0.0283
1678.00,0.0284
1677.00,0.0284
1676.00,0.0285
1675.00,0.0285
1674.00,0.0286
1673.00,0.0288
1672.00,0.0289
1671.00,0.0291
1670.00,0.0292
1669.00,0.0292
1668.00,0.0293
1667.00,0.0295
1666.00,0.0297
1665.00,0.0299
1664.00,0.0300
1663.00,0.0301
1662.00,0.0302
1661.00,0.0304
1660.00,0.0306
1659.00,0.0309
1658.00,0.0310
1657.00,0.0311
1656.00,0.0311
1655.00,0.0313
1654.00,0.0318
1653.00,0.0323
1652.00,0.0323
1651.00,0.0325
1650.00,0.0328
1649.00,0.0329
1648.00,0.0330
1647.00,0.0333
1646.00,0.0335
1645.00,0.0337
1644.00,0.0341
1643.00,0.0344
1642.00,0.0346
1641.00,0.0347
1640.00,0.0348
1639.00,0.0350
1638.00,0.0351
1637.00,0.0355
1636.00,0.0359
1635.00,0.0361
1634.00,0.0364
1633.00,0.0367
1632.00,0.0371
1631.00,0.0373
1630.00,0.0374
1629.00,0.0377
1628.00,0.0379
1627.00,0.0382
1626.00,0.0385
1625.00,0.0388
1624.00,0.0391
1623.00,0.0395
1622.00,0.0398
1621.00,0.0399
1620.00,0.0401
1619.00,0.0403
1618.00,0.0407
1617.00,0.0412
1616.00,0.0415
1615.00,0.0417
1614.00,0.0418
1613.00,0.0419
1612.00,0.0420
1611.00,0.0423
1610.00,0.0426
1609.00,0.0429
1608.00,0.0431
1607.00,0.0434
1606.00,0.0436
1605.00,0.0437
1604.00,0.0439
1603.00,0.0441
1602.00,0.0442
1601.00,0.0444
1600.00,0.0446
1599.00,0.0448
1598.00,0.0450
1597.00,0.0451
1596.00,0.0453
1595.00,0.0454
1594.00,0.0455
1593.00,0.0456
1592.00,0.0458
1591.00,0.0459
1590.00,0.0461
1589.00,0.0462
1588.00,0.0463
1587.00,0.0465
1586.00,0.0465
1585.00,0.0466
1584.00,0.0467
1583.00,0.0468
1582.00,0.0470
1581.00,0.0470
1580.00,0.0470
1579.00,0.0469
1578.00,0.0470
1577.00,0.0473
1576.00,0.0477
1575.00,0.0478
1574.00,0.0477
1573.00,0.0475
1572.00,0.0473
1571.00,0.0473
1570.00,0.0474
1569.00,0.0475
1568.00,0.0475
1567.00,0.0476
1566.00,0.0476
1565.00,0.0475
1564.00,0.0474
1563.00,0.0472
1562.00,0.0469
1561.00,0.0465
1560.00,0.0466
1559.00,0.0474
1558.00,0.0474
1557.00,0.0472
1556.00,0.0472
1555.00,0.0471
1554.00,0.0468
1553.00,0.0466
1552.00,0.0465
1551.00,0.0464
1550.00,0.0462
1549.00,0.0460
1548.00,0.0457
1547.00,0.0455
1546.00,0.0453
1545.00,0.0451
1544.00,0.0449
1543.00,0.0446
1542.00,0.0443
1541.00,0.0442
1540.00,0.0440
1539.00,0.0436
1538.00,0.0434
1537.00,0.0433
1536.00,0.0431
1535.00,0.0428
1534.00,0.0426
1533.00,0.0425
1532.00,0.0423
1531.00,0.0422
1530.00,0.0421
1529.00,0.0419
1528.00,0.0418
1527.00,0.0416
1526.00,0.0413
1525.00,0.0411
1524.00,0.0409
1523.00,0.0408
1522.00,0.0406
1521.00,0.0404
1520.00,0.0401
1519.00,0.0399
1518.00,0.0396
1517.00,0.0394
1516.00,0.0392
1515.00,0.0390
1514.00,0.0389
1513.00,0.0388
1512.00,0.0387
1511.00,0.0386
1510.00,0.0384
1509.00,0.0383
1508.00,0.0384
1507.00,0.0382
1506.00,0.0375
1505.00,0.0372
1504.00,0.0372
1503.00,0.0372
1502.00,0.0371
1501.00,0.0369
1500.00,0.0367
1499.00,0.0365
1498.00,0.0364
1497.00,0.0364
1496.00,0.0365
1495.00,0.0365
1494.00,0.0366
1493.00,0.0367
1492.00,0.0367
1491.00,0.0368
1490.00,0.0368
1489.00,0.0367
1488.00,0.0365
1487.00,0.0364
1486.00,0.0364
1485.00,0.0365
1484.00,0.0365
1483.00,0.0366
1482.00,0.0366
1481.00,0.0367
1480.00,0.0367
1479.00,0.0367
1478.00,0.0366
1477.00,0.0367
1476.00,0.0367
1475.00,0.0369
1474.00,0.0371
1473.00,0.0373
1472.00,0.0373
1471.00,0.0372
1470.00,0.0372
1469.00,0.0372
1468.00,0.0372
1467.00,0.0371
1466.00,0.0371
1465.00,0.0373
1464.00,0.0374
1463.00,0.0375
1462.00,0.0376
1461.00,0.0376
1460.00,0.0376
1459.00,0.0378
1458.00,0.0381
1457.00,0.0385
1456.00,0.0386
1455.00,0.0387
1454.00,0.0387
1453.00,0.0388
1452.00,0.0388
1451.00,0.0390
1450.00,0.0391
1449.00,0.0393
1448.00,0.0396
1447.00,0.0397
1446.00,0.0398
1445.00,0.0398
1444.00,0.0399
1443.00,0.0400
1442.00,0.0401
1441.00,0.0402
1440.00,0.0403
1439.00,0.0405
1438.00,0.0406
1437.00,0.0409
1436.00,0.0411
1435.00,0.0412
1434.00,0.0413
1433.00,0.0413
1432.00,0.0414
1431.00,0.0415
1430.00,0.0416
1429.00,0.0417
1428.00,0.0418
1427.00,0.0419
1426.00,0.0420
1425.00,0.0421
1424.00,0.0422
1423.00,0.0422
1422.00,0.0422
1421.00,0.0423
1420.00,0.0425
1419.00,0.0427
1418.00,0.0429
1417.00,0.0429
1416.00,0.0430
1415.00,0.0430
1414.00,0.0430
1413.00,0.0430
1412.00,0.0431
1411.00,0.0432
1410.00,0.0432
1409.00,0.0433
1408.00,0.0433
1407.00,0.0434
1406.00,0.0434
1405.00,0.0435
1404.00,0.0437
1403.00,0.0438
1402.00,0.0438
1401.00,0.0439
1400.00,0.0440
1399.00,0.0442
1398.00,0.0444
1397.00,0.0445
1396.00,0.0446
1395.00,0.0447
1394.00,0.0447
1393.00,0.0447
1392.00,0.0448
1391.00,0.0449
1390.00,0.0450
1389.00,0.0451
1388.00,0.0453
1387.00,0.0454
1386.00,0.0455
1385.00,0.0455
1384.00,0.0455
1383.00,0.0456
1382.00,0.0456
1381.00,0.0457
1380.00,0.0458
1379.00,0.0458
1378.00,0.0458
1377.00,0.0458
1376.00,0.0459
1375.00,0.0460
1374.00,0.0461
1373.00,0.0461
1372.00,0.0461
1371.00,0.0462
1370.00,0.0462
1369.00,0.0462
1368.00,0.0462
1367.00,0.0462
1366.00,0.0462
1365.00,0.0462
1364.00,0.0462
1363.00,0.0463
1362.00,0.0462
1361.00,0.0462
1360.00,0.0461
1359.00,0.0460
1358.00,0.0459
1357.00,0.0459
1356.00,0.0459
1355.00,0.0458
1354.00,0.0458
1353.00,0.0457
1352.00,0.0456
1351.00,0.0456
1350.00,0.0455
1349.00,0.0455
1348.00,0.0454
1347.00,0.0453
1346.00,0.0452
1345.00,0.0451
1344.00,0.0451
1343.00,0.0450
1342.00,0.0450
1341.00,0.0450
1340.00,0.0451
1339.00,0.0450
1338.00,0.0449
1337.00,0.0448
1336.00,0.0447
1335.00,0.0446
1334.00,0.0445
1333.00,0.0444
1332.00,0.0444
1331.00,0.0443
1330.00,0.0442
1329.00,0.0442
1328.00,0.0441
1327.00,0.0440
1326.00,0.0439
1325.00,0.0439
1324.00,0.0438
1323.00,0.0438
1322.00,0.0438
1321.00,0.0438
1320.00,0.0439
1319.00,0.0439
1318.00,0.0439
1317.00,0.0439
1316.00,0.0438
1315.00,0.0438
1314.00,0.0438
1313.00,0.0437
1312.00,0.0437
1311.00,0.0436
1310.00,0.0436
1309.00,0.0436
1308.00,0.0436
1307.00,0.0436
1306.00,0.0436
1305.00,0.0436
1304.00,0.0436
1303.00,0.0436
1302.00,0.0436
1301.00,0.0436
1300.00,0.0437
1299.00,0.0437
1298.00,0.0438
1297.00,0.0439
1296.00,0.0439
1295.00,0.0440
1294.00,0.0439
1293.00,0.0440
1292.00,0.0440
1291.00,0.0441
1290.00,0.0441
1289.00,0.0442
1288.00,0.0442
1287.00,0.0442
1286.00,0.0442
1285.00,0.0442
1284.00,0.0442
1283.00,0.0443
1282.00,0.0443
1281.00,0.0444
1280.00,0.0445
1279.00,0.0445
1278.00,0.0445
1277.00,0.0445
1276.00,0.0445
1275.00,0.0446
1274.00,0.0446
1273.00,0.0446
1272.00,0.0447
1271.00,0.0447
1270.00,0.0448
1269.00,0.0448
1268.00,0.0448
1267.00,0.0448
1266.00,0.0448
1265.00,0.0448
1264.00,0.0448
1263.00,0.0448
1262.00,0.0449
1261.00,0.0449
1260.00,0.0450
1259.00,0.0450
1258.00,0.0450
1257.00,0.0450
1256.00,0.0450
1255.00,0.0450
1254.00,0.0450
1253.00,0.0449
1252.00,0.0449
1251.00,0.0449
1250.00,0.0449
1249.00,0.0450
1248.00,0.0450
1247.00,0.0450
1246.00,0.0450
1245.00,0.0450
1244.00,0.0450
1243.00,0.0450
1242.00,0.0450
1241.00,0.0450
1240.00,0.0450
1239.00,0.0450
1238.00,0.0450
1237.00,0.0450
1236.00,0.0450
1235.00,0.0450
1234.00,0.0450
1233.00,0.0450
1232.00,0.0450
1231.00,0.0449
1230.00,0.0449
1229.00,0.0449
1228.00,0.0449
1227.00,0.0448
1226.00,0.0448
1225.00,0.0448
1224.00,0.0448
1223.00,0.0448
1222.00,0.0448
1221.00,0.0447
1220.00,0.0446
1219.00,0.0445
1218.00,0.0444
1217.00,0.0443
1216.00,0.0442
1215.00,0.0442
1214.00,0.0442
1213.00,0.0442
1212.00,0.0442
1211.00,0.0442
1210.00,0.0441
1209.00,0.0440
1208.00,0.0439
1207.00,0.0439
1206.00,0.0438
1205.00,0.0438
1204.00,0.0437
1203.00,0.0437
1202.00,0.0436
1201.00,0.0436
1200.00,0.0436
1199.00,0.0435
1198.00,0.0435
1197.00,0.0434
1196.00,0.0433
1195.00,0.0433
1194.00,0.0432
1193.00,0.0432
1192.00,0.0431
1191.00,0.0431
1190.00,0.0430
1189.00,0.0429
1188.00,0.0428
1187.00,0.0428
1186.00,0.0427
1185.00,0.0427
1184.00,0.0427
1183.00,0.0427
1182.00,0.0427
1181.00,0.0426
1180.00,0.0425
1179.00,0.0424
1178.00,0.0424
1177.00,0.0423
1176.00,0.0423
1175.00,0.0422
1174.00,0.0421
1173.00,0.0419
1172.00,0.0418
1171.00,0.0417
1170.00,0.0417
1169.00,0.0416
1168.00,0.0416
1167.00,0.0416
1166.00,0.0416
1165.00,0.0415
1164.00,0.0414
1163.00,0.0414
1162.00,0.0413
1161.00,0.0412
1160.00,0.0411
1159.00,0.0411
1158.00,0.0410
1157.00,0.0410
1156.00,0.0410
1155.00,0.0409
1154.00,0.0408
1153.00,0.0407
1152.00,0.0405
1151.00,0.0405
1150.00,0.0405
1149.00,0.0405
1148.00,0.0405
1147.00,0.0405
1146.00,0.0405
1145.00,0.0405
1144.00,0.0405
1143.00,0.0405
1142.00,0.0404
1141.00,0.0403
1140.00,0.0402
1139.00,0.0401
1138.00,0.0401
1137.00,0.0400
1136.00,0.0400
1135.00,0.0401
1134.00,0.0401
1133.00,0.0401
1132.00,0.0401
1131.00,0.0400
1130.00,0.0399
1129.00,0.0398
1128.00,0.0397
1127.00,0.0397
1126.00,0.0396
1125.00,0.0396
1124.00,0.0396
1123.00,0.0396
1122.00,0.0397
1121.00,0.0397
1120.00,0.0398
1119.00,0.0397
1118.00,0.0397
1117.00,0.0397
1116.00,0.0397
1115.00,0.0397
1114.00,0.0396
1113.00,0.0395
1112.00,0.0395
1111.00,0.0395
1110.00,0.0395
1109.00,0.0395
1108.00,0.0395
1107.00,0.0395
1106.00,0.0395
1105.00,0.0394
1104.00,0.0393
1103.00,0.0393
1102.00,0.0393
1101.00,0.0393
1100.00,0.0393
1099.00,0.0393
1098.00,0.0393
1097.00,0.0393
1096.00,0.0393
1095.00,0.0394
1094.00,0.0394
1093.00,0.0393
1092.00,0.0393
1091.00,0.0393
1090.00,0.0392
1089.00,0.0393
1088.00,0.0393
1087.00,0.0393
1086.00,0.0393
1085.00,0.0392
1084.00,0.0392
1083.00,0.0392
1082.00,0.0392
1081.00,0.0392
1080.00,0.0393
1079.00,0.0393
1078.00,0.0393
1077.00,0.0393
1076.00,0.0393
1075.00,0.0394
1074.00,0.0394
1073.00,0.0394
1072.00,0.0393
1071.00,0.0393
1070.00,0.0394
1069.00,0.0394
1068.00,0.0395
1067.00,0.0395
1066.00,0.0395
1065.00,0.0396
1064.00,0.0397
1063.00,0.0398
1062.00,0.0398
1061.00,0.0399
1060.00,0.0399
1059.00,0.0399
1058.00,0.0399
1057.00,0.0398
1056.00,0.0399
1055.00,0.0399
1054.00,0.0399
1053.00,0.0399
1052.00,0.0400
1051.00,0.0401
1050.00,0.0402
1049.00,0.0403
1048.00,0.0403
1047.00,0.0403
1046.00,0.0403
1045.00,0.0403
1044.00,0.0402
1043.00,0.0403
1042.00,0.0403
1041.00,0.0404
1040.00,0.0404
1039.00,0.0404
1038.00,0.0404
1037.00,0.0404
1036.00,0.0403
1035.00,0.0403
1034.00,0.0403
1033.00,0.0402
1032.00,0.0402
1031.00,0.0402
1030.00,0.0402
1029.00,0.0403
1028.00,0.0403
1027.00,0.0402
1026.00,0.0402
1025.00,0.0401
1024.00,0.0400
1023.00,0.0400
1022.00,0.0400
1021.00,0.0399
1020.00,0.0399
1019.00,0.0399
1018.00,0.0399
1017.00,0.0399
1016.00,0.0400
1015.00,0.0400
1014.00,0.0400
1013.00,0.0400
1012.00,0.0400
1011.00,0.0400
1010.00,0.0399
1009.00,0.0399
1008.00,0.0399
1007.00,0.0398
1006.00,0.0397
1005.00,0.0396
1004.00,0.0396
1003.00,0.0396
1002.00,0.0396
1001.00,0.0396
1000.00,0.0396
999.00,0.0396
998.00,0.0396
997.00,0.0396
996.00,0.0396
995.00,0.0396
994.00,0.0396
993.00,0.0396
992.00,0.0396
991.00,0.0397
990.00,0.0396
989.00,0.0395
988.00,0.0395
987.00,0.0394
986.00,0.0394
985.00,0.0394
984.00,0.0394
983.00,0.0395
982.00,0.0395
981.00,0.0395
980.00,0.0396
979.00,0.0396
978.00,0.0396
977.00,0.0395
976.00,0.0394
975.00,0.0393
974.00,0.0393
973.00,0.0392
972.00,0.0392
971.00,0.0392
970.00,0.0393
969.00,0.0393
968.00,0.0393
967.00,0.0393
966.00,0.0393
965.00,0.0393
964.00,0.0393
963.00,0.0393
962.00,0.0394
961.00,0.0394
960.00,0.0395
959.00,0.0394
958.00,0.0394
957.00,0.0394
956.00,0.0394
955.00,0.0395
954.00,0.0396
953.00,0.0396
952.00,0.0396
951.00,0.0395
950.00,0.0395
949.00,0.0396
948.00,0.0397
947.00,0.0398
946.00,0.0399
945.00,0.0399
944.00,0.0400
943.00,0.0401
942.00,0.0401
941.00,0.0402
940.00,0.0402
939.00,0.0402
938.00,0.0403
937.00,0.0405
936.00,0.0407
935.00,0.0408
934.00,0.0409
933.00,0.0410
932.00,0.0410
931.00,0.0410
930.00,0.0410
929.00,0.0411
928.00,0.0412
927.00,0.0413
926.00,0.0414
925.00,0.0415
924.00,0.0416
923.00,0.0416
922.00,0.0417
921.00,0.0417
920.00,0.0419
919.00,0.0421
918.00,0.0423
917.00,0.0425
916.00,0.0426
915.00,0.0427
914.00,0.0427
913.00,0.0427
912.00,0.0428
911.00,0.0429
910.00,0.0430
909.00,0.0430
908.00,0.0431
907.00,0.0431
906.00,0.0431
905.00,0.0432
904.00,0.0434
903.00,0.0434
902.00,0.0435
901.00,0.0436
900.00,0.0437
899.00,0.0439
898.00,0.0441
897.00,0.0442
896.00,0.0442
895.00,0.0441
894.00,0.0440
893.00,0.0440
892.00,0.0440
891.00,0.0441
890.00,0.0441
889.00,0.0442
888.00,0.0442
887.00,0.0442
886.00,0.0443
885.00,0.0443
884.00,0.0442
883.00,0.0442
882.00,0.0441
881.00,0.0441
880.00,0.0443
879.00,0.0445
878.00,0.0446
877.00,0.0447
876.00,0.0446
875.00,0.0445
874.00,0.0444
873.00,0.0444
872.00,0.0444
871.00,0.0444
870.00,0.0444
869.00,0.0444
868.00,0.0445
867.00,0.0444
866.00,0.0444
865.00,0.0444
864.00,0.0445
863.00,0.0447
862.00,0.0448
861.00,0.0449
860.00,0.0449
859.00,0.0449
858.00,0.0449
857.00,0.0448
856.00,0.0448
855.00,0.0448
854.00,0.0449
853.00,0.0450
852.00,0.0451
851.00,0.0450
850.00,0.0450
849.00,0.0450
848.00,0.0451
847.00,0.0452
846.00,0.0453
845.00,0.0455
844.00,0.0458
843.00,0.0461
842.00,0.0463
841.00,0.0464
840.00,0.0464
839.00,0.0464
838.00,0.0464
837.00,0.0464
836.00,0.0465
835.00,0.0466
834.00,0.0466
833.00,0.0467
832.00,0.0468
831.00,0.0470
830.00,0.0473
829.00,0.0475
828.00,0.0477
827.00,0.0477
826.00,0.0477
825.00,0.0477
824.00,0.0478
823.00,0.0480
822.00,0.0483
821.00,0.0486
820.00,0.0487
819.00,0.0487
818.00,0.0487
817.00,0.0487
816.00,0.0489
815.00,0.0491
814.00,0.0493
813.00,0.0495
812.00,0.0496
811.00,0.0496
810.00,0.0495
809.00,0.0495
808.00,0.0497
807.00,0.0499
806.00,0.0500
805.00,0.0501
804.00,0.0502
803.00,0.0502
802.00,0.0502
801.00,0.0502
800.00,0.0502
799.00,0.0502
798.00,0.0504
797.00,0.0507
796.00,0.0509
795.00,0.0509
794.00,0.0509
793.00,0.0508
792.00,0.0508
791.00,0.0509
790.00,0.0510
789.00,0.0510
788.00,0.0511
787.00,0.0511
786.00,0.0511
785.00,0.0511
784.00,0.0511
783.00,0.0511
782.00,0.0512
781.00,0.0514
780.00,0.0517
779.00,0.0519
778.00,0.0521
777.00,0.0521
776.00,0.0522
775.00,0.0522
774.00,0.0523
773.00,0.0523
772.00,0.0522
771.00,0.0521
770.00,0.0522
769.00,0.0523
768.00,0.0525
767.00,0.0527
766.00,0.0528
765.00,0.0529
764.00,0.0528
763.00,0.0528
762.00,0.0528
761.00,0.0530
760.00,0.0531
759.00,0.0532
758.00,0.0532
757.00,0.0533
756.00,0.0534
755.00,0.0534
754.00,0.0533
753.00,0.0532
752.00,0.0531
751.00,0.0532
750.00,0.0533
749.00,0.0534
748.00,0.0536
747.00,0.0536
746.00,0.0537
745.00,0.0537
744.00,0.0537
743.00,0.0536
742.00,0.0536
741.00,0.0536
740.00,0.0536
739.00,0.0537
738.00,0.0539
737.00,0.0541
736.00,0.0543
735.00,0.0545
734.00,0.0545
733.00,0.0546
732.00,0.0547
731.00,0.0548
730.00,0.0549
729.00,0.0550
728.00,0.0550
727.00,0.0550
726.00,0.0550
725.00,0.0549
724.00,0.0549
723.00,0.0550
722.00,0.0552
721.00,0.0554
720.00,0.0555
719.00,0.0556
718.00,0.0558
717.00,0.0560
716.00,0.0563
715.00,0.0564
714.00,0.0564
713.00,0.0563
712.00,0.0564
711.00,0.0566
710.00,0.0569
709.00,0.0571
708.00,0.0573
707.00,0.0575
706.00,0.0576
705.00,0.0577
704.00,0.0577
703.00,0.0577
702.00,0.0577
701.00,0.0578
700.00,0.0580
699.00,0.0581
698.00,0.0582
697.00,0.0582
696.00,0.0583
695.00,0.0584
694.00,0.0586
693.00,0.0587
692.00,0.0588
691.00,0.0589
690.00,0.0591
689.00,0.0593
688.00,0.0596
687.00,0.0598
686.00,0.0600
685.00,0.0603
684.00,0.0606
683.00,0.0607
682.00,0.0608
681.00,0.0609
680.00,0.0612
679.00,0.0614
678.00,0.0615
677.00,0.0615
676.00,0.0617
675.00,0.0619
674.00,0.0623
673.00,0.0627
672.00,0.0631
671.00,0.0633
670.00,0.0635
669.00,0.0641
668.00,0.0652
667.00,0.0656
666.00,0.0649
665.00,0.0639
664.00,0.0635
663.00,0.0636
662.00,0.0639
661.00,0.0641
660.00,0.0641
659.00,0.0641
658.00,0.0640
657.00,0.0642
656.00,0.0645
655.00,0.0648
654.00,0.0652
653.00,0.0655
652.00,0.0659
651.00,0.0661
650.00,0.0664
