Created as New Dataset,Monday, April 03 2023
cm-1,A
4000.00,0.0194
3999.00,0.0194
3998.00,0.0194
3997.00,0.0194
3996.00,0.0193
3995.00,0.0193
3994.00,0.0193
3993.00,0.0193
3992.00,0.0193
3991.00,0.0193
3990.00,0.0193
3989.00,0.0192
3988.00,0.0192
3987.00,0.0192
3986.00,0.0192
3985.00,0.0192
3984.00,0.0192
3983.00,0.0192
3982.00,0.0192
3981.00,0.0192
3980.00,0.0192
3979.00,0.0192
3978.00,0.0192
3977.00,0.0191
3976.00,0.0191
3975.00,0.0191
3974.00,0.0191
3973.00,0.0191
3972.00,0.0192
3971.00,0.0192
3970.00,0.0193
3969.00,0.0193
3968.00,0.0192
3967.00,0.0191
3966.00,0.0191
3965.00,0.0190
3964.00,0.0191
3963.00,0.0191
3962.00,0.0192
3961.00,0.0191
3960.00,0.0191
3959.00,0.0190
3958.00,0.0190
3957.00,0.0190
3956.00,0.0189
3955.00,0.0189
3954.00,0.0188
3953.00,0.0188
3952.00,0.0188
3951.00,0.0189
3950.00,0.0190
3949.00,0.0190
3948.00,0.0191
3947.00,0.0191
3946.00,0.0191
3945.00,0.0190
3944.00,0.0189
3943.00,0.0187
3942.00,0.0187
3941.00,0.0187
3940.00,0.0188
3939.00,0.0189
3938.00,0.0189
3937.00,0.0189
3936.00,0.0189
3935.00,0.0189
3934.00,0.0188
3933.00,0.0188
3932.00,0.0188
3931.00,0.0188
3930.00,0.0188
3929.00,0.0188
3928.00,0.0189
3927.00,0.0189
3926.00,0.0189
3925.00,0.0188
3924.00,0.0188
3923.00,0.0188
3922.00,0.0188
3921.00,0.0188
3920.00,0.0188
3919.00,0.0188
3918.00,0.0188
3917.00,0.0189
3916.00,0.0189
3915.00,0.0189
3914.00,0.0188
3913.00,0.0188
3912.00,0.0188
3911.00,0.0187
3910.00,0.0187
3909.00,0.0187
3908.00,0.0187
3907.00,0.0186
3906.00,0.0186
3905.00,0.0186
3904.00,0.0186
3903.00,0.0187
3902.00,0.0188
3901.00,0.0190
3900.00,0.0189
3899.00,0.0188
3898.00,0.0187
3897.00,0.0187
3896.00,0.0187
3895.00,0.0187
3894.00,0.0187
3893.00,0.0187
3892.00,0.0186
3891.00,0.0185
3890.00,0.0184
3889.00,0.0185
3888.00,0.0186
3887.00,0.0186
3886.00,0.0185
3885.00,0.0184
3884.00,0.0184
3883.00,0.0185
3882.00,0.0185
3881.00,0.0183
3880.00,0.0181
3879.00,0.0182
3878.00,0.0184
3877.00,0.0187
3876.00,0.0188
3875.00,0.0186
3874.00,0.0184
3873.00,0.0183
3872.00,0.0184
3871.00,0.0185
3870.00,0.0185
3869.00,0.0184
3868.00,0.0185
3867.00,0.0186
3866.00,0.0187
3865.00,0.0186
3864.00,0.0186
3863.00,0.0186
3862.00,0.0186
3861.00,0.0186
3860.00,0.0186
3859.00,0.0185
3858.00,0.0183
3857.00,0.0180
3856.00,0.0179
3855.00,0.0180
3854.00,0.0183
3853.00,0.0183
3852.00,0.0182
3851.00,0.0183
3850.00,0.0183
3849.00,0.0183
3848.00,0.0182
3847.00,0.0182
3846.00,0.0182
3845.00,0.0182
3844.00,0.0182
3843.00,0.0182
3842.00,0.0182
3841.00,0.0183
3840.00,0.0185
3839.00,0.0185
3838.00,0.0184
3837.00,0.0183
3836.00,0.0182
3835.00,0.0183
3834.00,0.0183
3833.00,0.0184
3832.00,0.0183
3831.00,0.0183
3830.00,0.0184
3829.00,0.0184
3828.00,0.0184
3827.00,0.0182
3826.00,0.0181
3825.00,0.0181
3824.00,0.0183
3823.00,0.0185
3822.00,0.0185
3821.00,0.0183
3820.00,0.0181
3819.00,0.0182
3818.00,0.0183
3817.00,0.0183
3816.00,0.0182
3815.00,0.0182
3814.00,0.0183
3813.00,0.0184
3812.00,0.0184
3811.00,0.0182
3810.00,0.0181
3809.00,0.0181
3808.00,0.0182
3807.00,0.0182
3806.00,0.0182
3805.00,0.0183
3804.00,0.0185
3803.00,0.0186
3802.00,0.0185
3801.00,0.0182
3800.00,0.0181
3799.00,0.0182
3798.00,0.0182
3797.00,0.0181
3796.00,0.0180
3795.00,0.0180
3794.00,0.0181
3793.00,0.0182
3792.00,0.0182
3791.00,0.0181
3790.00,0.0181
3789.00,0.0182
3788.00,0.0182
3787.00,0.0182
3786.00,0.0182
3785.00,0.0182
3784.00,0.0182
3783.00,0.0182
3782.00,0.0182
3781.00,0.0182
3780.00,0.0181
3779.00,0.0180
3778.00,0.0179
3777.00,0.0180
3776.00,0.0181
3775.00,0.0181
3774.00,0.0180
3773.00,0.0180
3772.00,0.0180
3771.00,0.0180
3770.00,0.0179
3769.00,0.0178
3768.00,0.0178
3767.00,0.0179
3766.00,0.0179
3765.00,0.0179
3764.00,0.0179
3763.00,0.0180
3762.00,0.0181
3761.00,0.0181
3760.00,0.0180
3759.00,0.0179
3758.00,0.0178
3757.00,0.0177
3756.00,0.0177
3755.00,0.0176
3754.00,0.0176
3753.00,0.0176
3752.00,0.0178
3751.00,0.0180
3750.00,0.0181
3749.00,0.0180
3748.00,0.0181
3747.00,0.0183
3746.00,0.0183
3745.00,0.0182
3744.00,0.0179
3743.00,0.0178
3742.00,0.0179
3741.00,0.0181
3740.00,0.0180
3739.00,0.0180
3738.00,0.0180
3737.00,0.0180
3736.00,0.0179
3735.00,0.0178
3734.00,0.0177
3733.00,0.0176
3732.00,0.0176
3731.00,0.0176
3730.00,0.0177
3729.00,0.0178
3728.00,0.0178
3727.00,0.0178
3726.00,0.0177
3725.00,0.0177
3724.00,0.0177
3723.00,0.0177
3722.00,0.0177
3721.00,0.0177
3720.00,0.0178
3719.00,0.0179
3718.00,0.0179
3717.00,0.0178
3716.00,0.0179
3715.00,0.0179
3714.00,0.0181
3713.00,0.0183
3712.00,0.0185
3711.00,0.0186
3710.00,0.0185
3709.00,0.0185
3708.00,0.0186
3707.00,0.0188
3706.00,0.0191
3705.00,0.0193
3704.00,0.0194
3703.00,0.0194
3702.00,0.0195
3701.00,0.0195
3700.00,0.0197
3699.00,0.0199
3698.00,0.0200
3697.00,0.0200
3696.00,0.0199
3695.00,0.0198
3694.00,0.0197
3693.00,0.0196
3692.00,0.0197
3691.00,0.0199
3690.00,0.0201
3689.00,0.0201
3688.00,0.0199
3687.00,0.0197
3686.00,0.0196
3685.00,0.0195
3684.00,0.0194
3683.00,0.0192
3682.00,0.0191
3681.00,0.0190
3680.00,0.0187
3679.00,0.0185
3678.00,0.0184
3677.00,0.0184
3676.00,0.0184
3675.00,0.0183
3674.00,0.0183
3673.00,0.0185
3672.00,0.0188
3671.00,0.0189
3670.00,0.0190
3669.00,0.0190
3668.00,0.0190
3667.00,0.0191
3666.00,0.0192
3665.00,0.0192
3664.00,0.0192
3663.00,0.0192
3662.00,0.0193
3661.00,0.0194
3660.00,0.0196
3659.00,0.0197
3658.00,0.0200
3657.00,0.0201
3656.00,0.0202
3655.00,0.0202
3654.00,0.0203
3653.00,0.0203
3652.00,0.0203
3651.00,0.0203
3650.00,0.0205
3649.00,0.0206
3648.00,0.0206
3647.00,0.0205
3646.00,0.0206
3645.00,0.0207
3644.00,0.0208
3643.00,0.0208
3642.00,0.0208
3641.00,0.0208
3640.00,0.0209
3639.00,0.0209
3638.00,0.0209
3637.00,0.0209
3636.00,0.0210
3635.00,0.0210
3634.00,0.0210
3633.00,0.0209
3632.00,0.0209
3631.00,0.0211
3630.00,0.0214
3629.00,0.0217
3628.00,0.0219
3627.00,0.0220
3626.00,0.0221
3625.00,0.0222
3624.00,0.0223
3623.00,0.0223
3622.00,0.0225
3621.00,0.0227
3620.00,0.0229
3619.00,0.0229
3618.00,0.0228
3617.00,0.0227
3616.00,0.0227
3615.00,0.0226
3614.00,0.0225
3613.00,0.0224
3612.00,0.0224
3611.00,0.0226
3610.00,0.0227
3609.00,0.0229
3608.00,0.0229
3607.00,0.0229
3606.00,0.0229
3605.00,0.0229
3604.00,0.0228
3603.00,0.0228
3602.00,0.0229
3601.00,0.0230
3600.00,0.0230
3599.00,0.0230
3598.00,0.0229
3597.00,0.0229
3596.00,0.0229
3595.00,0.0229
3594.00,0.0229
3593.00,0.0229
3592.00,0.0229
3591.00,0.0229
3590.00,0.0230
3589.00,0.0231
3588.00,0.0232
3587.00,0.0233
3586.00,0.0234
3585.00,0.0235
3584.00,0.0236
3583.00,0.0236
3582.00,0.0236
3581.00,0.0235
3580.00,0.0235
3579.00,0.0236
3578.00,0.0236
3577.00,0.0237
3576.00,0.0238
3575.00,0.0238
3574.00,0.0239
3573.00,0.0239
3572.00,0.0238
3571.00,0.0238
3570.00,0.0237
3569.00,0.0239
3568.00,0.0241
3567.00,0.0243
3566.00,0.0244
3565.00,0.0244
3564.00,0.0243
3563.00,0.0243
3562.00,0.0243
3561.00,0.0244
3560.00,0.0245
3559.00,0.0246
3558.00,0.0246
3557.00,0.0247
3556.00,0.0248
3555.00,0.0248
3554.00,0.0249
3553.00,0.0249
3552.00,0.0250
3551.00,0.0251
3550.00,0.0252
3549.00,0.0252
3548.00,0.0252
3547.00,0.0253
3546.00,0.0254
3545.00,0.0254
3544.00,0.0255
3543.00,0.0255
3542.00,0.0255
3541.00,0.0255
3540.00,0.0255
3539.00,0.0255
3538.00,0.0254
3537.00,0.0254
3536.00,0.0254
3535.00,0.0255
3534.00,0.0257
3533.00,0.0258
3532.00,0.0259
3531.00,0.0259
3530.00,0.0259
3529.00,0.0258
3528.00,0.0258
3527.00,0.0258
3526.00,0.0260
3525.00,0.0262
3524.00,0.0264
3523.00,0.0265
3522.00,0.0265
3521.00,0.0264
3520.00,0.0263
3519.00,0.0262
3518.00,0.0262
3517.00,0.0261
3516.00,0.0262
3515.00,0.0262
3514.00,0.0263
3513.00,0.0265
3512.00,0.0266
3511.00,0.0267
3510.00,0.0267
3509.00,0.0267
3508.00,0.0267
3507.00,0.0267
3506.00,0.0267
3505.00,0.0268
3504.00,0.0269
3503.00,0.0270
3502.00,0.0270
3501.00,0.0271
3500.00,0.0271
3499.00,0.0271
3498.00,0.0272
3497.00,0.0273
3496.00,0.0273
3495.00,0.0273
3494.00,0.0273
3493.00,0.0273
3492.00,0.0273
3491.00,0.0273
3490.00,0.0273
3489.00,0.0273
3488.00,0.0274
3487.00,0.0274
3486.00,0.0274
3485.00,0.0274
3484.00,0.0275
3483.00,0.0275
3482.00,0.0276
3481.00,0.0276
3480.00,0.0277
3479.00,0.0277
3478.00,0.0278
3477.00,0.0278
3476.00,0.0279
3475.00,0.0279
3474.00,0.0280
3473.00,0.0281
3472.00,0.0281
3471.00,0.0282
3470.00,0.0282
3469.00,0.0282
3468.00,0.0282
3467.00,0.0283
3466.00,0.0284
3465.00,0.0285
3464.00,0.0285
3463.00,0.0284
3462.00,0.0283
3461.00,0.0282
3460.00,0.0283
3459.00,0.0284
3458.00,0.0285
3457.00,0.0286
3456.00,0.0286
3455.00,0.0285
3454.00,0.0285
3453.00,0.0286
3452.00,0.0286
3451.00,0.0287
3450.00,0.0287
3449.00,0.0288
3448.00,0.0288
3447.00,0.0289
3446.00,0.0290
3445.00,0.0290
3444.00,0.0290
3443.00,0.0290
3442.00,0.0290
3441.00,0.0289
3440.00,0.0289
3439.00,0.0289
3438.00,0.0289
3437.00,0.0290
3436.00,0.0290
3435.00,0.0290
3434.00,0.0291
3433.00,0.0291
3432.00,0.0292
3431.00,0.0292
3430.00,0.0293
3429.00,0.0293
3428.00,0.0293
3427.00,0.0293
3426.00,0.0294
3425.00,0.0295
3424.00,0.0296
3423.00,0.0297
3422.00,0.0297
3421.00,0.0297
3420.00,0.0297
3419.00,0.0297
3418.00,0.0297
3417.00,0.0297
3416.00,0.0297
3415.00,0.0296
3414.00,0.0296
3413.00,0.0296
3412.00,0.0297
3411.00,0.0298
3410.00,0.0298
3409.00,0.0299
3408.00,0.0299
3407.00,0.0300
3406.00,0.0300
3405.00,0.0300
3404.00,0.0299
3403.00,0.0299
3402.00,0.0299
3401.00,0.0299
3400.00,0.0300
3399.00,0.0301
3398.00,0.0301
3397.00,0.0301
3396.00,0.0301
3395.00,0.0300
3394.00,0.0300
3393.00,0.0301
3392.00,0.0301
3391.00,0.0302
3390.00,0.0302
3389.00,0.0303
3388.00,0.0303
3387.00,0.0302
3386.00,0.0302
3385.00,0.0302
3384.00,0.0303
3383.00,0.0303
3382.00,0.0303
3381.00,0.0303
3380.00,0.0304
3379.00,0.0304
3378.00,0.0305
3377.00,0.0305
3376.00,0.0305
3375.00,0.0304
3374.00,0.0304
3373.00,0.0304
3372.00,0.0304
3371.00,0.0304
3370.00,0.0304
3369.00,0.0305
3368.00,0.0305
3367.00,0.0305
3366.00,0.0305
3365.00,0.0304
3364.00,0.0304
3363.00,0.0304
3362.00,0.0306
3361.00,0.0307
3360.00,0.0308
3359.00,0.0309
3358.00,0.0308
3357.00,0.0308
3356.00,0.0307
3355.00,0.0307
3354.00,0.0308
3353.00,0.0308
3352.00,0.0308
3351.00,0.0309
3350.00,0.0309
3349.00,0.0308
3348.00,0.0308
3347.00,0.0308
3346.00,0.0308
3345.00,0.0308
3344.00,0.0308
3343.00,0.0308
3342.00,0.0308
3341.00,0.0309
3340.00,0.0309
3339.00,0.0309
3338.00,0.0310
3337.00,0.0310
3336.00,0.0310
3335.00,0.0309
3334.00,0.0309
3333.00,0.0309
3332.00,0.0309
3331.00,0.0308
3330.00,0.0307
3329.00,0.0307
3328.00,0.0307
3327.00,0.0308
3326.00,0.0309
3325.00,0.0310
3324.00,0.0311
3323.00,0.0311
3322.00,0.0310
3321.00,0.0310
3320.00,0.0309
3319.00,0.0309
3318.00,0.0309
3317.00,0.0309
3316.00,0.0309
3315.00,0.0309
3314.00,0.0309
3313.00,0.0308
3312.00,0.0308
3311.00,0.0308
3310.00,0.0309
3309.00,0.0310
3308.00,0.0311
3307.00,0.0311
3306.00,0.0311
3305.00,0.0310
3304.00,0.0310
3303.00,0.0309
3302.00,0.0309
3301.00,0.0309
3300.00,0.0309
3299.00,0.0309
3298.00,0.0309
3297.00,0.0310
3296.00,0.0311
3295.00,0.0311
3294.00,0.0311
3293.00,0.0310
3292.00,0.0309
3291.00,0.0309
3290.00,0.0309
3289.00,0.0309
3288.00,0.0309
3287.00,0.0309
3286.00,0.0310
3285.00,0.0310
3284.00,0.0310
3283.00,0.0310
3282.00,0.0310
3281.00,0.0310
3280.00,0.0310
3279.00,0.0309
3278.00,0.0309
3277.00,0.0309
3276.00,0.0309
3275.00,0.0309
3274.00,0.0310
3273.00,0.0310
3272.00,0.0310
3271.00,0.0311
3270.00,0.0311
3269.00,0.0311
3268.00,0.0312
3267.00,0.0311
3266.00,0.0311
3265.00,0.0310
3264.00,0.0310
3263.00,0.0309
3262.00,0.0309
3261.00,0.0309
3260.00,0.0309
3259.00,0.0309
3258.00,0.0309
3257.00,0.0309
3256.00,0.0309
3255.00,0.0309
3254.00,0.0309
3253.00,0.0309
3252.00,0.0309
3251.00,0.0309
3250.00,0.0309
3249.00,0.0309
3248.00,0.0309
3247.00,0.0309
3246.00,0.0309
3245.00,0.0308
3244.00,0.0308
3243.00,0.0308
3242.00,0.0308
3241.00,0.0308
3240.00,0.0307
3239.00,0.0307
3238.00,0.0308
3237.00,0.0309
3236.00,0.0310
3235.00,0.0310
3234.00,0.0310
3233.00,0.0310
3232.00,0.0309
3231.00,0.0309
3230.00,0.0308
3229.00,0.0308
3228.00,0.0307
3227.00,0.0307
3226.00,0.0307
3225.00,0.0307
3224.00,0.0307
3223.00,0.0307
3222.00,0.0307
3221.00,0.0307
3220.00,0.0307
3219.00,0.0306
3218.00,0.0306
3217.00,0.0307
3216.00,0.0308
3215.00,0.0309
3214.00,0.0309
3213.00,0.0308
3212.00,0.0307
3211.00,0.0306
3210.00,0.0306
3209.00,0.0306
3208.00,0.0306
3207.00,0.0306
3206.00,0.0306
3205.00,0.0306
3204.00,0.0307
3203.00,0.0307
3202.00,0.0307
3201.00,0.0306
3200.00,0.0306
3199.00,0.0306
3198.00,0.0306
3197.00,0.0306
3196.00,0.0306
3195.00,0.0305
3194.00,0.0305
3193.00,0.0305
3192.00,0.0305
3191.00,0.0304
3190.00,0.0304
3189.00,0.0303
3188.00,0.0303
3187.00,0.0302
3186.00,0.0302
3185.00,0.0302
3184.00,0.0303
3183.00,0.0304
3182.00,0.0304
3181.00,0.0305
3180.00,0.0304
3179.00,0.0303
3178.00,0.0302
3177.00,0.0302
3176.00,0.0301
3175.00,0.0301
3174.00,0.0301
3173.00,0.0302
3172.00,0.0302
3171.00,0.0302
3170.00,0.0301
3169.00,0.0301
3168.00,0.0300
3167.00,0.0300
3166.00,0.0301
3165.00,0.0302
3164.00,0.0302
3163.00,0.0303
3162.00,0.0302
3161.00,0.0301
3160.00,0.0300
3159.00,0.0299
3158.00,0.0297
3157.00,0.0297
3156.00,0.0297
3155.00,0.0298
3154.00,0.0299
3153.00,0.0299
3152.00,0.0299
3151.00,0.0299
3150.00,0.0298
3149.00,0.0298
3148.00,0.0297
3147.00,0.0297
3146.00,0.0297
3145.00,0.0297
3144.00,0.0297
3143.00,0.0297
3142.00,0.0297
3141.00,0.0297
3140.00,0.0296
3139.00,0.0296
3138.00,0.0296
3137.00,0.0296
3136.00,0.0296
3135.00,0.0296
3134.00,0.0295
3133.00,0.0295
3132.00,0.0295
3131.00,0.0295
3130.00,0.0295
3129.00,0.0295
3128.00,0.0295
3127.00,0.0295
3126.00,0.0294
3125.00,0.0294
3124.00,0.0294
3123.00,0.0294
3122.00,0.0294
3121.00,0.0294
3120.00,0.0294
3119.00,0.0294
3118.00,0.0294
3117.00,0.0294
3116.00,0.0294
3115.00,0.0294
3114.00,0.0293
3113.00,0.0293
3112.00,0.0293
3111.00,0.0292
3110.00,0.0292
3109.00,0.0292
3108.00,0.0292
3107.00,0.0292
3106.00,0.0292
3105.00,0.0293
3104.00,0.0292
3103.00,0.0292
3102.00,0.0291
3101.00,0.0291
3100.00,0.0291
3099.00,0.0290
3098.00,0.0290
3097.00,0.0290
3096.00,0.0290
3095.00,0.0291
3094.00,0.0292
3093.00,0.0292
3092.00,0.0292
3091.00,0.0291
3090.00,0.0290
3089.00,0.0289
3088.00,0.0289
3087.00,0.0289
3086.00,0.0289
3085.00,0.0290
3084.00,0.0290
3083.00,0.0290
3082.00,0.0290
3081.00,0.0290
3080.00,0.0290
3079.00,0.0290
3078.00,0.0290
3077.00,0.0289
3076.00,0.0289
3075.00,0.0289
3074.00,0.0289
3073.00,0.0289
3072.00,0.0290
3071.00,0.0290
3070.00,0.0290
3069.00,0.0290
3068.00,0.0290
3067.00,0.0289
3066.00,0.0289
3065.00,0.0288
3064.00,0.0287
3063.00,0.0287
3062.00,0.0287
3061.00,0.0287
3060.00,0.0287
3059.00,0.0287
3058.00,0.0287
3057.00,0.0288
3056.00,0.0288
3055.00,0.0288
3054.00,0.0287
3053.00,0.0287
3052.00,0.0286
3051.00,0.0287
3050.00,0.0287
3049.00,0.0288
3048.00,0.0288
3047.00,0.0287
3046.00,0.0287
3045.00,0.0287
3044.00,0.0286
3043.00,0.0285
3042.00,0.0285
3041.00,0.0284
3040.00,0.0284
3039.00,0.0284
3038.00,0.0284
3037.00,0.0285
3036.00,0.0285
3035.00,0.0285
3034.00,0.0285
3033.00,0.0284
3032.00,0.0284
3031.00,0.0283
3030.00,0.0282
3029.00,0.0282
3028.00,0.0281
3027.00,0.0281
3026.00,0.0281
3025.00,0.0281
3024.00,0.0281
3023.00,0.0281
3022.00,0.0281
3021.00,0.0281
3020.00,0.0280
3019.00,0.0279
3018.00,0.0278
3017.00,0.0277
3016.00,0.0277
3015.00,0.0276
3014.00,0.0276
3013.00,0.0275
3012.00,0.0274
3011.00,0.0274
3010.00,0.0273
3009.00,0.0271
3008.00,0.0269
3007.00,0.0267
3006.00,0.0265
3005.00,0.0264
3004.00,0.0263
3003.00,0.0262
3002.00,0.0260
3001.00,0.0259
3000.00,0.0257
2999.00,0.0256
2998.00,0.0254
2997.00,0.0253
2996.00,0.0252
2995.00,0.0252
2994.00,0.0251
2993.00,0.0250
2992.00,0.0249
2991.00,0.0248
2990.00,0.0247
2989.00,0.0246
2988.00,0.0244
2987.00,0.0242
2986.00,0.0239
2985.00,0.0235
2984.00,0.0231
2983.00,0.0227
2982.00,0.0225
2981.00,0.0225
2980.00,0.0227
2979.00,0.0229
2978.00,0.0231
2977.00,0.0234
2976.00,0.0235
2975.00,0.0236
2974.00,0.0236
2973.00,0.0235
2972.00,0.0234
2971.00,0.0234
2970.00,0.0235
2969.00,0.0238
2968.00,0.0240
2967.00,0.0241
2966.00,0.0242
2965.00,0.0242
2964.00,0.0243
2963.00,0.0245
2962.00,0.0246
2961.00,0.0246
2960.00,0.0247
2959.00,0.0247
2958.00,0.0247
2957.00,0.0248
2956.00,0.0249
2955.00,0.0251
2954.00,0.0252
2953.00,0.0253
2952.00,0.0254
2951.00,0.0255
2950.00,0.0256
2949.00,0.0256
2948.00,0.0256
2947.00,0.0257
2946.00,0.0257
2945.00,0.0258
2944.00,0.0259
2943.00,0.0260
2942.00,0.0261
2941.00,0.0261
2940.00,0.0260
2939.00,0.0259
2938.00,0.0259
2937.00,0.0259
2936.00,0.0259
2935.00,0.0259
2934.00,0.0259
2933.00,0.0259
2932.00,0.0259
2931.00,0.0258
2930.00,0.0258
2929.00,0.0259
2928.00,0.0259
2927.00,0.0259
2926.00,0.0258
2925.00,0.0257
2924.00,0.0257
2923.00,0.0257
2922.00,0.0257
2921.00,0.0256
2920.00,0.0256
2919.00,0.0255
2918.00,0.0254
2917.00,0.0254
2916.00,0.0254
2915.00,0.0255
2914.00,0.0255
2913.00,0.0255
2912.00,0.0256
2911.00,0.0257
2910.00,0.0257
2909.00,0.0258
2908.00,0.0257
2907.00,0.0257
2906.00,0.0257
2905.00,0.0257
2904.00,0.0257
2903.00,0.0257
2902.00,0.0257
2901.00,0.0257
2900.00,0.0257
2899.00,0.0256
2898.00,0.0256
2897.00,0.0256
2896.00,0.0255
2895.00,0.0255
2894.00,0.0254
2893.00,0.0254
2892.00,0.0254
2891.00,0.0254
2890.00,0.0254
2889.00,0.0254
2888.00,0.0254
2887.00,0.0254
2886.00,0.0254
2885.00,0.0253
2884.00,0.0253
2883.00,0.0253
2882.00,0.0253
2881.00,0.0253
2880.00,0.0254
2879.00,0.0255
2878.00,0.0255
2877.00,0.0256
2876.00,0.0256
2875.00,0.0256
2874.00,0.0255
2873.00,0.0255
2872.00,0.0255
2871.00,0.0255
2870.00,0.0255
2869.00,0.0255
2868.00,0.0255
2867.00,0.0256
2866.00,0.0256
2865.00,0.0256
2864.00,0.0256
2863.00,0.0256
2862.00,0.0256
2861.00,0.0256
2860.00,0.0256
2859.00,0.0257
2858.00,0.0258
2857.00,0.0258
2856.00,0.0258
2855.00,0.0257
2854.00,0.0256
2853.00,0.0256
2852.00,0.0256
2851.00,0.0257
2850.00,0.0257
2849.00,0.0257
2848.00,0.0257
2847.00,0.0257
2846.00,0.0257
2845.00,0.0257
2844.00,0.0257
2843.00,0.0257
2842.00,0.0257
2841.00,0.0257
2840.00,0.0257
2839.00,0.0256
2838.00,0.0256
2837.00,0.0256
2836.00,0.0257
2835.00,0.0257
2834.00,0.0257
2833.00,0.0257
2832.00,0.0256
2831.00,0.0256
2830.00,0.0255
2829.00,0.0256
2828.00,0.0256
2827.00,0.0256
2826.00,0.0256
2825.00,0.0256
2824.00,0.0256
2823.00,0.0256
2822.00,0.0255
2821.00,0.0255
2820.00,0.0254
2819.00,0.0254
2818.00,0.0253
2817.00,0.0253
2816.00,0.0253
2815.00,0.0253
2814.00,0.0253
2813.00,0.0252
2812.00,0.0252
2811.00,0.0252
2810.00,0.0252
2809.00,0.0252
2808.00,0.0252
2807.00,0.0252
2806.00,0.0252
2805.00,0.0252
2804.00,0.0252
2803.00,0.0252
2802.00,0.0252
2801.00,0.0252
2800.00,0.0252
2799.00,0.0252
2798.00,0.0252
2797.00,0.0251
2796.00,0.0251
2795.00,0.0251
2794.00,0.0250
2793.00,0.0250
2792.00,0.0250
2791.00,0.0250
2790.00,0.0251
2789.00,0.0251
2788.00,0.0251
2787.00,0.0250
2786.00,0.0250
2785.00,0.0249
2784.00,0.0249
2783.00,0.0248
2782.00,0.0247
2781.00,0.0247
2780.00,0.0246
2779.00,0.0246
2778.00,0.0247
2777.00,0.0247
2776.00,0.0248
2775.00,0.0247
2774.00,0.0247
2773.00,0.0247
2772.00,0.0247
2771.00,0.0246
2770.00,0.0245
2769.00,0.0245
2768.00,0.0244
2767.00,0.0244
2766.00,0.0244
2765.00,0.0245
2764.00,0.0245
2763.00,0.0245
2762.00,0.0245
2761.00,0.0245
2760.00,0.0245
2759.00,0.0245
2758.00,0.0245
2757.00,0.0244
2756.00,0.0244
2755.00,0.0244
2754.00,0.0244
2753.00,0.0244
2752.00,0.0244
2751.00,0.0244
2750.00,0.0244
2749.00,0.0244
2748.00,0.0244
2747.00,0.0243
2746.00,0.0243
2745.00,0.0243
2744.00,0.0243
2743.00,0.0243
2742.00,0.0243
2741.00,0.0243
2740.00,0.0243
2739.00,0.0242
2738.00,0.0242
2737.00,0.0241
2736.00,0.0241
2735.00,0.0241
2734.00,0.0241
2733.00,0.0242
2732.00,0.0242
2731.00,0.0241
2730.00,0.0241
2729.00,0.0240
2728.00,0.0240
2727.00,0.0240
2726.00,0.0240
2725.00,0.0240
2724.00,0.0240
2723.00,0.0240
2722.00,0.0240
2721.00,0.0240
2720.00,0.0240
2719.00,0.0240
2718.00,0.0240
2717.00,0.0240
2716.00,0.0240
2715.00,0.0240
2714.00,0.0240
2713.00,0.0239
2712.00,0.0239
2711.00,0.0239
2710.00,0.0239
2709.00,0.0238
2708.00,0.0238
2707.00,0.0238
2706.00,0.0238
2705.00,0.0238
2704.00,0.0238
2703.00,0.0238
2702.00,0.0237
2701.00,0.0237
2700.00,0.0237
2699.00,0.0238
2698.00,0.0237
2697.00,0.0237
2696.00,0.0237
2695.00,0.0237
2694.00,0.0237
2693.00,0.0237
2692.00,0.0237
2691.00,0.0237
2690.00,0.0236
2689.00,0.0236
2688.00,0.0236
2687.00,0.0236
2686.00,0.0236
2685.00,0.0236
2684.00,0.0236
2683.00,0.0236
2682.00,0.0236
2681.00,0.0236
2680.00,0.0235
2679.00,0.0234
2678.00,0.0234
2677.00,0.0233
2676.00,0.0233
2675.00,0.0233
2674.00,0.0234
2673.00,0.0234
2672.00,0.0234
2671.00,0.0233
2670.00,0.0233
2669.00,0.0233
2668.00,0.0233
2667.00,0.0233
2666.00,0.0234
2665.00,0.0234
2664.00,0.0234
2663.00,0.0234
2662.00,0.0234
2661.00,0.0234
2660.00,0.0235
2659.00,0.0235
2658.00,0.0235
2657.00,0.0235
2656.00,0.0234
2655.00,0.0234
2654.00,0.0234
2653.00,0.0234
2652.00,0.0234
2651.00,0.0234
2650.00,0.0235
2649.00,0.0235
2648.00,0.0234
2647.00,0.0233
2646.00,0.0233
2645.00,0.0233
2644.00,0.0234
2643.00,0.0234
2642.00,0.0234
2641.00,0.0235
2640.00,0.0235
2639.00,0.0235
2638.00,0.0234
2637.00,0.0234
2636.00,0.0234
2635.00,0.0234
2634.00,0.0234
2633.00,0.0235
2632.00,0.0235
2631.00,0.0234
2630.00,0.0234
2629.00,0.0233
2628.00,0.0232
2627.00,0.0232
2626.00,0.0232
2625.00,0.0233
2624.00,0.0234
2623.00,0.0234
2622.00,0.0234
2621.00,0.0235
2620.00,0.0235
2619.00,0.0235
2618.00,0.0235
2617.00,0.0235
2616.00,0.0235
2615.00,0.0234
2614.00,0.0234
2613.00,0.0234
2612.00,0.0235
2611.00,0.0235
2610.00,0.0235
2609.00,0.0234
2608.00,0.0233
2607.00,0.0233
2606.00,0.0234
2605.00,0.0235
2604.00,0.0236
2603.00,0.0236
2602.00,0.0236
2601.00,0.0236
2600.00,0.0235
2599.00,0.0234
2598.00,0.0234
2597.00,0.0234
2596.00,0.0233
2595.00,0.0233
2594.00,0.0233
2593.00,0.0234
2592.00,0.0234
2591.00,0.0235
2590.00,0.0235
2589.00,0.0235
2588.00,0.0235
2587.00,0.0235
2586.00,0.0234
2585.00,0.0233
2584.00,0.0233
2583.00,0.0233
2582.00,0.0233
2581.00,0.0234
2580.00,0.0235
2579.00,0.0235
2578.00,0.0235
2577.00,0.0234
2576.00,0.0233
2575.00,0.0232
2574.00,0.0232
2573.00,0.0233
2572.00,0.0233
2571.00,0.0233
2570.00,0.0232
2569.00,0.0232
2568.00,0.0232
2567.00,0.0233
2566.00,0.0234
2565.00,0.0235
2564.00,0.0234
2563.00,0.0234
2562.00,0.0235
2561.00,0.0235
2560.00,0.0235
2559.00,0.0235
2558.00,0.0235
2557.00,0.0235
2556.00,0.0235
2555.00,0.0235
2554.00,0.0235
2553.00,0.0234
2552.00,0.0233
2551.00,0.0232
2550.00,0.0231
2549.00,0.0230
2548.00,0.0229
2547.00,0.0229
2546.00,0.0230
2545.00,0.0231
2544.00,0.0232
2543.00,0.0231
2542.00,0.0230
2541.00,0.0229
2540.00,0.0228
2539.00,0.0228
2538.00,0.0227
2537.00,0.0227
2536.00,0.0227
2535.00,0.0228
2534.00,0.0229
2533.00,0.0229
2532.00,0.0230
2531.00,0.0230
2530.00,0.0229
2529.00,0.0229
2528.00,0.0229
2527.00,0.0229
2526.00,0.0228
2525.00,0.0228
2524.00,0.0227
2523.00,0.0228
2522.00,0.0228
2521.00,0.0228
2520.00,0.0229
2519.00,0.0229
2518.00,0.0230
2517.00,0.0231
2516.00,0.0231
2515.00,0.0231
2514.00,0.0230
2513.00,0.0229
2512.00,0.0228
2511.00,0.0228
2510.00,0.0229
2509.00,0.0230
2508.00,0.0230
2507.00,0.0230
2506.00,0.0230
2505.00,0.0230
2504.00,0.0229
2503.00,0.0229
2502.00,0.0230
2501.00,0.0230
2500.00,0.0231
2499.00,0.0231
2498.00,0.0230
2497.00,0.0229
2496.00,0.0229
2495.00,0.0229
2494.00,0.0230
2493.00,0.0230
2492.00,0.0230
2491.00,0.0230
2490.00,0.0231
2489.00,0.0230
2488.00,0.0230
2487.00,0.0230
2486.00,0.0230
2485.00,0.0229
2484.00,0.0228
2483.00,0.0228
2482.00,0.0229
2481.00,0.0230
2480.00,0.0230
2479.00,0.0230
2478.00,0.0229
2477.00,0.0228
2476.00,0.0228
2475.00,0.0228
2474.00,0.0228
2473.00,0.0228
2472.00,0.0228
2471.00,0.0228
2470.00,0.0228
2469.00,0.0228
2468.00,0.0227
2467.00,0.0227
2466.00,0.0226
2465.00,0.0226
2464.00,0.0226
2463.00,0.0226
2462.00,0.0226
2461.00,0.0226
2460.00,0.0227
2459.00,0.0227
2458.00,0.0228
2457.00,0.0228
2456.00,0.0227
2455.00,0.0227
2454.00,0.0228
2453.00,0.0229
2452.00,0.0229
2451.00,0.0229
2450.00,0.0228
2449.00,0.0228
2448.00,0.0227
2447.00,0.0227
2446.00,0.0226
2445.00,0.0225
2444.00,0.0225
2443.00,0.0224
2442.00,0.0224
2441.00,0.0224
2440.00,0.0224
2439.00,0.0225
2438.00,0.0225
2437.00,0.0225
2436.00,0.0224
2435.00,0.0224
2434.00,0.0224
2433.00,0.0224
2432.00,0.0224
2431.00,0.0225
2430.00,0.0224
2429.00,0.0224
2428.00,0.0224
2427.00,0.0224
2426.00,0.0224
2425.00,0.0224
2424.00,0.0224
2423.00,0.0224
2422.00,0.0224
2421.00,0.0224
2420.00,0.0224
2419.00,0.0223
2418.00,0.0223
2417.00,0.0222
2416.00,0.0222
2415.00,0.0221
2414.00,0.0221
2413.00,0.0222
2412.00,0.0222
2411.00,0.0222
2410.00,0.0223
2409.00,0.0223
2408.00,0.0223
2407.00,0.0223
2406.00,0.0222
2405.00,0.0221
2404.00,0.0221
2403.00,0.0220
2402.00,0.0220
2401.00,0.0219
2400.00,0.0219
2399.00,0.0219
2398.00,0.0219
2397.00,0.0219
2396.00,0.0219
2395.00,0.0219
2394.00,0.0219
2393.00,0.0218
2392.00,0.0218
2391.00,0.0218
2390.00,0.0218
2389.00,0.0217
2388.00,0.0217
2387.00,0.0217
2386.00,0.0216
2385.00,0.0215
2384.00,0.0214
2383.00,0.0213
2382.00,0.0212
2381.00,0.0213
2380.00,0.0214
2379.00,0.0215
2378.00,0.0216
2377.00,0.0215
2376.00,0.0215
2375.00,0.0214
2374.00,0.0214
2373.00,0.0213
2372.00,0.0213
2371.00,0.0212
2370.00,0.0211
2369.00,0.0207
2368.00,0.0204
2367.00,0.0203
2366.00,0.0206
2365.00,0.0210
2364.00,0.0213
2363.00,0.0213
2362.00,0.0211
2361.00,0.0210
2360.00,0.0210
2359.00,0.0211
2358.00,0.0212
2357.00,0.0212
2356.00,0.0212
2355.00,0.0210
2354.00,0.0209
2353.00,0.0209
2352.00,0.0209
2351.00,0.0209
2350.00,0.0209
2349.00,0.0208
2348.00,0.0208
2347.00,0.0207
2346.00,0.0206
2345.00,0.0205
2344.00,0.0207
2343.00,0.0208
2342.00,0.0210
2341.00,0.0212
2340.00,0.0213
2339.00,0.0212
2338.00,0.0209
2337.00,0.0207
2336.00,0.0206
2335.00,0.0206
2334.00,0.0207
2333.00,0.0208
2332.00,0.0208
2331.00,0.0207
2330.00,0.0206
2329.00,0.0205
2328.00,0.0205
2327.00,0.0206
2326.00,0.0207
2325.00,0.0207
2324.00,0.0206
2323.00,0.0206
2322.00,0.0206
2321.00,0.0207
2320.00,0.0207
2319.00,0.0207
2318.00,0.0207
2317.00,0.0206
2316.00,0.0206
2315.00,0.0206
2314.00,0.0206
2313.00,0.0206
2312.00,0.0206
2311.00,0.0206
2310.00,0.0208
2309.00,0.0209
2308.00,0.0209
2307.00,0.0209
2306.00,0.0209
2305.00,0.0209
2304.00,0.0208
2303.00,0.0206
2302.00,0.0206
2301.00,0.0206
2300.00,0.0207
2299.00,0.0208
2298.00,0.0208
2297.00,0.0209
2296.00,0.0209
2295.00,0.0209
2294.00,0.0209
2293.00,0.0211
2292.00,0.0213
2291.00,0.0214
2290.00,0.0214
2289.00,0.0214
2288.00,0.0213
2287.00,0.0214
2286.00,0.0215
2285.00,0.0217
2284.00,0.0218
2283.00,0.0219
2282.00,0.0219
2281.00,0.0218
2280.00,0.0217
2279.00,0.0217
2278.00,0.0217
2277.00,0.0217
2276.00,0.0216
2275.00,0.0215
2274.00,0.0214
2273.00,0.0213
2272.00,0.0213
2271.00,0.0213
2270.00,0.0213
2269.00,0.0213
2268.00,0.0214
2267.00,0.0214
2266.00,0.0214
2265.00,0.0215
2264.00,0.0215
2263.00,0.0216
2262.00,0.0216
2261.00,0.0217
2260.00,0.0217
2259.00,0.0215
2258.00,0.0213
2257.00,0.0211
2256.00,0.0209
2255.00,0.0209
2254.00,0.0210
2253.00,0.0211
2252.00,0.0212
2251.00,0.0212
2250.00,0.0211
2249.00,0.0211
2248.00,0.0210
2247.00,0.0211
2246.00,0.0213
2245.00,0.0215
2244.00,0.0216
2243.00,0.0215
2242.00,0.0214
2241.00,0.0213
2240.00,0.0213
2239.00,0.0213
2238.00,0.0212
2237.00,0.0212
2236.00,0.0212
2235.00,0.0212
2234.00,0.0213
2233.00,0.0213
2232.00,0.0212
2231.00,0.0210
2230.00,0.0209
2229.00,0.0209
2228.00,0.0210
2227.00,0.0210
2226.00,0.0211
2225.00,0.0211
2224.00,0.0210
2223.00,0.0210
2222.00,0.0208
2221.00,0.0207
2220.00,0.0207
2219.00,0.0207
2218.00,0.0207
2217.00,0.0209
2216.00,0.0211
2215.00,0.0213
2214.00,0.0214
2213.00,0.0214
2212.00,0.0212
2211.00,0.0210
2210.00,0.0209
2209.00,0.0208
2208.00,0.0208
2207.00,0.0209
2206.00,0.0210
2205.00,0.0210
2204.00,0.0209
2203.00,0.0209
2202.00,0.0209
2201.00,0.0208
2200.00,0.0207
2199.00,0.0206
2198.00,0.0206
2197.00,0.0207
2196.00,0.0207
2195.00,0.0207
2194.00,0.0206
2193.00,0.0206
2192.00,0.0206
2191.00,0.0204
2190.00,0.0202
2189.00,0.0200
2188.00,0.0201
2187.00,0.0204
2186.00,0.0209
2185.00,0.0211
2184.00,0.0209
2183.00,0.0206
2182.00,0.0204
2181.00,0.0204
2180.00,0.0204
2179.00,0.0205
2178.00,0.0206
2177.00,0.0207
2176.00,0.0207
2175.00,0.0206
2174.00,0.0205
2173.00,0.0204
2172.00,0.0205
2171.00,0.0207
2170.00,0.0210
2169.00,0.0212
2168.00,0.0212
2167.00,0.0212
2166.00,0.0212
2165.00,0.0213
2164.00,0.0216
2163.00,0.0218
2162.00,0.0220
2161.00,0.0219
2160.00,0.0214
2159.00,0.0207
2158.00,0.0202
2157.00,0.0199
2156.00,0.0199
2155.00,0.0200
2154.00,0.0202
2153.00,0.0204
2152.00,0.0204
2151.00,0.0203
2150.00,0.0200
2149.00,0.0198
2148.00,0.0198
2147.00,0.0200
2146.00,0.0202
2145.00,0.0204
2144.00,0.0205
2143.00,0.0205
2142.00,0.0206
2141.00,0.0206
2140.00,0.0205
2139.00,0.0203
2138.00,0.0200
2137.00,0.0198
2136.00,0.0197
2135.00,0.0197
2134.00,0.0198
2133.00,0.0198
2132.00,0.0198
2131.00,0.0198
2130.00,0.0199
2129.00,0.0200
2128.00,0.0201
2127.00,0.0201
2126.00,0.0200
2125.00,0.0199
2124.00,0.0199
2123.00,0.0199
2122.00,0.0199
2121.00,0.0198
2120.00,0.0198
2119.00,0.0197
2118.00,0.0197
2117.00,0.0197
2116.00,0.0196
2115.00,0.0195
2114.00,0.0193
2113.00,0.0192
2112.00,0.0193
2111.00,0.0194
2110.00,0.0196
2109.00,0.0199
2108.00,0.0200
2107.00,0.0201
2106.00,0.0201
2105.00,0.0201
2104.00,0.0200
2103.00,0.0199
2102.00,0.0199
2101.00,0.0199
2100.00,0.0197
2099.00,0.0194
2098.00,0.0192
2097.00,0.0191
2096.00,0.0192
2095.00,0.0193
2094.00,0.0194
2093.00,0.0195
2092.00,0.0195
2091.00,0.0194
2090.00,0.0193
2089.00,0.0193
2088.00,0.0193
2087.00,0.0193
2086.00,0.0194
2085.00,0.0196
2084.00,0.0197
2083.00,0.0197
2082.00,0.0196
2081.00,0.0195
2080.00,0.0195
2079.00,0.0195
2078.00,0.0195
2077.00,0.0196
2076.00,0.0196
2075.00,0.0197
2074.00,0.0196
2073.00,0.0196
2072.00,0.0196
2071.00,0.0197
2070.00,0.0197
2069.00,0.0196
2068.00,0.0194
2067.00,0.0192
2066.00,0.0190
2065.00,0.0191
2064.00,0.0192
2063.00,0.0194
2062.00,0.0195
2061.00,0.0195
2060.00,0.0194
2059.00,0.0192
2058.00,0.0192
2057.00,0.0192
2056.00,0.0192
2055.00,0.0192
2054.00,0.0193
2053.00,0.0196
2052.00,0.0198
2051.00,0.0199
2050.00,0.0197
2049.00,0.0195
2048.00,0.0194
2047.00,0.0194
2046.00,0.0196
2045.00,0.0198
2044.00,0.0199
2043.00,0.0200
2042.00,0.0199
2041.00,0.0197
2040.00,0.0193
2039.00,0.0190
2038.00,0.0191
2037.00,0.0194
2036.00,0.0197
2035.00,0.0197
2034.00,0.0196
2033.00,0.0196
2032.00,0.0199
2031.00,0.0202
2030.00,0.0202
2029.00,0.0201
2028.00,0.0198
2027.00,0.0195
2026.00,0.0192
2025.00,0.0190
2024.00,0.0187
2023.00,0.0185
2022.00,0.0184
2021.00,0.0183
2020.00,0.0182
2019.00,0.0180
2018.00,0.0179
2017.00,0.0178
2016.00,0.0179
2015.00,0.0181
2014.00,0.0183
2013.00,0.0184
2012.00,0.0185
2011.00,0.0187
2010.00,0.0188
2009.00,0.0188
2008.00,0.0188
2007.00,0.0186
2006.00,0.0185
2005.00,0.0183
2004.00,0.0183
2003.00,0.0185
2002.00,0.0188
2001.00,0.0190
2000.00,0.0190
1999.00,0.0188
1998.00,0.0186
1997.00,0.0186
1996.00,0.0189
1995.00,0.0192
1994.00,0.0195
1993.00,0.0195
1992.00,0.0194
1991.00,0.0191
1990.00,0.0187
1989.00,0.0183
1988.00,0.0181
1987.00,0.0181
1986.00,0.0182
1985.00,0.0184
1984.00,0.0185
1983.00,0.0185
1982.00,0.0185
1981.00,0.0184
1980.00,0.0183
1979.00,0.0181
1978.00,0.0179
1977.00,0.0177
1976.00,0.0177
1975.00,0.0180
1974.00,0.0183
1973.00,0.0185
1972.00,0.0183
1971.00,0.0180
1970.00,0.0178
1969.00,0.0179
1968.00,0.0181
1967.00,0.0180
1966.00,0.0178
1965.00,0.0177
1964.00,0.0177
1963.00,0.0179
1962.00,0.0180
1961.00,0.0180
1960.00,0.0180
1959.00,0.0180
1958.00,0.0179
1957.00,0.0178
1956.00,0.0176
1955.00,0.0175
1954.00,0.0175
1953.00,0.0176
1952.00,0.0177
1951.00,0.0176
1950.00,0.0175
1949.00,0.0174
1948.00,0.0175
1947.00,0.0176
1946.00,0.0176
1945.00,0.0176
1944.00,0.0173
1943.00,0.0171
1942.00,0.0169
1941.00,0.0168
1940.00,0.0168
1939.00,0.0168
1938.00,0.0168
1937.00,0.0168
1936.00,0.0167
1935.00,0.0166
1934.00,0.0165
1933.00,0.0164
1932.00,0.0165
1931.00,0.0166
1930.00,0.0168
1929.00,0.0170
1928.00,0.0172
1927.00,0.0172
1926.00,0.0172
1925.00,0.0172
1924.00,0.0171
1923.00,0.0169
1922.00,0.0168
1921.00,0.0168
1920.00,0.0167
1919.00,0.0166
1918.00,0.0164
1917.00,0.0163
1916.00,0.0163
1915.00,0.0164
1914.00,0.0164
1913.00,0.0164
1912.00,0.0164
1911.00,0.0164
1910.00,0.0163
1909.00,0.0162
1908.00,0.0161
1907.00,0.0160
1906.00,0.0161
1905.00,0.0161
1904.00,0.0162
1903.00,0.0162
1902.00,0.0162
1901.00,0.0162
1900.00,0.0161
1899.00,0.0161
1898.00,0.0161
1897.00,0.0161
1896.00,0.0159
1895.00,0.0158
1894.00,0.0157
1893.00,0.0158
1892.00,0.0159
1891.00,0.0159
1890.00,0.0158
1889.00,0.0157
1888.00,0.0155
1887.00,0.0154
1886.00,0.0154
1885.00,0.0154
1884.00,0.0154
1883.00,0.0154
1882.00,0.0154
1881.00,0.0154
1880.00,0.0154
1879.00,0.0153
1878.00,0.0152
1877.00,0.0151
1876.00,0.0152
1875.00,0.0152
1874.00,0.0153
1873.00,0.0155
1872.00,0.0156
1871.00,0.0156
1870.00,0.0155
1869.00,0.0152
1868.00,0.0149
1867.00,0.0148
1866.00,0.0148
1865.00,0.0148
1864.00,0.0148
1863.00,0.0148
1862.00,0.0147
1861.00,0.0146
1860.00,0.0145
1859.00,0.0144
1858.00,0.0144
1857.00,0.0145
1856.00,0.0145
1855.00,0.0145
1854.00,0.0145
1853.00,0.0144
1852.00,0.0144
1851.00,0.0145
1850.00,0.0145
1849.00,0.0145
1848.00,0.0144
1847.00,0.0145
1846.00,0.0145
1845.00,0.0144
1844.00,0.0142
1843.00,0.0140
1842.00,0.0140
1841.00,0.0141
1840.00,0.0141
1839.00,0.0141
1838.00,0.0140
1837.00,0.0140
1836.00,0.0139
1835.00,0.0139
1834.00,0.0139
1833.00,0.0140
1832.00,0.0141
1831.00,0.0141
1830.00,0.0139
1829.00,0.0136
1828.00,0.0135
1827.00,0.0135
1826.00,0.0135
1825.00,0.0134
1824.00,0.0133
1823.00,0.0132
1822.00,0.0133
1821.00,0.0133
1820.00,0.0133
1819.00,0.0132
1818.00,0.0131
1817.00,0.0131
1816.00,0.0130
1815.00,0.0130
1814.00,0.0130
1813.00,0.0130
1812.00,0.0129
1811.00,0.0128
1810.00,0.0127
1809.00,0.0127
1808.00,0.0128
1807.00,0.0128
1806.00,0.0128
1805.00,0.0129
1804.00,0.0129
1803.00,0.0129
1802.00,0.0129
1801.00,0.0128
1800.00,0.0127
1799.00,0.0126
1798.00,0.0127
1797.00,0.0129
1796.00,0.0130
1795.00,0.0131
1794.00,0.0130
1793.00,0.0130
1792.00,0.0129
1791.00,0.0128
1790.00,0.0128
1789.00,0.0129
1788.00,0.0131
1787.00,0.0133
1786.00,0.0134
1785.00,0.0134
1784.00,0.0135
1783.00,0.0136
1782.00,0.0136
1781.00,0.0136
1780.00,0.0136
1779.00,0.0137
1778.00,0.0138
1777.00,0.0140
1776.00,0.0142
1775.00,0.0144
1774.00,0.0145
1773.00,0.0145
1772.00,0.0144
1771.00,0.0143
1770.00,0.0145
1769.00,0.0148
1768.00,0.0150
1767.00,0.0150
1766.00,0.0151
1765.00,0.0154
1764.00,0.0156
1763.00,0.0156
1762.00,0.0156
1761.00,0.0155
1760.00,0.0156
1759.00,0.0157
1758.00,0.0158
1757.00,0.0159
1756.00,0.0160
1755.00,0.0163
1754.00,0.0166
1753.00,0.0167
1752.00,0.0168
1751.00,0.0168
1750.00,0.0168
1749.00,0.0169
1748.00,0.0170
1747.00,0.0172
1746.00,0.0174
1745.00,0.0176
1744.00,0.0178
1743.00,0.0180
1742.00,0.0181
1741.00,0.0183
1740.00,0.0185
1739.00,0.0186
1738.00,0.0188
1737.00,0.0192
1736.00,0.0195
1735.00,0.0199
1734.00,0.0200
1733.00,0.0200
1732.00,0.0201
1731.00,0.0203
1730.00,0.0205
1729.00,0.0206
1728.00,0.0209
1727.00,0.0211
1726.00,0.0214
1725.00,0.0216
1724.00,0.0218
1723.00,0.0220
1722.00,0.0221
1721.00,0.0223
1720.00,0.0224
1719.00,0.0225
1718.00,0.0227
1717.00,0.0229
1716.00,0.0231
1715.00,0.0232
1714.00,0.0233
1713.00,0.0235
1712.00,0.0237
1711.00,0.0238
1710.00,0.0239
1709.00,0.0240
1708.00,0.0241
1707.00,0.0242
1706.00,0.0242
1705.00,0.0242
1704.00,0.0244
1703.00,0.0246
1702.00,0.0247
1701.00,0.0248
1700.00,0.0248
1699.00,0.0247
1698.00,0.0248
1697.00,0.0249
1696.00,0.0248
1695.00,0.0247
1694.00,0.0247
1693.00,0.0248
1692.00,0.0249
1691.00,0.0249
1690.00,0.0250
1689.00,0.0250
1688.00,0.0251
1687.00,0.0251
1686.00,0.0250
1685.00,0.0249
1684.00,0.0247
1683.00,0.0246
1682.00,0.0248
1681.00,0.0249
1680.00,0.0250
1679.00,0.0250
1678.00,0.0252
1677.00,0.0254
1676.00,0.0256
1675.00,0.0257
1674.00,0.0257
1673.00,0.0256
1672.00,0.0256
1671.00,0.0256
1670.00,0.0256
1669.00,0.0256
1668.00,0.0256
1667.00,0.0257
1666.00,0.0259
1665.00,0.0259
1664.00,0.0260
1663.00,0.0260
1662.00,0.0260
1661.00,0.0262
1660.00,0.0264
1659.00,0.0267
1658.00,0.0268
1657.00,0.0268
1656.00,0.0267
1655.00,0.0265
1654.00,0.0266
1653.00,0.0267
1652.00,0.0267
1651.00,0.0271
1650.00,0.0273
1649.00,0.0274
1648.00,0.0275
1647.00,0.0276
1646.00,0.0279
1645.00,0.0281
1644.00,0.0284
1643.00,0.0285
1642.00,0.0286
1641.00,0.0286
1640.00,0.0287
1639.00,0.0287
1638.00,0.0288
1637.00,0.0290
1636.00,0.0294
1635.00,0.0297
1634.00,0.0299
1633.00,0.0299
1632.00,0.0300
1631.00,0.0300
1630.00,0.0301
1629.00,0.0302
1628.00,0.0304
1627.00,0.0305
1626.00,0.0307
1625.00,0.0310
1624.00,0.0312
1623.00,0.0315
1622.00,0.0316
1621.00,0.0317
1620.00,0.0318
1619.00,0.0318
1618.00,0.0319
1617.00,0.0321
1616.00,0.0323
1615.00,0.0325
1614.00,0.0326
1613.00,0.0327
1612.00,0.0328
1611.00,0.0329
1610.00,0.0330
1609.00,0.0331
1608.00,0.0332
1607.00,0.0333
1606.00,0.0335
1605.00,0.0336
1604.00,0.0337
1603.00,0.0337
1602.00,0.0338
1601.00,0.0338
1600.00,0.0338
1599.00,0.0339
1598.00,0.0341
1597.00,0.0342
1596.00,0.0343
1595.00,0.0344
1594.00,0.0345
1593.00,0.0346
1592.00,0.0346
1591.00,0.0346
1590.00,0.0346
1589.00,0.0347
1588.00,0.0348
1587.00,0.0350
1586.00,0.0351
1585.00,0.0351
1584.00,0.0351
1583.00,0.0352
1582.00,0.0352
1581.00,0.0352
1580.00,0.0351
1579.00,0.0351
1578.00,0.0352
1577.00,0.0354
1576.00,0.0355
1575.00,0.0356
1574.00,0.0355
1573.00,0.0354
1572.00,0.0353
1571.00,0.0352
1570.00,0.0353
1569.00,0.0353
1568.00,0.0354
1567.00,0.0354
1566.00,0.0354
1565.00,0.0352
1564.00,0.0351
1563.00,0.0350
1562.00,0.0348
1561.00,0.0344
1560.00,0.0346
1559.00,0.0352
1558.00,0.0352
1557.00,0.0351
1556.00,0.0350
1555.00,0.0350
1554.00,0.0349
1553.00,0.0349
1552.00,0.0348
1551.00,0.0347
1550.00,0.0346
1549.00,0.0344
1548.00,0.0342
1547.00,0.0340
1546.00,0.0339
1545.00,0.0337
1544.00,0.0336
1543.00,0.0334
1542.00,0.0332
1541.00,0.0331
1540.00,0.0329
1539.00,0.0327
1538.00,0.0326
1537.00,0.0326
1536.00,0.0325
1535.00,0.0324
1534.00,0.0323
1533.00,0.0323
1532.00,0.0322
1531.00,0.0321
1530.00,0.0321
1529.00,0.0320
1528.00,0.0319
1527.00,0.0317
1526.00,0.0316
1525.00,0.0314
1524.00,0.0312
1523.00,0.0310
1522.00,0.0310
1521.00,0.0309
1520.00,0.0309
1519.00,0.0309
1518.00,0.0308
1517.00,0.0306
1516.00,0.0305
1515.00,0.0304
1514.00,0.0304
1513.00,0.0303
1512.00,0.0303
1511.00,0.0301
1510.00,0.0299
1509.00,0.0298
1508.00,0.0297
1507.00,0.0297
1506.00,0.0294
1505.00,0.0294
1504.00,0.0295
1503.00,0.0294
1502.00,0.0292
1501.00,0.0290
1500.00,0.0289
1499.00,0.0289
1498.00,0.0290
1497.00,0.0291
1496.00,0.0291
1495.00,0.0290
1494.00,0.0289
1493.00,0.0288
1492.00,0.0287
1491.00,0.0286
1490.00,0.0287
1489.00,0.0286
1488.00,0.0285
1487.00,0.0285
1486.00,0.0284
1485.00,0.0284
1484.00,0.0284
1483.00,0.0284
1482.00,0.0284
1481.00,0.0284
1480.00,0.0284
1479.00,0.0284
1478.00,0.0283
1477.00,0.0283
1476.00,0.0284
1475.00,0.0284
1474.00,0.0284
1473.00,0.0286
1472.00,0.0287
1471.00,0.0287
1470.00,0.0288
1469.00,0.0289
1468.00,0.0290
1467.00,0.0289
1466.00,0.0289
1465.00,0.0288
1464.00,0.0288
1463.00,0.0288
1462.00,0.0287
1461.00,0.0286
1460.00,0.0286
1459.00,0.0286
1458.00,0.0289
1457.00,0.0293
1456.00,0.0294
1455.00,0.0294
1454.00,0.0294
1453.00,0.0293
1452.00,0.0294
1451.00,0.0295
1450.00,0.0296
1449.00,0.0298
1448.00,0.0299
1447.00,0.0301
1446.00,0.0301
1445.00,0.0302
1444.00,0.0302
1443.00,0.0301
1442.00,0.0301
1441.00,0.0301
1440.00,0.0302
1439.00,0.0304
1438.00,0.0306
1437.00,0.0309
1436.00,0.0311
1435.00,0.0311
1434.00,0.0310
1433.00,0.0309
1432.00,0.0308
1431.00,0.0308
1430.00,0.0308
1429.00,0.0308
1428.00,0.0309
1427.00,0.0310
1426.00,0.0310
1425.00,0.0311
1424.00,0.0312
1423.00,0.0312
1422.00,0.0312
1421.00,0.0312
1420.00,0.0314
1419.00,0.0315
1418.00,0.0316
1417.00,0.0317
1416.00,0.0317
1415.00,0.0316
1414.00,0.0315
1413.00,0.0314
1412.00,0.0313
1411.00,0.0313
1410.00,0.0313
1409.00,0.0312
1408.00,0.0312
1407.00,0.0312
1406.00,0.0312
1405.00,0.0311
1404.00,0.0311
1403.00,0.0311
1402.00,0.0310
1401.00,0.0309
1400.00,0.0308
1399.00,0.0308
1398.00,0.0308
1397.00,0.0308
1396.00,0.0309
1395.00,0.0309
1394.00,0.0309
1393.00,0.0309
1392.00,0.0309
1391.00,0.0310
1390.00,0.0310
1389.00,0.0311
1388.00,0.0312
1387.00,0.0312
1386.00,0.0312
1385.00,0.0312
1384.00,0.0312
1383.00,0.0313
1382.00,0.0314
1381.00,0.0315
1380.00,0.0317
1379.00,0.0318
1378.00,0.0319
1377.00,0.0320
1376.00,0.0322
1375.00,0.0323
1374.00,0.0325
1373.00,0.0326
1372.00,0.0326
1371.00,0.0326
1370.00,0.0327
1369.00,0.0327
1368.00,0.0328
1367.00,0.0328
1366.00,0.0329
1365.00,0.0329
1364.00,0.0329
1363.00,0.0331
1362.00,0.0332
1361.00,0.0333
1360.00,0.0334
1359.00,0.0334
1358.00,0.0334
1357.00,0.0334
1356.00,0.0335
1355.00,0.0335
1354.00,0.0335
1353.00,0.0335
1352.00,0.0335
1351.00,0.0334
1350.00,0.0333
1349.00,0.0333
1348.00,0.0332
1347.00,0.0332
1346.00,0.0332
1345.00,0.0332
1344.00,0.0332
1343.00,0.0332
1342.00,0.0332
1341.00,0.0333
1340.00,0.0335
1339.00,0.0336
1338.00,0.0336
1337.00,0.0336
1336.00,0.0335
1335.00,0.0335
1334.00,0.0335
1333.00,0.0334
1332.00,0.0334
1331.00,0.0334
1330.00,0.0333
1329.00,0.0333
1328.00,0.0333
1327.00,0.0333
1326.00,0.0333
1325.00,0.0333
1324.00,0.0333
1323.00,0.0335
1322.00,0.0336
1321.00,0.0337
1320.00,0.0338
1319.00,0.0338
1318.00,0.0337
1317.00,0.0335
1316.00,0.0334
1315.00,0.0333
1314.00,0.0333
1313.00,0.0334
1312.00,0.0335
1311.00,0.0336
1310.00,0.0337
1309.00,0.0336
1308.00,0.0336
1307.00,0.0336
1306.00,0.0336
1305.00,0.0336
1304.00,0.0337
1303.00,0.0337
1302.00,0.0338
1301.00,0.0338
1300.00,0.0337
1299.00,0.0337
1298.00,0.0336
1297.00,0.0336
1296.00,0.0336
1295.00,0.0336
1294.00,0.0337
1293.00,0.0338
1292.00,0.0339
1291.00,0.0339
1290.00,0.0340
1289.00,0.0340
1288.00,0.0340
1287.00,0.0340
1286.00,0.0339
1285.00,0.0340
1284.00,0.0341
1283.00,0.0342
1282.00,0.0343
1281.00,0.0343
1280.00,0.0342
1279.00,0.0342
1278.00,0.0342
1277.00,0.0341
1276.00,0.0341
1275.00,0.0342
1274.00,0.0342
1273.00,0.0342
1272.00,0.0342
1271.00,0.0342
1270.00,0.0342
1269.00,0.0341
1268.00,0.0341
1267.00,0.0342
1266.00,0.0343
1265.00,0.0344
1264.00,0.0344
1263.00,0.0343
1262.00,0.0343
1261.00,0.0343
1260.00,0.0344
1259.00,0.0345
1258.00,0.0346
1257.00,0.0347
1256.00,0.0347
1255.00,0.0346
1254.00,0.0347
1253.00,0.0348
1252.00,0.0348
1251.00,0.0349
1250.00,0.0349
1249.00,0.0349
1248.00,0.0350
1247.00,0.0352
1246.00,0.0353
1245.00,0.0355
1244.00,0.0356
1243.00,0.0357
1242.00,0.0357
1241.00,0.0356
1240.00,0.0357
1239.00,0.0357
1238.00,0.0358
1237.00,0.0360
1236.00,0.0361
1235.00,0.0361
1234.00,0.0362
1233.00,0.0362
1232.00,0.0362
1231.00,0.0363
1230.00,0.0363
1229.00,0.0364
1228.00,0.0365
1227.00,0.0366
1226.00,0.0366
1225.00,0.0366
1224.00,0.0365
1223.00,0.0365
1222.00,0.0365
1221.00,0.0366
1220.00,0.0367
1219.00,0.0368
1218.00,0.0369
1217.00,0.0369
1216.00,0.0370
1215.00,0.0370
1214.00,0.0370
1213.00,0.0370
1212.00,0.0370
1211.00,0.0371
1210.00,0.0372
1209.00,0.0373
1208.00,0.0374
1207.00,0.0374
1206.00,0.0374
1205.00,0.0374
1204.00,0.0374
1203.00,0.0374
1202.00,0.0374
1201.00,0.0375
1200.00,0.0375
1199.00,0.0375
1198.00,0.0375
1197.00,0.0375
1196.00,0.0375
1195.00,0.0375
1194.00,0.0374
1193.00,0.0374
1192.00,0.0374
1191.00,0.0375
1190.00,0.0374
1189.00,0.0374
1188.00,0.0373
1187.00,0.0373
1186.00,0.0374
1185.00,0.0374
1184.00,0.0374
1183.00,0.0374
1182.00,0.0373
1181.00,0.0372
1180.00,0.0372
1179.00,0.0371
1178.00,0.0371
1177.00,0.0372
1176.00,0.0372
1175.00,0.0373
1174.00,0.0374
1173.00,0.0375
1172.00,0.0376
1171.00,0.0376
1170.00,0.0375
1169.00,0.0375
1168.00,0.0375
1167.00,0.0376
1166.00,0.0377
1165.00,0.0378
1164.00,0.0378
1163.00,0.0379
1162.00,0.0379
1161.00,0.0378
1160.00,0.0378
1159.00,0.0378
1158.00,0.0377
1157.00,0.0377
1156.00,0.0377
1155.00,0.0378
1154.00,0.0378
1153.00,0.0378
1152.00,0.0378
1151.00,0.0377
1150.00,0.0377
1149.00,0.0376
1148.00,0.0376
1147.00,0.0376
1146.00,0.0377
1145.00,0.0378
1144.00,0.0379
1143.00,0.0381
1142.00,0.0382
1141.00,0.0383
1140.00,0.0383
1139.00,0.0384
1138.00,0.0385
1137.00,0.0386
1136.00,0.0387
1135.00,0.0389
1134.00,0.0391
1133.00,0.0393
1132.00,0.0394
1131.00,0.0395
1130.00,0.0397
1129.00,0.0399
1128.00,0.0402
1127.00,0.0403
1126.00,0.0403
1125.00,0.0403
1124.00,0.0406
1123.00,0.0411
1122.00,0.0418
1121.00,0.0424
1120.00,0.0428
1119.00,0.0432
1118.00,0.0434
1117.00,0.0436
1116.00,0.0440
1115.00,0.0443
1114.00,0.0445
1113.00,0.0446
1112.00,0.0446
1111.00,0.0447
1110.00,0.0448
1109.00,0.0450
1108.00,0.0452
1107.00,0.0453
1106.00,0.0454
1105.00,0.0455
1104.00,0.0457
1103.00,0.0459
1102.00,0.0462
1101.00,0.0464
1100.00,0.0466
1099.00,0.0467
1098.00,0.0468
1097.00,0.0469
1096.00,0.0469
1095.00,0.0468
1094.00,0.0468
1093.00,0.0469
1092.00,0.0471
1091.00,0.0471
1090.00,0.0471
1089.00,0.0469
1088.00,0.0468
1087.00,0.0468
1086.00,0.0469
1085.00,0.0470
1084.00,0.0471
1083.00,0.0472
1082.00,0.0473
1081.00,0.0475
1080.00,0.0476
1079.00,0.0478
1078.00,0.0480
1077.00,0.0481
1076.00,0.0481
1075.00,0.0479
1074.00,0.0477
1073.00,0.0477
1072.00,0.0478
1071.00,0.0478
1070.00,0.0478
1069.00,0.0477
1068.00,0.0478
1067.00,0.0481
1066.00,0.0485
1065.00,0.0489
1064.00,0.0492
1063.00,0.0495
1062.00,0.0495
1061.00,0.0494
1060.00,0.0493
1059.00,0.0493
1058.00,0.0495
1057.00,0.0497
1056.00,0.0499
1055.00,0.0502
1054.00,0.0504
1053.00,0.0507
1052.00,0.0510
1051.00,0.0511
1050.00,0.0513
1049.00,0.0516
1048.00,0.0519
1047.00,0.0521
1046.00,0.0522
1045.00,0.0523
1044.00,0.0525
1043.00,0.0526
1042.00,0.0527
1041.00,0.0528
1040.00,0.0530
1039.00,0.0533
1038.00,0.0537
1037.00,0.0540
1036.00,0.0542
1035.00,0.0543
1034.00,0.0543
1033.00,0.0544
1032.00,0.0544
1031.00,0.0543
1030.00,0.0541
1029.00,0.0538
1028.00,0.0536
1027.00,0.0534
1026.00,0.0533
1025.00,0.0531
1024.00,0.0529
1023.00,0.0526
1022.00,0.0523
1021.00,0.0520
1020.00,0.0517
1019.00,0.0516
1018.00,0.0515
1017.00,0.0515
1016.00,0.0515
1015.00,0.0517
1014.00,0.0519
1013.00,0.0521
1012.00,0.0522
1011.00,0.0523
1010.00,0.0524
1009.00,0.0525
1008.00,0.0526
1007.00,0.0525
1006.00,0.0525
1005.00,0.0524
1004.00,0.0524
1003.00,0.0524
1002.00,0.0523
1001.00,0.0521
1000.00,0.0517
999.00,0.0512
998.00,0.0507
997.00,0.0503
996.00,0.0500
995.00,0.0498
994.00,0.0494
993.00,0.0490
992.00,0.0485
991.00,0.0481
990.00,0.0478
989.00,0.0476
988.00,0.0475
987.00,0.0474
986.00,0.0473
985.00,0.0471
984.00,0.0468
983.00,0.0464
982.00,0.0459
981.00,0.0456
980.00,0.0454
979.00,0.0451
978.00,0.0448
977.00,0.0445
976.00,0.0441
975.00,0.0438
974.00,0.0436
973.00,0.0434
972.00,0.0432
971.00,0.0430
970.00,0.0427
969.00,0.0424
968.00,0.0421
967.00,0.0419
966.00,0.0417
965.00,0.0414
964.00,0.0412
963.00,0.0411
962.00,0.0411
961.00,0.0410
960.00,0.0409
959.00,0.0408
958.00,0.0406
957.00,0.0404
956.00,0.0402
955.00,0.0401
954.00,0.0399
953.00,0.0398
952.00,0.0399
951.00,0.0400
950.00,0.0401
949.00,0.0401
948.00,0.0401
947.00,0.0401
946.00,0.0400
945.00,0.0399
944.00,0.0398
943.00,0.0398
942.00,0.0398
941.00,0.0399
940.00,0.0400
939.00,0.0402
938.00,0.0404
937.00,0.0404
936.00,0.0403
935.00,0.0401
934.00,0.0400
933.00,0.0401
932.00,0.0403
931.00,0.0405
930.00,0.0406
929.00,0.0407
928.00,0.0408
927.00,0.0409
926.00,0.0410
925.00,0.0411
924.00,0.0412
923.00,0.0413
922.00,0.0415
921.00,0.0416
920.00,0.0417
919.00,0.0418
918.00,0.0420
917.00,0.0422
916.00,0.0426
915.00,0.0429
914.00,0.0430
913.00,0.0431
912.00,0.0431
911.00,0.0430
910.00,0.0428
909.00,0.0424
908.00,0.0419
907.00,0.0415
906.00,0.0413
905.00,0.0415
904.00,0.0417
903.00,0.0420
902.00,0.0421
901.00,0.0420
900.00,0.0417
899.00,0.0415
898.00,0.0413
897.00,0.0413
896.00,0.0412
895.00,0.0410
894.00,0.0408
893.00,0.0405
892.00,0.0403
891.00,0.0400
890.00,0.0399
889.00,0.0399
888.00,0.0399
887.00,0.0397
886.00,0.0395
885.00,0.0393
884.00,0.0393
883.00,0.0394
882.00,0.0395
881.00,0.0395
880.00,0.0394
879.00,0.0392
878.00,0.0388
877.00,0.0385
876.00,0.0382
875.00,0.0380
874.00,0.0380
873.00,0.0379
872.00,0.0379
871.00,0.0378
870.00,0.0379
869.00,0.0378
868.00,0.0377
867.00,0.0375
866.00,0.0374
865.00,0.0375
864.00,0.0376
863.00,0.0377
862.00,0.0377
861.00,0.0377
860.00,0.0377
859.00,0.0375
858.00,0.0373
857.00,0.0371
856.00,0.0370
855.00,0.0371
854.00,0.0372
853.00,0.0373
852.00,0.0373
851.00,0.0373
850.00,0.0374
849.00,0.0375
848.00,0.0375
847.00,0.0376
846.00,0.0378
845.00,0.0381
844.00,0.0382
843.00,0.0381
842.00,0.0379
841.00,0.0377
840.00,0.0375
839.00,0.0374
838.00,0.0374
837.00,0.0375
836.00,0.0377
835.00,0.0378
834.00,0.0377
833.00,0.0376
832.00,0.0376
831.00,0.0376
830.00,0.0376
829.00,0.0376
828.00,0.0376
827.00,0.0378
826.00,0.0380
825.00,0.0383
824.00,0.0386
823.00,0.0388
822.00,0.0389
821.00,0.0390
820.00,0.0391
819.00,0.0392
818.00,0.0392
817.00,0.0391
816.00,0.0389
815.00,0.0389
814.00,0.0390
813.00,0.0392
812.00,0.0395
811.00,0.0397
810.00,0.0398
809.00,0.0400
808.00,0.0402
807.00,0.0404
806.00,0.0405
805.00,0.0406
804.00,0.0407
803.00,0.0409
802.00,0.0413
801.00,0.0418
800.00,0.0423
799.00,0.0428
798.00,0.0429
797.00,0.0429
796.00,0.0426
795.00,0.0424
794.00,0.0422
793.00,0.0421
792.00,0.0422
791.00,0.0424
790.00,0.0427
789.00,0.0428
788.00,0.0429
787.00,0.0428
786.00,0.0430
785.00,0.0432
784.00,0.0435
783.00,0.0437
782.00,0.0437
781.00,0.0437
780.00,0.0436
779.00,0.0436
778.00,0.0436
777.00,0.0437
776.00,0.0438
775.00,0.0437
774.00,0.0433
773.00,0.0429
772.00,0.0427
771.00,0.0428
770.00,0.0430
769.00,0.0432
768.00,0.0433
767.00,0.0431
766.00,0.0428
765.00,0.0426
764.00,0.0425
763.00,0.0424
762.00,0.0423
761.00,0.0423
760.00,0.0424
759.00,0.0427
758.00,0.0431
757.00,0.0434
756.00,0.0435
755.00,0.0434
754.00,0.0433
753.00,0.0433
752.00,0.0435
751.00,0.0438
750.00,0.0440
749.00,0.0442
748.00,0.0442
747.00,0.0442
746.00,0.0441
745.00,0.0439
744.00,0.0437
743.00,0.0435
742.00,0.0433
741.00,0.0431
740.00,0.0428
739.00,0.0424
738.00,0.0421
737.00,0.0421
736.00,0.0421
735.00,0.0421
734.00,0.0420
733.00,0.0420
732.00,0.0421
731.00,0.0422
730.00,0.0423
729.00,0.0426
728.00,0.0428
727.00,0.0432
726.00,0.0435
725.00,0.0436
724.00,0.0435
723.00,0.0432
722.00,0.0430
721.00,0.0429
720.00,0.0429
719.00,0.0430
718.00,0.0431
717.00,0.0431
716.00,0.0430
715.00,0.0428
714.00,0.0426
713.00,0.0427
712.00,0.0430
711.00,0.0432
710.00,0.0433
709.00,0.0433
708.00,0.0435
707.00,0.0438
706.00,0.0443
705.00,0.0449
704.00,0.0453
703.00,0.0457
702.00,0.0458
701.00,0.0457
700.00,0.0456
699.00,0.0458
698.00,0.0460
697.00,0.0462
696.00,0.0464
695.00,0.0466
694.00,0.0469
693.00,0.0473
692.00,0.0475
691.00,0.0476
690.00,0.0477
689.00,0.0478
688.00,0.0477
687.00,0.0476
686.00,0.0475
685.00,0.0473
684.00,0.0470
683.00,0.0465
682.00,0.0461
681.00,0.0461
680.00,0.0463
679.00,0.0467
678.00,0.0470
677.00,0.0473
676.00,0.0474
675.00,0.0474
674.00,0.0474
673.00,0.0473
672.00,0.0472
671.00,0.0472
670.00,0.0475
669.00,0.0483
668.00,0.0493
667.00,0.0496
666.00,0.0494
665.00,0.0491
664.00,0.0487
663.00,0.0483
662.00,0.0477
661.00,0.0471
660.00,0.0465
659.00,0.0462
658.00,0.0464
657.00,0.0472
656.00,0.0482
655.00,0.0486
654.00,0.0483
653.00,0.0476
652.00,0.0469
651.00,0.0465
650.00,0.0465
