Created as New Dataset,Monday, April 03 2023
cm-1,A
4000.00,0.0180
3999.00,0.0180
3998.00,0.0180
3997.00,0.0180
3996.00,0.0180
3995.00,0.0179
3994.00,0.0179
3993.00,0.0179
3992.00,0.0179
3991.00,0.0179
3990.00,0.0179
3989.00,0.0179
3988.00,0.0179
3987.00,0.0178
3986.00,0.0178
3985.00,0.0178
3984.00,0.0178
3983.00,0.0178
3982.00,0.0178
3981.00,0.0178
3980.00,0.0178
3979.00,0.0178
3978.00,0.0178
3977.00,0.0178
3976.00,0.0178
3975.00,0.0177
3974.00,0.0177
3973.00,0.0177
3972.00,0.0177
3971.00,0.0177
3970.00,0.0177
3969.00,0.0178
3968.00,0.0177
3967.00,0.0177
3966.00,0.0176
3965.00,0.0176
3964.00,0.0177
3963.00,0.0178
3962.00,0.0178
3961.00,0.0178
3960.00,0.0177
3959.00,0.0177
3958.00,0.0176
3957.00,0.0176
3956.00,0.0176
3955.00,0.0175
3954.00,0.0174
3953.00,0.0174
3952.00,0.0174
3951.00,0.0175
3950.00,0.0176
3949.00,0.0176
3948.00,0.0177
3947.00,0.0177
3946.00,0.0177
3945.00,0.0176
3944.00,0.0175
3943.00,0.0174
3942.00,0.0173
3941.00,0.0173
3940.00,0.0173
3939.00,0.0174
3938.00,0.0174
3937.00,0.0174
3936.00,0.0174
3935.00,0.0175
3934.00,0.0175
3933.00,0.0174
3932.00,0.0174
3931.00,0.0174
3930.00,0.0174
3929.00,0.0174
3928.00,0.0174
3927.00,0.0174
3926.00,0.0174
3925.00,0.0174
3924.00,0.0174
3923.00,0.0173
3922.00,0.0174
3921.00,0.0173
3920.00,0.0173
3919.00,0.0173
3918.00,0.0173
3917.00,0.0173
3916.00,0.0173
3915.00,0.0172
3914.00,0.0172
3913.00,0.0172
3912.00,0.0171
3911.00,0.0171
3910.00,0.0171
3909.00,0.0171
3908.00,0.0171
3907.00,0.0171
3906.00,0.0171
3905.00,0.0171
3904.00,0.0172
3903.00,0.0172
3902.00,0.0173
3901.00,0.0174
3900.00,0.0174
3899.00,0.0173
3898.00,0.0172
3897.00,0.0171
3896.00,0.0171
3895.00,0.0171
3894.00,0.0170
3893.00,0.0170
3892.00,0.0169
3891.00,0.0168
3890.00,0.0168
3889.00,0.0168
3888.00,0.0169
3887.00,0.0169
3886.00,0.0168
3885.00,0.0168
3884.00,0.0168
3883.00,0.0168
3882.00,0.0168
3881.00,0.0166
3880.00,0.0165
3879.00,0.0166
3878.00,0.0168
3877.00,0.0170
3876.00,0.0171
3875.00,0.0170
3874.00,0.0168
3873.00,0.0167
3872.00,0.0168
3871.00,0.0168
3870.00,0.0168
3869.00,0.0168
3868.00,0.0169
3867.00,0.0170
3866.00,0.0171
3865.00,0.0171
3864.00,0.0170
3863.00,0.0169
3862.00,0.0169
3861.00,0.0169
3860.00,0.0169
3859.00,0.0168
3858.00,0.0167
3857.00,0.0164
3856.00,0.0163
3855.00,0.0164
3854.00,0.0167
3853.00,0.0168
3852.00,0.0167
3851.00,0.0167
3850.00,0.0167
3849.00,0.0166
3848.00,0.0165
3847.00,0.0165
3846.00,0.0165
3845.00,0.0165
3844.00,0.0165
3843.00,0.0165
3842.00,0.0165
3841.00,0.0166
3840.00,0.0167
3839.00,0.0168
3838.00,0.0167
3837.00,0.0166
3836.00,0.0165
3835.00,0.0165
3834.00,0.0165
3833.00,0.0165
3832.00,0.0165
3831.00,0.0165
3830.00,0.0165
3829.00,0.0165
3828.00,0.0164
3827.00,0.0163
3826.00,0.0162
3825.00,0.0162
3824.00,0.0164
3823.00,0.0165
3822.00,0.0166
3821.00,0.0165
3820.00,0.0164
3819.00,0.0164
3818.00,0.0164
3817.00,0.0164
3816.00,0.0164
3815.00,0.0163
3814.00,0.0164
3813.00,0.0164
3812.00,0.0163
3811.00,0.0161
3810.00,0.0160
3809.00,0.0160
3808.00,0.0161
3807.00,0.0162
3806.00,0.0163
3805.00,0.0164
3804.00,0.0166
3803.00,0.0167
3802.00,0.0166
3801.00,0.0165
3800.00,0.0164
3799.00,0.0163
3798.00,0.0163
3797.00,0.0161
3796.00,0.0159
3795.00,0.0159
3794.00,0.0160
3793.00,0.0160
3792.00,0.0160
3791.00,0.0159
3790.00,0.0159
3789.00,0.0160
3788.00,0.0160
3787.00,0.0161
3786.00,0.0161
3785.00,0.0161
3784.00,0.0160
3783.00,0.0160
3782.00,0.0160
3781.00,0.0159
3780.00,0.0159
3779.00,0.0158
3778.00,0.0157
3777.00,0.0157
3776.00,0.0157
3775.00,0.0157
3774.00,0.0156
3773.00,0.0156
3772.00,0.0157
3771.00,0.0157
3770.00,0.0156
3769.00,0.0156
3768.00,0.0156
3767.00,0.0156
3766.00,0.0157
3765.00,0.0157
3764.00,0.0157
3763.00,0.0157
3762.00,0.0158
3761.00,0.0158
3760.00,0.0157
3759.00,0.0156
3758.00,0.0155
3757.00,0.0155
3756.00,0.0154
3755.00,0.0154
3754.00,0.0154
3753.00,0.0155
3752.00,0.0156
3751.00,0.0158
3750.00,0.0158
3749.00,0.0158
3748.00,0.0159
3747.00,0.0159
3746.00,0.0159
3745.00,0.0158
3744.00,0.0156
3743.00,0.0154
3742.00,0.0155
3741.00,0.0156
3740.00,0.0156
3739.00,0.0156
3738.00,0.0156
3737.00,0.0156
3736.00,0.0155
3735.00,0.0153
3734.00,0.0152
3733.00,0.0151
3732.00,0.0151
3731.00,0.0151
3730.00,0.0152
3729.00,0.0153
3728.00,0.0153
3727.00,0.0152
3726.00,0.0151
3725.00,0.0151
3724.00,0.0150
3723.00,0.0149
3722.00,0.0149
3721.00,0.0150
3720.00,0.0150
3719.00,0.0150
3718.00,0.0150
3717.00,0.0149
3716.00,0.0148
3715.00,0.0148
3714.00,0.0149
3713.00,0.0151
3712.00,0.0152
3711.00,0.0152
3710.00,0.0150
3709.00,0.0149
3708.00,0.0149
3707.00,0.0149
3706.00,0.0151
3705.00,0.0151
3704.00,0.0151
3703.00,0.0150
3702.00,0.0149
3701.00,0.0149
3700.00,0.0149
3699.00,0.0150
3698.00,0.0150
3697.00,0.0149
3696.00,0.0148
3695.00,0.0148
3694.00,0.0147
3693.00,0.0148
3692.00,0.0149
3691.00,0.0150
3690.00,0.0152
3689.00,0.0153
3688.00,0.0152
3687.00,0.0151
3686.00,0.0151
3685.00,0.0150
3684.00,0.0149
3683.00,0.0149
3682.00,0.0148
3681.00,0.0147
3680.00,0.0146
3679.00,0.0144
3678.00,0.0144
3677.00,0.0144
3676.00,0.0145
3675.00,0.0144
3674.00,0.0144
3673.00,0.0146
3672.00,0.0149
3671.00,0.0151
3670.00,0.0151
3669.00,0.0151
3668.00,0.0151
3667.00,0.0152
3666.00,0.0152
3665.00,0.0152
3664.00,0.0152
3663.00,0.0153
3662.00,0.0154
3661.00,0.0155
3660.00,0.0156
3659.00,0.0158
3658.00,0.0160
3657.00,0.0162
3656.00,0.0163
3655.00,0.0164
3654.00,0.0165
3653.00,0.0166
3652.00,0.0167
3651.00,0.0168
3650.00,0.0170
3649.00,0.0171
3648.00,0.0171
3647.00,0.0171
3646.00,0.0172
3645.00,0.0174
3644.00,0.0176
3643.00,0.0178
3642.00,0.0179
3641.00,0.0180
3640.00,0.0181
3639.00,0.0182
3638.00,0.0183
3637.00,0.0184
3636.00,0.0186
3635.00,0.0187
3634.00,0.0188
3633.00,0.0189
3632.00,0.0189
3631.00,0.0191
3630.00,0.0195
3629.00,0.0199
3628.00,0.0201
3627.00,0.0202
3626.00,0.0202
3625.00,0.0202
3624.00,0.0202
3623.00,0.0202
3622.00,0.0203
3621.00,0.0205
3620.00,0.0208
3619.00,0.0210
3618.00,0.0211
3617.00,0.0212
3616.00,0.0213
3615.00,0.0214
3614.00,0.0214
3613.00,0.0214
3612.00,0.0215
3611.00,0.0217
3610.00,0.0219
3609.00,0.0222
3608.00,0.0224
3607.00,0.0225
3606.00,0.0225
3605.00,0.0224
3604.00,0.0224
3603.00,0.0225
3602.00,0.0227
3601.00,0.0229
3600.00,0.0231
3599.00,0.0231
3598.00,0.0231
3597.00,0.0231
3596.00,0.0232
3595.00,0.0233
3594.00,0.0234
3593.00,0.0234
3592.00,0.0234
3591.00,0.0234
3590.00,0.0235
3589.00,0.0237
3588.00,0.0239
3587.00,0.0241
3586.00,0.0242
3585.00,0.0243
3584.00,0.0243
3583.00,0.0244
3582.00,0.0244
3581.00,0.0245
3580.00,0.0245
3579.00,0.0246
3578.00,0.0247
3577.00,0.0247
3576.00,0.0248
3575.00,0.0249
3574.00,0.0250
3573.00,0.0251
3572.00,0.0251
3571.00,0.0251
3570.00,0.0250
3569.00,0.0251
3568.00,0.0254
3567.00,0.0258
3566.00,0.0260
3565.00,0.0261
3564.00,0.0260
3563.00,0.0260
3562.00,0.0260
3561.00,0.0260
3560.00,0.0261
3559.00,0.0262
3558.00,0.0263
3557.00,0.0264
3556.00,0.0265
3555.00,0.0266
3554.00,0.0267
3553.00,0.0268
3552.00,0.0269
3551.00,0.0270
3550.00,0.0271
3549.00,0.0271
3548.00,0.0272
3547.00,0.0273
3546.00,0.0275
3545.00,0.0276
3544.00,0.0276
3543.00,0.0276
3542.00,0.0277
3541.00,0.0277
3540.00,0.0277
3539.00,0.0277
3538.00,0.0276
3537.00,0.0277
3536.00,0.0278
3535.00,0.0279
3534.00,0.0281
3533.00,0.0282
3532.00,0.0283
3531.00,0.0283
3530.00,0.0283
3529.00,0.0283
3528.00,0.0283
3527.00,0.0283
3526.00,0.0284
3525.00,0.0286
3524.00,0.0288
3523.00,0.0290
3522.00,0.0290
3521.00,0.0290
3520.00,0.0289
3519.00,0.0289
3518.00,0.0288
3517.00,0.0289
3516.00,0.0289
3515.00,0.0290
3514.00,0.0291
3513.00,0.0292
3512.00,0.0294
3511.00,0.0295
3510.00,0.0295
3509.00,0.0295
3508.00,0.0295
3507.00,0.0296
3506.00,0.0297
3505.00,0.0298
3504.00,0.0299
3503.00,0.0300
3502.00,0.0301
3501.00,0.0301
3500.00,0.0301
3499.00,0.0302
3498.00,0.0302
3497.00,0.0303
3496.00,0.0304
3495.00,0.0304
3494.00,0.0304
3493.00,0.0304
3492.00,0.0304
3491.00,0.0304
3490.00,0.0304
3489.00,0.0304
3488.00,0.0305
3487.00,0.0306
3486.00,0.0307
3485.00,0.0307
3484.00,0.0308
3483.00,0.0308
3482.00,0.0309
3481.00,0.0310
3480.00,0.0311
3479.00,0.0311
3478.00,0.0311
3477.00,0.0312
3476.00,0.0312
3475.00,0.0313
3474.00,0.0314
3473.00,0.0314
3472.00,0.0315
3471.00,0.0316
3470.00,0.0316
3469.00,0.0316
3468.00,0.0317
3467.00,0.0317
3466.00,0.0318
3465.00,0.0319
3464.00,0.0320
3463.00,0.0320
3462.00,0.0319
3461.00,0.0319
3460.00,0.0319
3459.00,0.0320
3458.00,0.0322
3457.00,0.0322
3456.00,0.0322
3455.00,0.0321
3454.00,0.0321
3453.00,0.0322
3452.00,0.0323
3451.00,0.0324
3450.00,0.0325
3449.00,0.0326
3448.00,0.0327
3447.00,0.0328
3446.00,0.0328
3445.00,0.0329
3444.00,0.0329
3443.00,0.0329
3442.00,0.0328
3441.00,0.0327
3440.00,0.0326
3439.00,0.0326
3438.00,0.0327
3437.00,0.0327
3436.00,0.0328
3435.00,0.0328
3434.00,0.0329
3433.00,0.0329
3432.00,0.0330
3431.00,0.0331
3430.00,0.0332
3429.00,0.0332
3428.00,0.0332
3427.00,0.0332
3426.00,0.0333
3425.00,0.0334
3424.00,0.0335
3423.00,0.0336
3422.00,0.0337
3421.00,0.0337
3420.00,0.0338
3419.00,0.0338
3418.00,0.0338
3417.00,0.0338
3416.00,0.0337
3415.00,0.0337
3414.00,0.0337
3413.00,0.0337
3412.00,0.0338
3411.00,0.0339
3410.00,0.0340
3409.00,0.0340
3408.00,0.0341
3407.00,0.0341
3406.00,0.0341
3405.00,0.0341
3404.00,0.0341
3403.00,0.0341
3402.00,0.0341
3401.00,0.0342
3400.00,0.0342
3399.00,0.0343
3398.00,0.0343
3397.00,0.0343
3396.00,0.0342
3395.00,0.0342
3394.00,0.0342
3393.00,0.0343
3392.00,0.0344
3391.00,0.0345
3390.00,0.0345
3389.00,0.0345
3388.00,0.0345
3387.00,0.0344
3386.00,0.0344
3385.00,0.0345
3384.00,0.0345
3383.00,0.0346
3382.00,0.0346
3381.00,0.0347
3380.00,0.0347
3379.00,0.0348
3378.00,0.0349
3377.00,0.0349
3376.00,0.0349
3375.00,0.0348
3374.00,0.0348
3373.00,0.0348
3372.00,0.0348
3371.00,0.0348
3370.00,0.0348
3369.00,0.0348
3368.00,0.0349
3367.00,0.0349
3366.00,0.0349
3365.00,0.0348
3364.00,0.0348
3363.00,0.0348
3362.00,0.0350
3361.00,0.0351
3360.00,0.0352
3359.00,0.0353
3358.00,0.0352
3357.00,0.0352
3356.00,0.0352
3355.00,0.0352
3354.00,0.0352
3353.00,0.0352
3352.00,0.0352
3351.00,0.0352
3350.00,0.0352
3349.00,0.0352
3348.00,0.0352
3347.00,0.0352
3346.00,0.0351
3345.00,0.0351
3344.00,0.0351
3343.00,0.0351
3342.00,0.0351
3341.00,0.0352
3340.00,0.0352
3339.00,0.0352
3338.00,0.0352
3337.00,0.0352
3336.00,0.0352
3335.00,0.0352
3334.00,0.0353
3333.00,0.0354
3332.00,0.0354
3331.00,0.0353
3330.00,0.0353
3329.00,0.0352
3328.00,0.0352
3327.00,0.0353
3326.00,0.0354
3325.00,0.0355
3324.00,0.0355
3323.00,0.0355
3322.00,0.0354
3321.00,0.0354
3320.00,0.0354
3319.00,0.0354
3318.00,0.0354
3317.00,0.0354
3316.00,0.0354
3315.00,0.0354
3314.00,0.0353
3313.00,0.0353
3312.00,0.0352
3311.00,0.0352
3310.00,0.0353
3309.00,0.0355
3308.00,0.0356
3307.00,0.0356
3306.00,0.0356
3305.00,0.0355
3304.00,0.0354
3303.00,0.0354
3302.00,0.0355
3301.00,0.0355
3300.00,0.0355
3299.00,0.0355
3298.00,0.0355
3297.00,0.0355
3296.00,0.0356
3295.00,0.0357
3294.00,0.0357
3293.00,0.0357
3292.00,0.0356
3291.00,0.0356
3290.00,0.0356
3289.00,0.0356
3288.00,0.0356
3287.00,0.0357
3286.00,0.0357
3285.00,0.0358
3284.00,0.0358
3283.00,0.0358
3282.00,0.0358
3281.00,0.0358
3280.00,0.0358
3279.00,0.0358
3278.00,0.0358
3277.00,0.0358
3276.00,0.0358
3275.00,0.0358
3274.00,0.0358
3273.00,0.0359
3272.00,0.0359
3271.00,0.0359
3270.00,0.0359
3269.00,0.0360
3268.00,0.0360
3267.00,0.0360
3266.00,0.0360
3265.00,0.0359
3264.00,0.0358
3263.00,0.0358
3262.00,0.0358
3261.00,0.0359
3260.00,0.0359
3259.00,0.0360
3258.00,0.0360
3257.00,0.0359
3256.00,0.0359
3255.00,0.0359
3254.00,0.0359
3253.00,0.0360
3252.00,0.0360
3251.00,0.0360
3250.00,0.0360
3249.00,0.0360
3248.00,0.0360
3247.00,0.0360
3246.00,0.0360
3245.00,0.0360
3244.00,0.0361
3243.00,0.0361
3242.00,0.0361
3241.00,0.0361
3240.00,0.0361
3239.00,0.0361
3238.00,0.0362
3237.00,0.0362
3236.00,0.0363
3235.00,0.0364
3234.00,0.0364
3233.00,0.0364
3232.00,0.0364
3231.00,0.0364
3230.00,0.0363
3229.00,0.0363
3228.00,0.0363
3227.00,0.0363
3226.00,0.0363
3225.00,0.0362
3224.00,0.0362
3223.00,0.0362
3222.00,0.0362
3221.00,0.0362
3220.00,0.0362
3219.00,0.0362
3218.00,0.0362
3217.00,0.0363
3216.00,0.0363
3215.00,0.0364
3214.00,0.0364
3213.00,0.0363
3212.00,0.0363
3211.00,0.0362
3210.00,0.0362
3209.00,0.0362
3208.00,0.0363
3207.00,0.0363
3206.00,0.0363
3205.00,0.0364
3204.00,0.0364
3203.00,0.0364
3202.00,0.0364
3201.00,0.0364
3200.00,0.0364
3199.00,0.0364
3198.00,0.0364
3197.00,0.0364
3196.00,0.0364
3195.00,0.0364
3194.00,0.0364
3193.00,0.0364
3192.00,0.0364
3191.00,0.0363
3190.00,0.0363
3189.00,0.0362
3188.00,0.0362
3187.00,0.0361
3186.00,0.0361
3185.00,0.0361
3184.00,0.0362
3183.00,0.0363
3182.00,0.0364
3181.00,0.0365
3180.00,0.0364
3179.00,0.0363
3178.00,0.0362
3177.00,0.0361
3176.00,0.0361
3175.00,0.0361
3174.00,0.0361
3173.00,0.0362
3172.00,0.0362
3171.00,0.0362
3170.00,0.0362
3169.00,0.0362
3168.00,0.0361
3167.00,0.0362
3166.00,0.0362
3165.00,0.0363
3164.00,0.0364
3163.00,0.0364
3162.00,0.0363
3161.00,0.0362
3160.00,0.0361
3159.00,0.0359
3158.00,0.0358
3157.00,0.0358
3156.00,0.0358
3155.00,0.0359
3154.00,0.0360
3153.00,0.0361
3152.00,0.0361
3151.00,0.0360
3150.00,0.0360
3149.00,0.0360
3148.00,0.0360
3147.00,0.0360
3146.00,0.0360
3145.00,0.0360
3144.00,0.0359
3143.00,0.0359
3142.00,0.0359
3141.00,0.0359
3140.00,0.0359
3139.00,0.0359
3138.00,0.0359
3137.00,0.0359
3136.00,0.0359
3135.00,0.0359
3134.00,0.0359
3133.00,0.0359
3132.00,0.0359
3131.00,0.0359
3130.00,0.0359
3129.00,0.0359
3128.00,0.0359
3127.00,0.0359
3126.00,0.0358
3125.00,0.0358
3124.00,0.0358
3123.00,0.0358
3122.00,0.0357
3121.00,0.0357
3120.00,0.0357
3119.00,0.0358
3118.00,0.0358
3117.00,0.0358
3116.00,0.0358
3115.00,0.0358
3114.00,0.0357
3113.00,0.0357
3112.00,0.0357
3111.00,0.0357
3110.00,0.0357
3109.00,0.0357
3108.00,0.0357
3107.00,0.0357
3106.00,0.0357
3105.00,0.0358
3104.00,0.0357
3103.00,0.0357
3102.00,0.0357
3101.00,0.0356
3100.00,0.0356
3099.00,0.0355
3098.00,0.0355
3097.00,0.0355
3096.00,0.0356
3095.00,0.0357
3094.00,0.0358
3093.00,0.0358
3092.00,0.0358
3091.00,0.0357
3090.00,0.0356
3089.00,0.0355
3088.00,0.0354
3087.00,0.0354
3086.00,0.0355
3085.00,0.0355
3084.00,0.0356
3083.00,0.0356
3082.00,0.0356
3081.00,0.0356
3080.00,0.0356
3079.00,0.0356
3078.00,0.0356
3077.00,0.0356
3076.00,0.0355
3075.00,0.0355
3074.00,0.0355
3073.00,0.0355
3072.00,0.0355
3071.00,0.0355
3070.00,0.0355
3069.00,0.0355
3068.00,0.0355
3067.00,0.0355
3066.00,0.0355
3065.00,0.0354
3064.00,0.0353
3063.00,0.0353
3062.00,0.0352
3061.00,0.0353
3060.00,0.0353
3059.00,0.0353
3058.00,0.0353
3057.00,0.0353
3056.00,0.0353
3055.00,0.0352
3054.00,0.0352
3053.00,0.0352
3052.00,0.0352
3051.00,0.0352
3050.00,0.0352
3049.00,0.0353
3048.00,0.0352
3047.00,0.0352
3046.00,0.0352
3045.00,0.0352
3044.00,0.0351
3043.00,0.0350
3042.00,0.0349
3041.00,0.0349
3040.00,0.0348
3039.00,0.0348
3038.00,0.0348
3037.00,0.0349
3036.00,0.0349
3035.00,0.0349
3034.00,0.0349
3033.00,0.0349
3032.00,0.0349
3031.00,0.0348
3030.00,0.0347
3029.00,0.0346
3028.00,0.0346
3027.00,0.0346
3026.00,0.0347
3025.00,0.0347
3024.00,0.0347
3023.00,0.0347
3022.00,0.0347
3021.00,0.0346
3020.00,0.0345
3019.00,0.0344
3018.00,0.0343
3017.00,0.0342
3016.00,0.0342
3015.00,0.0342
3014.00,0.0342
3013.00,0.0341
3012.00,0.0340
3011.00,0.0339
3010.00,0.0338
3009.00,0.0336
3008.00,0.0334
3007.00,0.0333
3006.00,0.0332
3005.00,0.0331
3004.00,0.0330
3003.00,0.0329
3002.00,0.0328
3001.00,0.0326
3000.00,0.0324
2999.00,0.0323
2998.00,0.0321
2997.00,0.0320
2996.00,0.0319
2995.00,0.0318
2994.00,0.0318
2993.00,0.0317
2992.00,0.0316
2991.00,0.0315
2990.00,0.0314
2989.00,0.0314
2988.00,0.0313
2987.00,0.0311
2986.00,0.0308
2985.00,0.0304
2984.00,0.0300
2983.00,0.0296
2982.00,0.0295
2981.00,0.0295
2980.00,0.0297
2979.00,0.0299
2978.00,0.0301
2977.00,0.0303
2976.00,0.0305
2975.00,0.0305
2974.00,0.0305
2973.00,0.0304
2972.00,0.0303
2971.00,0.0303
2970.00,0.0304
2969.00,0.0306
2968.00,0.0308
2967.00,0.0309
2966.00,0.0309
2965.00,0.0310
2964.00,0.0310
2963.00,0.0311
2962.00,0.0312
2961.00,0.0313
2960.00,0.0314
2959.00,0.0314
2958.00,0.0314
2957.00,0.0314
2956.00,0.0315
2955.00,0.0316
2954.00,0.0317
2953.00,0.0318
2952.00,0.0319
2951.00,0.0319
2950.00,0.0320
2949.00,0.0320
2948.00,0.0320
2947.00,0.0320
2946.00,0.0320
2945.00,0.0320
2944.00,0.0321
2943.00,0.0322
2942.00,0.0323
2941.00,0.0323
2940.00,0.0322
2939.00,0.0322
2938.00,0.0321
2937.00,0.0321
2936.00,0.0321
2935.00,0.0322
2934.00,0.0322
2933.00,0.0321
2932.00,0.0321
2931.00,0.0321
2930.00,0.0321
2929.00,0.0321
2928.00,0.0321
2927.00,0.0320
2926.00,0.0320
2925.00,0.0319
2924.00,0.0319
2923.00,0.0319
2922.00,0.0319
2921.00,0.0318
2920.00,0.0317
2919.00,0.0316
2918.00,0.0315
2917.00,0.0314
2916.00,0.0314
2915.00,0.0314
2914.00,0.0315
2913.00,0.0315
2912.00,0.0316
2911.00,0.0316
2910.00,0.0317
2909.00,0.0317
2908.00,0.0317
2907.00,0.0316
2906.00,0.0316
2905.00,0.0315
2904.00,0.0315
2903.00,0.0314
2902.00,0.0314
2901.00,0.0314
2900.00,0.0314
2899.00,0.0314
2898.00,0.0313
2897.00,0.0313
2896.00,0.0313
2895.00,0.0313
2894.00,0.0312
2893.00,0.0312
2892.00,0.0312
2891.00,0.0312
2890.00,0.0311
2889.00,0.0311
2888.00,0.0311
2887.00,0.0311
2886.00,0.0310
2885.00,0.0310
2884.00,0.0309
2883.00,0.0309
2882.00,0.0309
2881.00,0.0310
2880.00,0.0310
2879.00,0.0311
2878.00,0.0312
2877.00,0.0312
2876.00,0.0312
2875.00,0.0311
2874.00,0.0311
2873.00,0.0311
2872.00,0.0310
2871.00,0.0310
2870.00,0.0310
2869.00,0.0310
2868.00,0.0310
2867.00,0.0310
2866.00,0.0310
2865.00,0.0310
2864.00,0.0310
2863.00,0.0310
2862.00,0.0310
2861.00,0.0310
2860.00,0.0311
2859.00,0.0312
2858.00,0.0313
2857.00,0.0313
2856.00,0.0313
2855.00,0.0312
2854.00,0.0311
2853.00,0.0311
2852.00,0.0311
2851.00,0.0311
2850.00,0.0312
2849.00,0.0312
2848.00,0.0311
2847.00,0.0311
2846.00,0.0311
2845.00,0.0311
2844.00,0.0311
2843.00,0.0311
2842.00,0.0311
2841.00,0.0310
2840.00,0.0309
2839.00,0.0309
2838.00,0.0308
2837.00,0.0309
2836.00,0.0310
2835.00,0.0310
2834.00,0.0311
2833.00,0.0310
2832.00,0.0309
2831.00,0.0308
2830.00,0.0307
2829.00,0.0307
2828.00,0.0307
2827.00,0.0308
2826.00,0.0308
2825.00,0.0308
2824.00,0.0308
2823.00,0.0308
2822.00,0.0307
2821.00,0.0306
2820.00,0.0306
2819.00,0.0305
2818.00,0.0304
2817.00,0.0304
2816.00,0.0304
2815.00,0.0304
2814.00,0.0304
2813.00,0.0304
2812.00,0.0303
2811.00,0.0303
2810.00,0.0303
2809.00,0.0303
2808.00,0.0302
2807.00,0.0302
2806.00,0.0303
2805.00,0.0303
2804.00,0.0303
2803.00,0.0303
2802.00,0.0302
2801.00,0.0302
2800.00,0.0302
2799.00,0.0302
2798.00,0.0302
2797.00,0.0301
2796.00,0.0300
2795.00,0.0300
2794.00,0.0300
2793.00,0.0300
2792.00,0.0300
2791.00,0.0300
2790.00,0.0300
2789.00,0.0300
2788.00,0.0300
2787.00,0.0299
2786.00,0.0299
2785.00,0.0298
2784.00,0.0298
2783.00,0.0298
2782.00,0.0297
2781.00,0.0296
2780.00,0.0295
2779.00,0.0295
2778.00,0.0295
2777.00,0.0296
2776.00,0.0296
2775.00,0.0296
2774.00,0.0296
2773.00,0.0295
2772.00,0.0295
2771.00,0.0294
2770.00,0.0293
2769.00,0.0292
2768.00,0.0292
2767.00,0.0292
2766.00,0.0292
2765.00,0.0293
2764.00,0.0293
2763.00,0.0293
2762.00,0.0293
2761.00,0.0293
2760.00,0.0293
2759.00,0.0292
2758.00,0.0292
2757.00,0.0291
2756.00,0.0291
2755.00,0.0290
2754.00,0.0290
2753.00,0.0290
2752.00,0.0290
2751.00,0.0290
2750.00,0.0291
2749.00,0.0291
2748.00,0.0291
2747.00,0.0290
2746.00,0.0290
2745.00,0.0290
2744.00,0.0290
2743.00,0.0289
2742.00,0.0289
2741.00,0.0289
2740.00,0.0288
2739.00,0.0288
2738.00,0.0287
2737.00,0.0287
2736.00,0.0287
2735.00,0.0287
2734.00,0.0287
2733.00,0.0287
2732.00,0.0287
2731.00,0.0287
2730.00,0.0286
2729.00,0.0286
2728.00,0.0285
2727.00,0.0285
2726.00,0.0285
2725.00,0.0284
2724.00,0.0284
2723.00,0.0284
2722.00,0.0284
2721.00,0.0283
2720.00,0.0283
2719.00,0.0283
2718.00,0.0283
2717.00,0.0283
2716.00,0.0283
2715.00,0.0282
2714.00,0.0282
2713.00,0.0282
2712.00,0.0282
2711.00,0.0282
2710.00,0.0282
2709.00,0.0281
2708.00,0.0281
2707.00,0.0280
2706.00,0.0280
2705.00,0.0280
2704.00,0.0280
2703.00,0.0279
2702.00,0.0279
2701.00,0.0279
2700.00,0.0279
2699.00,0.0279
2698.00,0.0278
2697.00,0.0278
2696.00,0.0278
2695.00,0.0278
2694.00,0.0279
2693.00,0.0279
2692.00,0.0279
2691.00,0.0279
2690.00,0.0278
2689.00,0.0278
2688.00,0.0278
2687.00,0.0277
2686.00,0.0278
2685.00,0.0278
2684.00,0.0278
2683.00,0.0277
2682.00,0.0277
2681.00,0.0276
2680.00,0.0276
2679.00,0.0275
2678.00,0.0274
2677.00,0.0274
2676.00,0.0274
2675.00,0.0274
2674.00,0.0274
2673.00,0.0274
2672.00,0.0274
2671.00,0.0274
2670.00,0.0273
2669.00,0.0273
2668.00,0.0273
2667.00,0.0273
2666.00,0.0273
2665.00,0.0273
2664.00,0.0273
2663.00,0.0273
2662.00,0.0273
2661.00,0.0274
2660.00,0.0273
2659.00,0.0273
2658.00,0.0274
2657.00,0.0273
2656.00,0.0273
2655.00,0.0273
2654.00,0.0273
2653.00,0.0273
2652.00,0.0274
2651.00,0.0274
2650.00,0.0274
2649.00,0.0274
2648.00,0.0273
2647.00,0.0273
2646.00,0.0272
2645.00,0.0272
2644.00,0.0272
2643.00,0.0273
2642.00,0.0273
2641.00,0.0273
2640.00,0.0273
2639.00,0.0273
2638.00,0.0273
2637.00,0.0273
2636.00,0.0273
2635.00,0.0273
2634.00,0.0273
2633.00,0.0273
2632.00,0.0273
2631.00,0.0273
2630.00,0.0272
2629.00,0.0272
2628.00,0.0271
2627.00,0.0271
2626.00,0.0271
2625.00,0.0272
2624.00,0.0273
2623.00,0.0273
2622.00,0.0273
2621.00,0.0273
2620.00,0.0273
2619.00,0.0273
2618.00,0.0273
2617.00,0.0273
2616.00,0.0273
2615.00,0.0272
2614.00,0.0272
2613.00,0.0272
2612.00,0.0273
2611.00,0.0273
2610.00,0.0273
2609.00,0.0272
2608.00,0.0271
2607.00,0.0271
2606.00,0.0271
2605.00,0.0272
2604.00,0.0273
2603.00,0.0273
2602.00,0.0273
2601.00,0.0272
2600.00,0.0272
2599.00,0.0271
2598.00,0.0270
2597.00,0.0270
2596.00,0.0270
2595.00,0.0269
2594.00,0.0269
2593.00,0.0270
2592.00,0.0270
2591.00,0.0270
2590.00,0.0270
2589.00,0.0270
2588.00,0.0270
2587.00,0.0270
2586.00,0.0269
2585.00,0.0269
2584.00,0.0269
2583.00,0.0269
2582.00,0.0270
2581.00,0.0271
2580.00,0.0271
2579.00,0.0271
2578.00,0.0271
2577.00,0.0271
2576.00,0.0270
2575.00,0.0269
2574.00,0.0269
2573.00,0.0269
2572.00,0.0269
2571.00,0.0269
2570.00,0.0268
2569.00,0.0267
2568.00,0.0268
2567.00,0.0269
2566.00,0.0271
2565.00,0.0271
2564.00,0.0271
2563.00,0.0271
2562.00,0.0271
2561.00,0.0271
2560.00,0.0271
2559.00,0.0270
2558.00,0.0270
2557.00,0.0269
2556.00,0.0270
2555.00,0.0270
2554.00,0.0270
2553.00,0.0269
2552.00,0.0268
2551.00,0.0267
2550.00,0.0266
2549.00,0.0265
2548.00,0.0264
2547.00,0.0264
2546.00,0.0264
2545.00,0.0265
2544.00,0.0266
2543.00,0.0265
2542.00,0.0264
2541.00,0.0263
2540.00,0.0262
2539.00,0.0261
2538.00,0.0261
2537.00,0.0261
2536.00,0.0261
2535.00,0.0262
2534.00,0.0262
2533.00,0.0263
2532.00,0.0264
2531.00,0.0263
2530.00,0.0263
2529.00,0.0262
2528.00,0.0262
2527.00,0.0261
2526.00,0.0261
2525.00,0.0261
2524.00,0.0261
2523.00,0.0261
2522.00,0.0261
2521.00,0.0262
2520.00,0.0262
2519.00,0.0262
2518.00,0.0263
2517.00,0.0263
2516.00,0.0264
2515.00,0.0263
2514.00,0.0262
2513.00,0.0261
2512.00,0.0261
2511.00,0.0261
2510.00,0.0262
2509.00,0.0263
2508.00,0.0263
2507.00,0.0263
2506.00,0.0262
2505.00,0.0262
2504.00,0.0261
2503.00,0.0261
2502.00,0.0261
2501.00,0.0262
2500.00,0.0262
2499.00,0.0262
2498.00,0.0261
2497.00,0.0261
2496.00,0.0260
2495.00,0.0260
2494.00,0.0261
2493.00,0.0261
2492.00,0.0261
2491.00,0.0261
2490.00,0.0261
2489.00,0.0261
2488.00,0.0261
2487.00,0.0261
2486.00,0.0261
2485.00,0.0260
2484.00,0.0259
2483.00,0.0259
2482.00,0.0258
2481.00,0.0259
2480.00,0.0259
2479.00,0.0259
2478.00,0.0259
2477.00,0.0259
2476.00,0.0258
2475.00,0.0257
2474.00,0.0257
2473.00,0.0257
2472.00,0.0257
2471.00,0.0257
2470.00,0.0257
2469.00,0.0257
2468.00,0.0257
2467.00,0.0256
2466.00,0.0256
2465.00,0.0256
2464.00,0.0255
2463.00,0.0255
2462.00,0.0255
2461.00,0.0255
2460.00,0.0255
2459.00,0.0256
2458.00,0.0256
2457.00,0.0257
2456.00,0.0256
2455.00,0.0256
2454.00,0.0257
2453.00,0.0257
2452.00,0.0258
2451.00,0.0258
2450.00,0.0257
2449.00,0.0256
2448.00,0.0255
2447.00,0.0254
2446.00,0.0254
2445.00,0.0253
2444.00,0.0253
2443.00,0.0252
2442.00,0.0252
2441.00,0.0253
2440.00,0.0253
2439.00,0.0253
2438.00,0.0253
2437.00,0.0253
2436.00,0.0252
2435.00,0.0251
2434.00,0.0250
2433.00,0.0250
2432.00,0.0250
2431.00,0.0250
2430.00,0.0250
2429.00,0.0251
2428.00,0.0251
2427.00,0.0250
2426.00,0.0250
2425.00,0.0249
2424.00,0.0249
2423.00,0.0249
2422.00,0.0249
2421.00,0.0249
2420.00,0.0249
2419.00,0.0248
2418.00,0.0248
2417.00,0.0247
2416.00,0.0247
2415.00,0.0247
2414.00,0.0247
2413.00,0.0247
2412.00,0.0247
2411.00,0.0247
2410.00,0.0247
2409.00,0.0247
2408.00,0.0247
2407.00,0.0246
2406.00,0.0246
2405.00,0.0246
2404.00,0.0246
2403.00,0.0245
2402.00,0.0244
2401.00,0.0244
2400.00,0.0244
2399.00,0.0244
2398.00,0.0243
2397.00,0.0243
2396.00,0.0242
2395.00,0.0242
2394.00,0.0241
2393.00,0.0241
2392.00,0.0241
2391.00,0.0241
2390.00,0.0241
2389.00,0.0240
2388.00,0.0239
2387.00,0.0238
2386.00,0.0237
2385.00,0.0237
2384.00,0.0236
2383.00,0.0236
2382.00,0.0236
2381.00,0.0237
2380.00,0.0238
2379.00,0.0239
2378.00,0.0239
2377.00,0.0239
2376.00,0.0238
2375.00,0.0236
2374.00,0.0235
2373.00,0.0233
2372.00,0.0232
2371.00,0.0231
2370.00,0.0230
2369.00,0.0228
2368.00,0.0227
2367.00,0.0227
2366.00,0.0230
2365.00,0.0233
2364.00,0.0233
2363.00,0.0232
2362.00,0.0231
2361.00,0.0230
2360.00,0.0231
2359.00,0.0231
2358.00,0.0232
2357.00,0.0233
2356.00,0.0233
2355.00,0.0232
2354.00,0.0231
2353.00,0.0230
2352.00,0.0230
2351.00,0.0230
2350.00,0.0230
2349.00,0.0230
2348.00,0.0230
2347.00,0.0230
2346.00,0.0228
2345.00,0.0228
2344.00,0.0230
2343.00,0.0232
2342.00,0.0234
2341.00,0.0234
2340.00,0.0234
2339.00,0.0232
2338.00,0.0229
2337.00,0.0228
2336.00,0.0228
2335.00,0.0229
2334.00,0.0230
2333.00,0.0231
2332.00,0.0230
2331.00,0.0228
2330.00,0.0225
2329.00,0.0224
2328.00,0.0224
2327.00,0.0225
2326.00,0.0227
2325.00,0.0228
2324.00,0.0227
2323.00,0.0227
2322.00,0.0227
2321.00,0.0227
2320.00,0.0227
2319.00,0.0226
2318.00,0.0226
2317.00,0.0226
2316.00,0.0226
2315.00,0.0226
2314.00,0.0226
2313.00,0.0226
2312.00,0.0225
2311.00,0.0226
2310.00,0.0226
2309.00,0.0227
2308.00,0.0228
2307.00,0.0228
2306.00,0.0227
2305.00,0.0227
2304.00,0.0226
2303.00,0.0225
2302.00,0.0223
2301.00,0.0223
2300.00,0.0224
2299.00,0.0224
2298.00,0.0224
2297.00,0.0224
2296.00,0.0224
2295.00,0.0224
2294.00,0.0225
2293.00,0.0227
2292.00,0.0229
2291.00,0.0230
2290.00,0.0229
2289.00,0.0229
2288.00,0.0230
2287.00,0.0230
2286.00,0.0231
2285.00,0.0233
2284.00,0.0234
2283.00,0.0234
2282.00,0.0233
2281.00,0.0232
2280.00,0.0230
2279.00,0.0230
2278.00,0.0230
2277.00,0.0230
2276.00,0.0229
2275.00,0.0228
2274.00,0.0227
2273.00,0.0226
2272.00,0.0226
2271.00,0.0225
2270.00,0.0225
2269.00,0.0225
2268.00,0.0225
2267.00,0.0225
2266.00,0.0225
2265.00,0.0225
2264.00,0.0225
2263.00,0.0226
2262.00,0.0226
2261.00,0.0226
2260.00,0.0227
2259.00,0.0227
2258.00,0.0225
2257.00,0.0223
2256.00,0.0221
2255.00,0.0220
2254.00,0.0221
2253.00,0.0221
2252.00,0.0221
2251.00,0.0221
2250.00,0.0221
2249.00,0.0221
2248.00,0.0221
2247.00,0.0222
2246.00,0.0224
2245.00,0.0225
2244.00,0.0225
2243.00,0.0225
2242.00,0.0225
2241.00,0.0224
2240.00,0.0224
2239.00,0.0224
2238.00,0.0222
2237.00,0.0221
2236.00,0.0220
2235.00,0.0220
2234.00,0.0221
2233.00,0.0222
2232.00,0.0222
2231.00,0.0220
2230.00,0.0219
2229.00,0.0219
2228.00,0.0220
2227.00,0.0221
2226.00,0.0221
2225.00,0.0221
2224.00,0.0220
2223.00,0.0218
2222.00,0.0217
2221.00,0.0216
2220.00,0.0216
2219.00,0.0216
2218.00,0.0216
2217.00,0.0216
2216.00,0.0216
2215.00,0.0217
2214.00,0.0218
2213.00,0.0218
2212.00,0.0217
2211.00,0.0216
2210.00,0.0214
2209.00,0.0214
2208.00,0.0215
2207.00,0.0216
2206.00,0.0216
2205.00,0.0216
2204.00,0.0214
2203.00,0.0214
2202.00,0.0213
2201.00,0.0213
2200.00,0.0212
2199.00,0.0212
2198.00,0.0212
2197.00,0.0213
2196.00,0.0213
2195.00,0.0212
2194.00,0.0212
2193.00,0.0210
2192.00,0.0209
2191.00,0.0207
2190.00,0.0206
2189.00,0.0206
2188.00,0.0207
2187.00,0.0211
2186.00,0.0214
2185.00,0.0216
2184.00,0.0215
2183.00,0.0213
2182.00,0.0211
2181.00,0.0211
2180.00,0.0212
2179.00,0.0214
2178.00,0.0216
2177.00,0.0218
2176.00,0.0218
2175.00,0.0217
2174.00,0.0215
2173.00,0.0213
2172.00,0.0212
2171.00,0.0213
2170.00,0.0216
2169.00,0.0218
2168.00,0.0220
2167.00,0.0220
2166.00,0.0220
2165.00,0.0221
2164.00,0.0222
2163.00,0.0222
2162.00,0.0221
2161.00,0.0219
2160.00,0.0214
2159.00,0.0207
2158.00,0.0202
2157.00,0.0201
2156.00,0.0201
2155.00,0.0203
2154.00,0.0205
2153.00,0.0206
2152.00,0.0205
2151.00,0.0202
2150.00,0.0198
2149.00,0.0197
2148.00,0.0197
2147.00,0.0199
2146.00,0.0202
2145.00,0.0204
2144.00,0.0205
2143.00,0.0206
2142.00,0.0206
2141.00,0.0206
2140.00,0.0206
2139.00,0.0204
2138.00,0.0202
2137.00,0.0199
2136.00,0.0197
2135.00,0.0195
2134.00,0.0195
2133.00,0.0196
2132.00,0.0197
2131.00,0.0198
2130.00,0.0198
2129.00,0.0199
2128.00,0.0200
2127.00,0.0201
2126.00,0.0200
2125.00,0.0200
2124.00,0.0199
2123.00,0.0198
2122.00,0.0197
2121.00,0.0197
2120.00,0.0196
2119.00,0.0196
2118.00,0.0195
2117.00,0.0195
2116.00,0.0194
2115.00,0.0193
2114.00,0.0192
2113.00,0.0191
2112.00,0.0192
2111.00,0.0194
2110.00,0.0196
2109.00,0.0198
2108.00,0.0199
2107.00,0.0200
2106.00,0.0199
2105.00,0.0199
2104.00,0.0198
2103.00,0.0197
2102.00,0.0196
2101.00,0.0195
2100.00,0.0194
2099.00,0.0191
2098.00,0.0189
2097.00,0.0189
2096.00,0.0189
2095.00,0.0190
2094.00,0.0191
2093.00,0.0192
2092.00,0.0192
2091.00,0.0192
2090.00,0.0191
2089.00,0.0191
2088.00,0.0190
2087.00,0.0190
2086.00,0.0190
2085.00,0.0191
2084.00,0.0193
2083.00,0.0193
2082.00,0.0193
2081.00,0.0193
2080.00,0.0193
2079.00,0.0192
2078.00,0.0192
2077.00,0.0192
2076.00,0.0192
2075.00,0.0192
2074.00,0.0192
2073.00,0.0191
2072.00,0.0191
2071.00,0.0192
2070.00,0.0193
2069.00,0.0192
2068.00,0.0190
2067.00,0.0189
2066.00,0.0189
2065.00,0.0189
2064.00,0.0190
2063.00,0.0191
2062.00,0.0191
2061.00,0.0190
2060.00,0.0189
2059.00,0.0187
2058.00,0.0187
2057.00,0.0188
2056.00,0.0189
2055.00,0.0190
2054.00,0.0191
2053.00,0.0193
2052.00,0.0195
2051.00,0.0194
2050.00,0.0192
2049.00,0.0189
2048.00,0.0187
2047.00,0.0186
2046.00,0.0187
2045.00,0.0188
2044.00,0.0189
2043.00,0.0190
2042.00,0.0190
2041.00,0.0189
2040.00,0.0186
2039.00,0.0185
2038.00,0.0186
2037.00,0.0190
2036.00,0.0193
2035.00,0.0193
2034.00,0.0190
2033.00,0.0189
2032.00,0.0190
2031.00,0.0193
2030.00,0.0193
2029.00,0.0191
2028.00,0.0188
2027.00,0.0185
2026.00,0.0184
2025.00,0.0182
2024.00,0.0179
2023.00,0.0177
2022.00,0.0175
2021.00,0.0175
2020.00,0.0174
2019.00,0.0173
2018.00,0.0171
2017.00,0.0171
2016.00,0.0173
2015.00,0.0175
2014.00,0.0177
2013.00,0.0178
2012.00,0.0178
2011.00,0.0178
2010.00,0.0178
2009.00,0.0179
2008.00,0.0179
2007.00,0.0178
2006.00,0.0176
2005.00,0.0174
2004.00,0.0173
2003.00,0.0174
2002.00,0.0177
2001.00,0.0181
2000.00,0.0183
1999.00,0.0181
1998.00,0.0178
1997.00,0.0177
1996.00,0.0179
1995.00,0.0181
1994.00,0.0183
1993.00,0.0183
1992.00,0.0181
1991.00,0.0177
1990.00,0.0173
1989.00,0.0171
1988.00,0.0170
1987.00,0.0170
1986.00,0.0171
1985.00,0.0173
1984.00,0.0174
1983.00,0.0175
1982.00,0.0175
1981.00,0.0174
1980.00,0.0172
1979.00,0.0169
1978.00,0.0164
1977.00,0.0160
1976.00,0.0159
1975.00,0.0160
1974.00,0.0163
1973.00,0.0165
1972.00,0.0164
1971.00,0.0162
1970.00,0.0162
1969.00,0.0165
1968.00,0.0166
1967.00,0.0165
1966.00,0.0162
1965.00,0.0160
1964.00,0.0160
1963.00,0.0161
1962.00,0.0161
1961.00,0.0162
1960.00,0.0162
1959.00,0.0163
1958.00,0.0164
1957.00,0.0164
1956.00,0.0163
1955.00,0.0162
1954.00,0.0162
1953.00,0.0163
1952.00,0.0163
1951.00,0.0161
1950.00,0.0159
1949.00,0.0158
1948.00,0.0158
1947.00,0.0159
1946.00,0.0158
1945.00,0.0157
1944.00,0.0154
1943.00,0.0150
1942.00,0.0148
1941.00,0.0148
1940.00,0.0148
1939.00,0.0148
1938.00,0.0148
1937.00,0.0148
1936.00,0.0148
1935.00,0.0147
1934.00,0.0146
1933.00,0.0145
1932.00,0.0145
1931.00,0.0147
1930.00,0.0148
1929.00,0.0150
1928.00,0.0152
1927.00,0.0152
1926.00,0.0152
1925.00,0.0150
1924.00,0.0149
1923.00,0.0147
1922.00,0.0147
1921.00,0.0148
1920.00,0.0148
1919.00,0.0146
1918.00,0.0144
1917.00,0.0142
1916.00,0.0142
1915.00,0.0143
1914.00,0.0144
1913.00,0.0144
1912.00,0.0144
1911.00,0.0143
1910.00,0.0142
1909.00,0.0140
1908.00,0.0139
1907.00,0.0138
1906.00,0.0138
1905.00,0.0139
1904.00,0.0140
1903.00,0.0140
1902.00,0.0140
1901.00,0.0139
1900.00,0.0138
1899.00,0.0138
1898.00,0.0139
1897.00,0.0138
1896.00,0.0136
1895.00,0.0134
1894.00,0.0133
1893.00,0.0134
1892.00,0.0135
1891.00,0.0135
1890.00,0.0134
1889.00,0.0132
1888.00,0.0131
1887.00,0.0130
1886.00,0.0131
1885.00,0.0131
1884.00,0.0131
1883.00,0.0131
1882.00,0.0130
1881.00,0.0130
1880.00,0.0129
1879.00,0.0129
1878.00,0.0128
1877.00,0.0127
1876.00,0.0126
1875.00,0.0126
1874.00,0.0127
1873.00,0.0128
1872.00,0.0129
1871.00,0.0130
1870.00,0.0128
1869.00,0.0125
1868.00,0.0121
1867.00,0.0119
1866.00,0.0120
1865.00,0.0121
1864.00,0.0121
1863.00,0.0121
1862.00,0.0119
1861.00,0.0118
1860.00,0.0117
1859.00,0.0117
1858.00,0.0117
1857.00,0.0118
1856.00,0.0118
1855.00,0.0118
1854.00,0.0118
1853.00,0.0117
1852.00,0.0117
1851.00,0.0117
1850.00,0.0118
1849.00,0.0117
1848.00,0.0117
1847.00,0.0118
1846.00,0.0119
1845.00,0.0118
1844.00,0.0114
1843.00,0.0111
1842.00,0.0111
1841.00,0.0112
1840.00,0.0113
1839.00,0.0113
1838.00,0.0112
1837.00,0.0112
1836.00,0.0111
1835.00,0.0111
1834.00,0.0111
1833.00,0.0113
1832.00,0.0114
1831.00,0.0114
1830.00,0.0110
1829.00,0.0107
1828.00,0.0106
1827.00,0.0108
1826.00,0.0108
1825.00,0.0107
1824.00,0.0106
1823.00,0.0105
1822.00,0.0106
1821.00,0.0107
1820.00,0.0107
1819.00,0.0106
1818.00,0.0105
1817.00,0.0104
1816.00,0.0104
1815.00,0.0105
1814.00,0.0105
1813.00,0.0106
1812.00,0.0106
1811.00,0.0105
1810.00,0.0104
1809.00,0.0105
1808.00,0.0106
1807.00,0.0107
1806.00,0.0108
1805.00,0.0110
1804.00,0.0111
1803.00,0.0112
1802.00,0.0112
1801.00,0.0111
1800.00,0.0111
1799.00,0.0111
1798.00,0.0113
1797.00,0.0115
1796.00,0.0118
1795.00,0.0120
1794.00,0.0121
1793.00,0.0122
1792.00,0.0121
1791.00,0.0120
1790.00,0.0121
1789.00,0.0124
1788.00,0.0126
1787.00,0.0129
1786.00,0.0131
1785.00,0.0133
1784.00,0.0134
1783.00,0.0137
1782.00,0.0139
1781.00,0.0140
1780.00,0.0140
1779.00,0.0142
1778.00,0.0145
1777.00,0.0148
1776.00,0.0152
1775.00,0.0155
1774.00,0.0157
1773.00,0.0157
1772.00,0.0157
1771.00,0.0157
1770.00,0.0160
1769.00,0.0164
1768.00,0.0167
1767.00,0.0168
1766.00,0.0170
1765.00,0.0174
1764.00,0.0177
1763.00,0.0178
1762.00,0.0178
1761.00,0.0179
1760.00,0.0181
1759.00,0.0184
1758.00,0.0186
1757.00,0.0188
1756.00,0.0190
1755.00,0.0193
1754.00,0.0198
1753.00,0.0201
1752.00,0.0202
1751.00,0.0203
1750.00,0.0203
1749.00,0.0205
1748.00,0.0208
1747.00,0.0211
1746.00,0.0214
1745.00,0.0217
1744.00,0.0220
1743.00,0.0223
1742.00,0.0226
1741.00,0.0230
1740.00,0.0233
1739.00,0.0235
1738.00,0.0238
1737.00,0.0243
1736.00,0.0248
1735.00,0.0252
1734.00,0.0254
1733.00,0.0254
1732.00,0.0256
1731.00,0.0260
1730.00,0.0263
1729.00,0.0267
1728.00,0.0271
1727.00,0.0275
1726.00,0.0279
1725.00,0.0283
1724.00,0.0286
1723.00,0.0290
1722.00,0.0292
1721.00,0.0295
1720.00,0.0298
1719.00,0.0299
1718.00,0.0301
1717.00,0.0303
1716.00,0.0306
1715.00,0.0309
1714.00,0.0312
1713.00,0.0316
1712.00,0.0319
1711.00,0.0321
1710.00,0.0323
1709.00,0.0324
1708.00,0.0326
1707.00,0.0328
1706.00,0.0329
1705.00,0.0331
1704.00,0.0333
1703.00,0.0336
1702.00,0.0338
1701.00,0.0341
1700.00,0.0341
1699.00,0.0340
1698.00,0.0341
1697.00,0.0342
1696.00,0.0342
1695.00,0.0340
1694.00,0.0341
1693.00,0.0343
1692.00,0.0345
1691.00,0.0345
1690.00,0.0345
1689.00,0.0346
1688.00,0.0346
1687.00,0.0346
1686.00,0.0345
1685.00,0.0344
1684.00,0.0343
1683.00,0.0342
1682.00,0.0344
1681.00,0.0346
1680.00,0.0346
1679.00,0.0347
1678.00,0.0349
1677.00,0.0352
1676.00,0.0354
1675.00,0.0355
1674.00,0.0355
1673.00,0.0355
1672.00,0.0354
1671.00,0.0354
1670.00,0.0354
1669.00,0.0354
1668.00,0.0355
1667.00,0.0356
1666.00,0.0357
1665.00,0.0357
1664.00,0.0358
1663.00,0.0359
1662.00,0.0359
1661.00,0.0361
1660.00,0.0363
1659.00,0.0365
1658.00,0.0367
1657.00,0.0367
1656.00,0.0367
1655.00,0.0365
1654.00,0.0367
1653.00,0.0369
1652.00,0.0369
1651.00,0.0372
1650.00,0.0375
1649.00,0.0377
1648.00,0.0378
1647.00,0.0381
1646.00,0.0383
1645.00,0.0386
1644.00,0.0390
1643.00,0.0392
1642.00,0.0394
1641.00,0.0395
1640.00,0.0397
1639.00,0.0398
1638.00,0.0399
1637.00,0.0402
1636.00,0.0407
1635.00,0.0411
1634.00,0.0413
1633.00,0.0415
1632.00,0.0415
1631.00,0.0416
1630.00,0.0418
1629.00,0.0421
1628.00,0.0424
1627.00,0.0427
1626.00,0.0430
1625.00,0.0433
1624.00,0.0437
1623.00,0.0440
1622.00,0.0441
1621.00,0.0443
1620.00,0.0444
1619.00,0.0445
1618.00,0.0446
1617.00,0.0449
1616.00,0.0451
1615.00,0.0454
1614.00,0.0456
1613.00,0.0458
1612.00,0.0459
1611.00,0.0461
1610.00,0.0463
1609.00,0.0465
1608.00,0.0466
1607.00,0.0469
1606.00,0.0471
1605.00,0.0474
1604.00,0.0475
1603.00,0.0476
1602.00,0.0477
1601.00,0.0477
1600.00,0.0478
1599.00,0.0480
1598.00,0.0482
1597.00,0.0484
1596.00,0.0485
1595.00,0.0487
1594.00,0.0488
1593.00,0.0490
1592.00,0.0491
1591.00,0.0492
1590.00,0.0493
1589.00,0.0494
1588.00,0.0496
1587.00,0.0498
1586.00,0.0500
1585.00,0.0501
1584.00,0.0501
1583.00,0.0502
1582.00,0.0503
1581.00,0.0503
1580.00,0.0503
1579.00,0.0503
1578.00,0.0503
1577.00,0.0505
1576.00,0.0506
1575.00,0.0507
1574.00,0.0507
1573.00,0.0507
1572.00,0.0506
1571.00,0.0506
1570.00,0.0507
1569.00,0.0508
1568.00,0.0509
1567.00,0.0509
1566.00,0.0508
1565.00,0.0506
1564.00,0.0504
1563.00,0.0502
1562.00,0.0499
1561.00,0.0494
1560.00,0.0495
1559.00,0.0503
1558.00,0.0504
1557.00,0.0503
1556.00,0.0502
1555.00,0.0501
1554.00,0.0499
1553.00,0.0498
1552.00,0.0497
1551.00,0.0496
1550.00,0.0493
1549.00,0.0491
1548.00,0.0489
1547.00,0.0487
1546.00,0.0485
1545.00,0.0482
1544.00,0.0479
1543.00,0.0474
1542.00,0.0470
1541.00,0.0467
1540.00,0.0466
1539.00,0.0464
1538.00,0.0463
1537.00,0.0464
1536.00,0.0463
1535.00,0.0462
1534.00,0.0461
1533.00,0.0459
1532.00,0.0458
1531.00,0.0456
1530.00,0.0454
1529.00,0.0452
1528.00,0.0450
1527.00,0.0448
1526.00,0.0446
1525.00,0.0444
1524.00,0.0442
1523.00,0.0440
1522.00,0.0438
1521.00,0.0436
1520.00,0.0435
1519.00,0.0434
1518.00,0.0433
1517.00,0.0431
1516.00,0.0429
1515.00,0.0428
1514.00,0.0427
1513.00,0.0426
1512.00,0.0423
1511.00,0.0421
1510.00,0.0417
1509.00,0.0414
1508.00,0.0413
1507.00,0.0413
1506.00,0.0411
1505.00,0.0410
1504.00,0.0411
1503.00,0.0410
1502.00,0.0408
1501.00,0.0406
1500.00,0.0405
1499.00,0.0405
1498.00,0.0405
1497.00,0.0406
1496.00,0.0406
1495.00,0.0405
1494.00,0.0403
1493.00,0.0402
1492.00,0.0401
1491.00,0.0400
1490.00,0.0400
1489.00,0.0400
1488.00,0.0399
1487.00,0.0399
1486.00,0.0399
1485.00,0.0399
1484.00,0.0399
1483.00,0.0399
1482.00,0.0399
1481.00,0.0400
1480.00,0.0400
1479.00,0.0400
1478.00,0.0400
1477.00,0.0401
1476.00,0.0401
1475.00,0.0402
1474.00,0.0403
1473.00,0.0404
1472.00,0.0406
1471.00,0.0408
1470.00,0.0410
1469.00,0.0411
1468.00,0.0412
1467.00,0.0412
1466.00,0.0413
1465.00,0.0414
1464.00,0.0414
1463.00,0.0414
1462.00,0.0413
1461.00,0.0412
1460.00,0.0412
1459.00,0.0413
1458.00,0.0416
1457.00,0.0420
1456.00,0.0421
1455.00,0.0422
1454.00,0.0422
1453.00,0.0423
1452.00,0.0424
1451.00,0.0426
1450.00,0.0427
1449.00,0.0430
1448.00,0.0433
1447.00,0.0435
1446.00,0.0435
1445.00,0.0436
1444.00,0.0436
1443.00,0.0436
1442.00,0.0436
1441.00,0.0437
1440.00,0.0438
1439.00,0.0440
1438.00,0.0443
1437.00,0.0446
1436.00,0.0448
1435.00,0.0448
1434.00,0.0448
1433.00,0.0447
1432.00,0.0447
1431.00,0.0448
1430.00,0.0448
1429.00,0.0449
1428.00,0.0449
1427.00,0.0450
1426.00,0.0450
1425.00,0.0451
1424.00,0.0451
1423.00,0.0452
1422.00,0.0453
1421.00,0.0454
1420.00,0.0455
1419.00,0.0457
1418.00,0.0458
1417.00,0.0460
1416.00,0.0461
1415.00,0.0461
1414.00,0.0460
1413.00,0.0459
1412.00,0.0459
1411.00,0.0459
1410.00,0.0459
1409.00,0.0459
1408.00,0.0460
1407.00,0.0460
1406.00,0.0460
1405.00,0.0460
1404.00,0.0460
1403.00,0.0460
1402.00,0.0459
1401.00,0.0459
1400.00,0.0459
1399.00,0.0459
1398.00,0.0459
1397.00,0.0459
1396.00,0.0460
1395.00,0.0461
1394.00,0.0462
1393.00,0.0462
1392.00,0.0463
1391.00,0.0463
1390.00,0.0463
1389.00,0.0463
1388.00,0.0464
1387.00,0.0465
1386.00,0.0465
1385.00,0.0465
1384.00,0.0465
1383.00,0.0466
1382.00,0.0467
1381.00,0.0468
1380.00,0.0469
1379.00,0.0471
1378.00,0.0472
1377.00,0.0473
1376.00,0.0474
1375.00,0.0475
1374.00,0.0476
1373.00,0.0477
1372.00,0.0478
1371.00,0.0479
1370.00,0.0479
1369.00,0.0480
1368.00,0.0481
1367.00,0.0482
1366.00,0.0482
1365.00,0.0482
1364.00,0.0482
1363.00,0.0483
1362.00,0.0485
1361.00,0.0486
1360.00,0.0487
1359.00,0.0487
1358.00,0.0488
1357.00,0.0489
1356.00,0.0489
1355.00,0.0490
1354.00,0.0490
1353.00,0.0490
1352.00,0.0490
1351.00,0.0489
1350.00,0.0489
1349.00,0.0489
1348.00,0.0489
1347.00,0.0489
1346.00,0.0490
1345.00,0.0489
1344.00,0.0489
1343.00,0.0488
1342.00,0.0488
1341.00,0.0488
1340.00,0.0489
1339.00,0.0490
1338.00,0.0491
1337.00,0.0491
1336.00,0.0491
1335.00,0.0491
1334.00,0.0491
1333.00,0.0490
1332.00,0.0490
1331.00,0.0489
1330.00,0.0489
1329.00,0.0489
1328.00,0.0489
1327.00,0.0489
1326.00,0.0488
1325.00,0.0488
1324.00,0.0488
1323.00,0.0488
1322.00,0.0489
1321.00,0.0489
1320.00,0.0489
1319.00,0.0489
1318.00,0.0488
1317.00,0.0486
1316.00,0.0485
1315.00,0.0484
1314.00,0.0484
1313.00,0.0485
1312.00,0.0486
1311.00,0.0487
1310.00,0.0487
1309.00,0.0487
1308.00,0.0487
1307.00,0.0486
1306.00,0.0486
1305.00,0.0486
1304.00,0.0487
1303.00,0.0487
1302.00,0.0488
1301.00,0.0489
1300.00,0.0489
1299.00,0.0488
1298.00,0.0488
1297.00,0.0487
1296.00,0.0487
1295.00,0.0487
1294.00,0.0488
1293.00,0.0488
1292.00,0.0489
1291.00,0.0490
1290.00,0.0490
1289.00,0.0491
1288.00,0.0491
1287.00,0.0490
1286.00,0.0490
1285.00,0.0490
1284.00,0.0491
1283.00,0.0491
1282.00,0.0492
1281.00,0.0492
1280.00,0.0491
1279.00,0.0491
1278.00,0.0490
1277.00,0.0489
1276.00,0.0489
1275.00,0.0490
1274.00,0.0490
1273.00,0.0490
1272.00,0.0490
1271.00,0.0490
1270.00,0.0490
1269.00,0.0490
1268.00,0.0490
1267.00,0.0491
1266.00,0.0491
1265.00,0.0491
1264.00,0.0491
1263.00,0.0490
1262.00,0.0489
1261.00,0.0489
1260.00,0.0489
1259.00,0.0490
1258.00,0.0491
1257.00,0.0490
1256.00,0.0489
1255.00,0.0489
1254.00,0.0488
1253.00,0.0489
1252.00,0.0490
1251.00,0.0490
1250.00,0.0489
1249.00,0.0489
1248.00,0.0490
1247.00,0.0491
1246.00,0.0492
1245.00,0.0493
1244.00,0.0493
1243.00,0.0493
1242.00,0.0493
1241.00,0.0492
1240.00,0.0492
1239.00,0.0492
1238.00,0.0492
1237.00,0.0493
1236.00,0.0493
1235.00,0.0493
1234.00,0.0494
1233.00,0.0494
1232.00,0.0494
1231.00,0.0494
1230.00,0.0494
1229.00,0.0493
1228.00,0.0493
1227.00,0.0494
1226.00,0.0493
1225.00,0.0493
1224.00,0.0492
1223.00,0.0492
1222.00,0.0492
1221.00,0.0493
1220.00,0.0493
1219.00,0.0494
1218.00,0.0493
1217.00,0.0493
1216.00,0.0493
1215.00,0.0493
1214.00,0.0492
1213.00,0.0492
1212.00,0.0492
1211.00,0.0493
1210.00,0.0493
1209.00,0.0494
1208.00,0.0493
1207.00,0.0492
1206.00,0.0491
1205.00,0.0490
1204.00,0.0490
1203.00,0.0490
1202.00,0.0490
1201.00,0.0491
1200.00,0.0491
1199.00,0.0490
1198.00,0.0489
1197.00,0.0488
1196.00,0.0488
1195.00,0.0488
1194.00,0.0487
1193.00,0.0487
1192.00,0.0486
1191.00,0.0485
1190.00,0.0484
1189.00,0.0482
1188.00,0.0481
1187.00,0.0480
1186.00,0.0480
1185.00,0.0480
1184.00,0.0479
1183.00,0.0478
1182.00,0.0477
1181.00,0.0476
1180.00,0.0475
1179.00,0.0474
1178.00,0.0473
1177.00,0.0472
1176.00,0.0472
1175.00,0.0471
1174.00,0.0471
1173.00,0.0471
1172.00,0.0470
1171.00,0.0469
1170.00,0.0468
1169.00,0.0467
1168.00,0.0467
1167.00,0.0466
1166.00,0.0465
1165.00,0.0464
1164.00,0.0464
1163.00,0.0464
1162.00,0.0464
1161.00,0.0464
1160.00,0.0464
1159.00,0.0464
1158.00,0.0463
1157.00,0.0463
1156.00,0.0462
1155.00,0.0463
1154.00,0.0462
1153.00,0.0461
1152.00,0.0460
1151.00,0.0459
1150.00,0.0458
1149.00,0.0457
1148.00,0.0457
1147.00,0.0457
1146.00,0.0456
1145.00,0.0456
1144.00,0.0457
1143.00,0.0458
1142.00,0.0459
1141.00,0.0460
1140.00,0.0460
1139.00,0.0459
1138.00,0.0458
1137.00,0.0458
1136.00,0.0458
1135.00,0.0458
1134.00,0.0459
1133.00,0.0459
1132.00,0.0459
1131.00,0.0459
1130.00,0.0460
1129.00,0.0461
1128.00,0.0461
1127.00,0.0460
1126.00,0.0457
1125.00,0.0454
1124.00,0.0453
1123.00,0.0455
1122.00,0.0459
1121.00,0.0462
1120.00,0.0464
1119.00,0.0465
1118.00,0.0464
1117.00,0.0464
1116.00,0.0464
1115.00,0.0466
1114.00,0.0466
1113.00,0.0466
1112.00,0.0465
1111.00,0.0466
1110.00,0.0467
1109.00,0.0467
1108.00,0.0467
1107.00,0.0465
1106.00,0.0464
1105.00,0.0463
1104.00,0.0463
1103.00,0.0464
1102.00,0.0465
1101.00,0.0466
1100.00,0.0466
1099.00,0.0466
1098.00,0.0466
1097.00,0.0466
1096.00,0.0465
1095.00,0.0465
1094.00,0.0464
1093.00,0.0464
1092.00,0.0465
1091.00,0.0465
1090.00,0.0464
1089.00,0.0462
1088.00,0.0460
1087.00,0.0460
1086.00,0.0462
1085.00,0.0464
1084.00,0.0466
1083.00,0.0466
1082.00,0.0466
1081.00,0.0466
1080.00,0.0467
1079.00,0.0468
1078.00,0.0471
1077.00,0.0473
1076.00,0.0473
1075.00,0.0470
1074.00,0.0467
1073.00,0.0466
1072.00,0.0466
1071.00,0.0466
1070.00,0.0466
1069.00,0.0465
1068.00,0.0464
1067.00,0.0465
1066.00,0.0466
1065.00,0.0467
1064.00,0.0468
1063.00,0.0469
1062.00,0.0469
1061.00,0.0469
1060.00,0.0467
1059.00,0.0465
1058.00,0.0465
1057.00,0.0466
1056.00,0.0468
1055.00,0.0469
1054.00,0.0470
1053.00,0.0471
1052.00,0.0471
1051.00,0.0472
1050.00,0.0473
1049.00,0.0475
1048.00,0.0476
1047.00,0.0477
1046.00,0.0476
1045.00,0.0477
1044.00,0.0477
1043.00,0.0477
1042.00,0.0476
1041.00,0.0473
1040.00,0.0470
1039.00,0.0470
1038.00,0.0470
1037.00,0.0471
1036.00,0.0471
1035.00,0.0471
1034.00,0.0470
1033.00,0.0469
1032.00,0.0468
1031.00,0.0468
1030.00,0.0467
1029.00,0.0465
1028.00,0.0464
1027.00,0.0463
1026.00,0.0463
1025.00,0.0463
1024.00,0.0463
1023.00,0.0462
1022.00,0.0461
1021.00,0.0459
1020.00,0.0459
1019.00,0.0458
1018.00,0.0457
1017.00,0.0456
1016.00,0.0456
1015.00,0.0458
1014.00,0.0459
1013.00,0.0459
1012.00,0.0459
1011.00,0.0458
1010.00,0.0457
1009.00,0.0457
1008.00,0.0455
1007.00,0.0453
1006.00,0.0452
1005.00,0.0451
1004.00,0.0452
1003.00,0.0453
1002.00,0.0453
1001.00,0.0452
1000.00,0.0450
999.00,0.0448
998.00,0.0446
997.00,0.0444
996.00,0.0445
995.00,0.0445
994.00,0.0445
993.00,0.0443
992.00,0.0441
991.00,0.0440
990.00,0.0439
989.00,0.0438
988.00,0.0438
987.00,0.0439
986.00,0.0440
985.00,0.0440
984.00,0.0439
983.00,0.0438
982.00,0.0436
981.00,0.0435
980.00,0.0436
979.00,0.0436
978.00,0.0435
977.00,0.0432
976.00,0.0428
975.00,0.0427
974.00,0.0427
973.00,0.0427
972.00,0.0428
971.00,0.0426
970.00,0.0424
969.00,0.0422
968.00,0.0421
967.00,0.0420
966.00,0.0420
965.00,0.0419
964.00,0.0418
963.00,0.0419
962.00,0.0420
961.00,0.0421
960.00,0.0420
959.00,0.0419
958.00,0.0417
957.00,0.0416
956.00,0.0416
955.00,0.0416
954.00,0.0416
953.00,0.0417
952.00,0.0417
951.00,0.0418
950.00,0.0420
949.00,0.0420
948.00,0.0420
947.00,0.0419
946.00,0.0417
945.00,0.0416
944.00,0.0416
943.00,0.0415
942.00,0.0415
941.00,0.0415
940.00,0.0417
939.00,0.0419
938.00,0.0421
937.00,0.0421
936.00,0.0420
935.00,0.0419
934.00,0.0419
933.00,0.0421
932.00,0.0423
931.00,0.0426
930.00,0.0428
929.00,0.0429
928.00,0.0430
927.00,0.0431
926.00,0.0432
925.00,0.0432
924.00,0.0433
923.00,0.0434
922.00,0.0434
921.00,0.0434
920.00,0.0434
919.00,0.0435
918.00,0.0436
917.00,0.0438
916.00,0.0440
915.00,0.0442
914.00,0.0442
913.00,0.0442
912.00,0.0441
911.00,0.0441
910.00,0.0440
909.00,0.0439
908.00,0.0437
907.00,0.0437
906.00,0.0438
905.00,0.0441
904.00,0.0445
903.00,0.0449
902.00,0.0451
901.00,0.0451
900.00,0.0450
899.00,0.0449
898.00,0.0450
897.00,0.0451
896.00,0.0452
895.00,0.0452
894.00,0.0452
893.00,0.0451
892.00,0.0450
891.00,0.0450
890.00,0.0451
889.00,0.0452
888.00,0.0453
887.00,0.0453
886.00,0.0451
885.00,0.0450
884.00,0.0451
883.00,0.0454
882.00,0.0457
881.00,0.0458
880.00,0.0458
879.00,0.0456
878.00,0.0454
877.00,0.0452
876.00,0.0450
875.00,0.0450
874.00,0.0450
873.00,0.0451
872.00,0.0451
871.00,0.0451
870.00,0.0452
869.00,0.0452
868.00,0.0452
867.00,0.0451
866.00,0.0451
865.00,0.0452
864.00,0.0454
863.00,0.0456
862.00,0.0457
861.00,0.0458
860.00,0.0458
859.00,0.0457
858.00,0.0455
857.00,0.0453
856.00,0.0452
855.00,0.0453
854.00,0.0456
853.00,0.0458
852.00,0.0458
851.00,0.0459
850.00,0.0460
849.00,0.0462
848.00,0.0463
847.00,0.0465
846.00,0.0467
845.00,0.0469
844.00,0.0470
843.00,0.0469
842.00,0.0467
841.00,0.0464
840.00,0.0462
839.00,0.0461
838.00,0.0461
837.00,0.0463
836.00,0.0466
835.00,0.0468
834.00,0.0468
833.00,0.0468
832.00,0.0468
831.00,0.0468
830.00,0.0468
829.00,0.0468
828.00,0.0469
827.00,0.0471
826.00,0.0474
825.00,0.0477
824.00,0.0480
823.00,0.0482
822.00,0.0483
821.00,0.0485
820.00,0.0486
819.00,0.0488
818.00,0.0488
817.00,0.0486
816.00,0.0483
815.00,0.0482
814.00,0.0483
813.00,0.0485
812.00,0.0487
811.00,0.0489
810.00,0.0490
809.00,0.0491
808.00,0.0492
807.00,0.0492
806.00,0.0492
805.00,0.0491
804.00,0.0491
803.00,0.0492
802.00,0.0493
801.00,0.0496
800.00,0.0499
799.00,0.0502
798.00,0.0503
797.00,0.0502
796.00,0.0501
795.00,0.0501
794.00,0.0502
793.00,0.0503
792.00,0.0505
791.00,0.0506
790.00,0.0507
789.00,0.0508
788.00,0.0508
787.00,0.0510
786.00,0.0513
785.00,0.0516
784.00,0.0519
783.00,0.0519
782.00,0.0518
781.00,0.0517
780.00,0.0516
779.00,0.0516
778.00,0.0518
777.00,0.0521
776.00,0.0523
775.00,0.0523
774.00,0.0522
773.00,0.0519
772.00,0.0518
771.00,0.0519
770.00,0.0520
769.00,0.0521
768.00,0.0522
767.00,0.0523
766.00,0.0523
765.00,0.0524
764.00,0.0525
763.00,0.0524
762.00,0.0522
761.00,0.0518
760.00,0.0517
759.00,0.0519
758.00,0.0522
757.00,0.0525
756.00,0.0527
755.00,0.0527
754.00,0.0526
753.00,0.0525
752.00,0.0526
751.00,0.0528
750.00,0.0530
749.00,0.0532
748.00,0.0534
747.00,0.0536
746.00,0.0536
745.00,0.0535
744.00,0.0533
743.00,0.0531
742.00,0.0530
741.00,0.0529
740.00,0.0528
739.00,0.0527
738.00,0.0526
737.00,0.0526
736.00,0.0526
735.00,0.0527
734.00,0.0528
733.00,0.0529
732.00,0.0530
731.00,0.0530
730.00,0.0531
729.00,0.0533
728.00,0.0537
727.00,0.0541
726.00,0.0545
725.00,0.0546
724.00,0.0545
723.00,0.0544
722.00,0.0544
721.00,0.0545
720.00,0.0545
719.00,0.0545
718.00,0.0545
717.00,0.0544
716.00,0.0543
715.00,0.0543
714.00,0.0544
713.00,0.0546
712.00,0.0548
711.00,0.0550
710.00,0.0549
709.00,0.0549
708.00,0.0549
707.00,0.0549
706.00,0.0549
705.00,0.0550
704.00,0.0552
703.00,0.0554
702.00,0.0556
701.00,0.0555
700.00,0.0555
699.00,0.0555
698.00,0.0556
697.00,0.0557
696.00,0.0558
695.00,0.0560
694.00,0.0564
693.00,0.0568
692.00,0.0571
691.00,0.0574
690.00,0.0576
689.00,0.0576
688.00,0.0576
687.00,0.0576
686.00,0.0576
685.00,0.0575
684.00,0.0573
683.00,0.0569
682.00,0.0566
681.00,0.0566
680.00,0.0569
679.00,0.0573
678.00,0.0575
677.00,0.0576
676.00,0.0576
675.00,0.0577
674.00,0.0579
673.00,0.0582
672.00,0.0585
671.00,0.0589
670.00,0.0593
669.00,0.0602
668.00,0.0612
667.00,0.0615
666.00,0.0613
665.00,0.0609
664.00,0.0604
663.00,0.0599
662.00,0.0593
661.00,0.0585
660.00,0.0578
659.00,0.0574
658.00,0.0578
657.00,0.0589
656.00,0.0600
655.00,0.0606
654.00,0.0605
653.00,0.0601
652.00,0.0598
651.00,0.0598
650.00,0.0600
