Created as New Dataset,Monday, April 03 2023
cm-1,A
4000.00,0.0137
3999.00,0.0137
3998.00,0.0137
3997.00,0.0137
3996.00,0.0136
3995.00,0.0136
3994.00,0.0136
3993.00,0.0135
3992.00,0.0135
3991.00,0.0135
3990.00,0.0135
3989.00,0.0134
3988.00,0.0134
3987.00,0.0134
3986.00,0.0135
3985.00,0.0135
3984.00,0.0135
3983.00,0.0135
3982.00,0.0135
3981.00,0.0135
3980.00,0.0135
3979.00,0.0135
3978.00,0.0134
3977.00,0.0134
3976.00,0.0133
3975.00,0.0133
3974.00,0.0132
3973.00,0.0133
3972.00,0.0133
3971.00,0.0134
3970.00,0.0134
3969.00,0.0134
3968.00,0.0134
3967.00,0.0133
3966.00,0.0132
3965.00,0.0132
3964.00,0.0133
3963.00,0.0134
3962.00,0.0134
3961.00,0.0134
3960.00,0.0133
3959.00,0.0133
3958.00,0.0132
3957.00,0.0132
3956.00,0.0132
3955.00,0.0132
3954.00,0.0132
3953.00,0.0132
3952.00,0.0132
3951.00,0.0132
3950.00,0.0133
3949.00,0.0133
3948.00,0.0134
3947.00,0.0134
3946.00,0.0134
3945.00,0.0133
3944.00,0.0132
3943.00,0.0131
3942.00,0.0130
3941.00,0.0130
3940.00,0.0130
3939.00,0.0131
3938.00,0.0131
3937.00,0.0131
3936.00,0.0131
3935.00,0.0131
3934.00,0.0131
3933.00,0.0131
3932.00,0.0130
3931.00,0.0130
3930.00,0.0130
3929.00,0.0130
3928.00,0.0130
3927.00,0.0131
3926.00,0.0131
3925.00,0.0130
3924.00,0.0130
3923.00,0.0130
3922.00,0.0130
3921.00,0.0130
3920.00,0.0130
3919.00,0.0130
3918.00,0.0130
3917.00,0.0130
3916.00,0.0130
3915.00,0.0129
3914.00,0.0129
3913.00,0.0129
3912.00,0.0128
3911.00,0.0128
3910.00,0.0128
3909.00,0.0128
3908.00,0.0128
3907.00,0.0128
3906.00,0.0127
3905.00,0.0127
3904.00,0.0128
3903.00,0.0128
3902.00,0.0129
3901.00,0.0130
3900.00,0.0130
3899.00,0.0129
3898.00,0.0129
3897.00,0.0128
3896.00,0.0129
3895.00,0.0128
3894.00,0.0128
3893.00,0.0128
3892.00,0.0127
3891.00,0.0126
3890.00,0.0125
3889.00,0.0125
3888.00,0.0125
3887.00,0.0125
3886.00,0.0125
3885.00,0.0125
3884.00,0.0125
3883.00,0.0125
3882.00,0.0125
3881.00,0.0124
3880.00,0.0123
3879.00,0.0123
3878.00,0.0125
3877.00,0.0127
3876.00,0.0128
3875.00,0.0127
3874.00,0.0126
3873.00,0.0125
3872.00,0.0125
3871.00,0.0126
3870.00,0.0126
3869.00,0.0125
3868.00,0.0125
3867.00,0.0126
3866.00,0.0126
3865.00,0.0126
3864.00,0.0126
3863.00,0.0126
3862.00,0.0126
3861.00,0.0127
3860.00,0.0126
3859.00,0.0126
3858.00,0.0124
3857.00,0.0121
3856.00,0.0119
3855.00,0.0119
3854.00,0.0120
3853.00,0.0121
3852.00,0.0120
3851.00,0.0120
3850.00,0.0121
3849.00,0.0121
3848.00,0.0122
3847.00,0.0122
3846.00,0.0123
3845.00,0.0123
3844.00,0.0124
3843.00,0.0124
3842.00,0.0124
3841.00,0.0124
3840.00,0.0125
3839.00,0.0125
3838.00,0.0124
3837.00,0.0122
3836.00,0.0122
3835.00,0.0122
3834.00,0.0123
3833.00,0.0123
3832.00,0.0123
3831.00,0.0123
3830.00,0.0123
3829.00,0.0123
3828.00,0.0123
3827.00,0.0122
3826.00,0.0121
3825.00,0.0121
3824.00,0.0122
3823.00,0.0124
3822.00,0.0125
3821.00,0.0124
3820.00,0.0122
3819.00,0.0122
3818.00,0.0121
3817.00,0.0120
3816.00,0.0119
3815.00,0.0118
3814.00,0.0119
3813.00,0.0119
3812.00,0.0119
3811.00,0.0119
3810.00,0.0118
3809.00,0.0118
3808.00,0.0119
3807.00,0.0120
3806.00,0.0120
3805.00,0.0122
3804.00,0.0124
3803.00,0.0124
3802.00,0.0124
3801.00,0.0122
3800.00,0.0121
3799.00,0.0120
3798.00,0.0119
3797.00,0.0118
3796.00,0.0117
3795.00,0.0116
3794.00,0.0117
3793.00,0.0117
3792.00,0.0118
3791.00,0.0117
3790.00,0.0118
3789.00,0.0118
3788.00,0.0118
3787.00,0.0119
3786.00,0.0119
3785.00,0.0119
3784.00,0.0118
3783.00,0.0118
3782.00,0.0118
3781.00,0.0118
3780.00,0.0117
3779.00,0.0116
3778.00,0.0116
3777.00,0.0116
3776.00,0.0116
3775.00,0.0116
3774.00,0.0116
3773.00,0.0115
3772.00,0.0116
3771.00,0.0116
3770.00,0.0115
3769.00,0.0115
3768.00,0.0115
3767.00,0.0115
3766.00,0.0115
3765.00,0.0115
3764.00,0.0115
3763.00,0.0116
3762.00,0.0116
3761.00,0.0116
3760.00,0.0116
3759.00,0.0115
3758.00,0.0114
3757.00,0.0114
3756.00,0.0113
3755.00,0.0113
3754.00,0.0112
3753.00,0.0112
3752.00,0.0114
3751.00,0.0115
3750.00,0.0116
3749.00,0.0115
3748.00,0.0115
3747.00,0.0116
3746.00,0.0115
3745.00,0.0114
3744.00,0.0111
3743.00,0.0110
3742.00,0.0111
3741.00,0.0113
3740.00,0.0114
3739.00,0.0114
3738.00,0.0115
3737.00,0.0115
3736.00,0.0115
3735.00,0.0114
3734.00,0.0112
3733.00,0.0111
3732.00,0.0111
3731.00,0.0110
3730.00,0.0111
3729.00,0.0112
3728.00,0.0112
3727.00,0.0111
3726.00,0.0111
3725.00,0.0110
3724.00,0.0110
3723.00,0.0109
3722.00,0.0109
3721.00,0.0110
3720.00,0.0110
3719.00,0.0110
3718.00,0.0110
3717.00,0.0109
3716.00,0.0109
3715.00,0.0109
3714.00,0.0110
3713.00,0.0112
3712.00,0.0113
3711.00,0.0112
3710.00,0.0109
3709.00,0.0108
3708.00,0.0108
3707.00,0.0109
3706.00,0.0111
3705.00,0.0112
3704.00,0.0112
3703.00,0.0111
3702.00,0.0110
3701.00,0.0109
3700.00,0.0109
3699.00,0.0110
3698.00,0.0110
3697.00,0.0110
3696.00,0.0109
3695.00,0.0109
3694.00,0.0109
3693.00,0.0109
3692.00,0.0110
3691.00,0.0112
3690.00,0.0113
3689.00,0.0112
3688.00,0.0110
3687.00,0.0109
3686.00,0.0109
3685.00,0.0109
3684.00,0.0109
3683.00,0.0109
3682.00,0.0109
3681.00,0.0108
3680.00,0.0107
3679.00,0.0106
3678.00,0.0105
3677.00,0.0106
3676.00,0.0106
3675.00,0.0105
3674.00,0.0105
3673.00,0.0106
3672.00,0.0109
3671.00,0.0111
3670.00,0.0111
3669.00,0.0111
3668.00,0.0111
3667.00,0.0111
3666.00,0.0112
3665.00,0.0112
3664.00,0.0113
3663.00,0.0114
3662.00,0.0116
3661.00,0.0117
3660.00,0.0118
3659.00,0.0120
3658.00,0.0121
3657.00,0.0123
3656.00,0.0124
3655.00,0.0124
3654.00,0.0125
3653.00,0.0127
3652.00,0.0127
3651.00,0.0129
3650.00,0.0131
3649.00,0.0132
3648.00,0.0130
3647.00,0.0130
3646.00,0.0131
3645.00,0.0133
3644.00,0.0135
3643.00,0.0137
3642.00,0.0138
3641.00,0.0139
3640.00,0.0140
3639.00,0.0141
3638.00,0.0142
3637.00,0.0143
3636.00,0.0145
3635.00,0.0146
3634.00,0.0147
3633.00,0.0147
3632.00,0.0147
3631.00,0.0148
3630.00,0.0151
3629.00,0.0155
3628.00,0.0157
3627.00,0.0158
3626.00,0.0158
3625.00,0.0159
3624.00,0.0158
3623.00,0.0158
3622.00,0.0159
3621.00,0.0161
3620.00,0.0164
3619.00,0.0166
3618.00,0.0167
3617.00,0.0168
3616.00,0.0169
3615.00,0.0169
3614.00,0.0170
3613.00,0.0170
3612.00,0.0170
3611.00,0.0172
3610.00,0.0174
3609.00,0.0176
3608.00,0.0178
3607.00,0.0178
3606.00,0.0178
3605.00,0.0178
3604.00,0.0178
3603.00,0.0179
3602.00,0.0181
3601.00,0.0183
3600.00,0.0184
3599.00,0.0185
3598.00,0.0185
3597.00,0.0185
3596.00,0.0185
3595.00,0.0185
3594.00,0.0186
3593.00,0.0186
3592.00,0.0185
3591.00,0.0185
3590.00,0.0186
3589.00,0.0187
3588.00,0.0190
3587.00,0.0191
3586.00,0.0192
3585.00,0.0193
3584.00,0.0194
3583.00,0.0194
3582.00,0.0194
3581.00,0.0194
3580.00,0.0195
3579.00,0.0196
3578.00,0.0196
3577.00,0.0197
3576.00,0.0198
3575.00,0.0199
3574.00,0.0200
3573.00,0.0200
3572.00,0.0200
3571.00,0.0199
3570.00,0.0199
3569.00,0.0200
3568.00,0.0202
3567.00,0.0205
3566.00,0.0207
3565.00,0.0207
3564.00,0.0207
3563.00,0.0207
3562.00,0.0207
3561.00,0.0208
3560.00,0.0209
3559.00,0.0210
3558.00,0.0210
3557.00,0.0211
3556.00,0.0212
3555.00,0.0213
3554.00,0.0214
3553.00,0.0215
3552.00,0.0215
3551.00,0.0216
3550.00,0.0217
3549.00,0.0218
3548.00,0.0218
3547.00,0.0219
3546.00,0.0221
3545.00,0.0222
3544.00,0.0223
3543.00,0.0223
3542.00,0.0223
3541.00,0.0223
3540.00,0.0222
3539.00,0.0221
3538.00,0.0221
3537.00,0.0221
3536.00,0.0222
3535.00,0.0223
3534.00,0.0225
3533.00,0.0226
3532.00,0.0227
3531.00,0.0228
3530.00,0.0227
3529.00,0.0226
3528.00,0.0226
3527.00,0.0226
3526.00,0.0228
3525.00,0.0230
3524.00,0.0232
3523.00,0.0233
3522.00,0.0233
3521.00,0.0233
3520.00,0.0232
3519.00,0.0231
3518.00,0.0231
3517.00,0.0231
3516.00,0.0231
3515.00,0.0231
3514.00,0.0233
3513.00,0.0234
3512.00,0.0236
3511.00,0.0237
3510.00,0.0237
3509.00,0.0237
3508.00,0.0237
3507.00,0.0237
3506.00,0.0237
3505.00,0.0238
3504.00,0.0239
3503.00,0.0240
3502.00,0.0241
3501.00,0.0241
3500.00,0.0241
3499.00,0.0242
3498.00,0.0243
3497.00,0.0244
3496.00,0.0244
3495.00,0.0244
3494.00,0.0244
3493.00,0.0244
3492.00,0.0244
3491.00,0.0244
3490.00,0.0244
3489.00,0.0244
3488.00,0.0245
3487.00,0.0245
3486.00,0.0246
3485.00,0.0246
3484.00,0.0246
3483.00,0.0247
3482.00,0.0247
3481.00,0.0248
3480.00,0.0248
3479.00,0.0249
3478.00,0.0249
3477.00,0.0249
3476.00,0.0250
3475.00,0.0250
3474.00,0.0251
3473.00,0.0252
3472.00,0.0252
3471.00,0.0253
3470.00,0.0254
3469.00,0.0254
3468.00,0.0255
3467.00,0.0255
3466.00,0.0256
3465.00,0.0256
3464.00,0.0257
3463.00,0.0256
3462.00,0.0255
3461.00,0.0255
3460.00,0.0256
3459.00,0.0257
3458.00,0.0258
3457.00,0.0258
3456.00,0.0258
3455.00,0.0257
3454.00,0.0257
3453.00,0.0258
3452.00,0.0259
3451.00,0.0260
3450.00,0.0260
3449.00,0.0261
3448.00,0.0262
3447.00,0.0262
3446.00,0.0263
3445.00,0.0264
3444.00,0.0264
3443.00,0.0264
3442.00,0.0263
3441.00,0.0262
3440.00,0.0262
3439.00,0.0261
3438.00,0.0262
3437.00,0.0262
3436.00,0.0262
3435.00,0.0262
3434.00,0.0263
3433.00,0.0263
3432.00,0.0263
3431.00,0.0264
3430.00,0.0264
3429.00,0.0265
3428.00,0.0265
3427.00,0.0265
3426.00,0.0266
3425.00,0.0267
3424.00,0.0268
3423.00,0.0269
3422.00,0.0270
3421.00,0.0270
3420.00,0.0270
3419.00,0.0270
3418.00,0.0270
3417.00,0.0269
3416.00,0.0269
3415.00,0.0268
3414.00,0.0269
3413.00,0.0269
3412.00,0.0270
3411.00,0.0271
3410.00,0.0271
3409.00,0.0272
3408.00,0.0272
3407.00,0.0273
3406.00,0.0273
3405.00,0.0273
3404.00,0.0273
3403.00,0.0272
3402.00,0.0272
3401.00,0.0273
3400.00,0.0273
3399.00,0.0274
3398.00,0.0274
3397.00,0.0273
3396.00,0.0273
3395.00,0.0273
3394.00,0.0273
3393.00,0.0274
3392.00,0.0275
3391.00,0.0276
3390.00,0.0276
3389.00,0.0276
3388.00,0.0276
3387.00,0.0276
3386.00,0.0276
3385.00,0.0276
3384.00,0.0276
3383.00,0.0277
3382.00,0.0277
3381.00,0.0278
3380.00,0.0278
3379.00,0.0279
3378.00,0.0279
3377.00,0.0279
3376.00,0.0279
3375.00,0.0278
3374.00,0.0278
3373.00,0.0278
3372.00,0.0277
3371.00,0.0277
3370.00,0.0277
3369.00,0.0277
3368.00,0.0278
3367.00,0.0278
3366.00,0.0278
3365.00,0.0278
3364.00,0.0277
3363.00,0.0278
3362.00,0.0279
3361.00,0.0281
3360.00,0.0282
3359.00,0.0282
3358.00,0.0281
3357.00,0.0281
3356.00,0.0281
3355.00,0.0281
3354.00,0.0281
3353.00,0.0281
3352.00,0.0281
3351.00,0.0281
3350.00,0.0282
3349.00,0.0282
3348.00,0.0282
3347.00,0.0282
3346.00,0.0282
3345.00,0.0281
3344.00,0.0281
3343.00,0.0281
3342.00,0.0281
3341.00,0.0282
3340.00,0.0283
3339.00,0.0283
3338.00,0.0283
3337.00,0.0283
3336.00,0.0283
3335.00,0.0283
3334.00,0.0283
3333.00,0.0282
3332.00,0.0282
3331.00,0.0281
3330.00,0.0280
3329.00,0.0280
3328.00,0.0280
3327.00,0.0281
3326.00,0.0282
3325.00,0.0283
3324.00,0.0283
3323.00,0.0283
3322.00,0.0283
3321.00,0.0283
3320.00,0.0283
3319.00,0.0283
3318.00,0.0283
3317.00,0.0283
3316.00,0.0283
3315.00,0.0283
3314.00,0.0283
3313.00,0.0282
3312.00,0.0282
3311.00,0.0282
3310.00,0.0282
3309.00,0.0283
3308.00,0.0284
3307.00,0.0284
3306.00,0.0284
3305.00,0.0284
3304.00,0.0283
3303.00,0.0283
3302.00,0.0283
3301.00,0.0284
3300.00,0.0284
3299.00,0.0284
3298.00,0.0284
3297.00,0.0284
3296.00,0.0284
3295.00,0.0285
3294.00,0.0285
3293.00,0.0285
3292.00,0.0285
3291.00,0.0284
3290.00,0.0284
3289.00,0.0285
3288.00,0.0285
3287.00,0.0285
3286.00,0.0285
3285.00,0.0286
3284.00,0.0286
3283.00,0.0286
3282.00,0.0286
3281.00,0.0285
3280.00,0.0285
3279.00,0.0285
3278.00,0.0285
3277.00,0.0285
3276.00,0.0285
3275.00,0.0285
3274.00,0.0286
3273.00,0.0286
3272.00,0.0287
3271.00,0.0287
3270.00,0.0288
3269.00,0.0288
3268.00,0.0288
3267.00,0.0288
3266.00,0.0287
3265.00,0.0286
3264.00,0.0285
3263.00,0.0285
3262.00,0.0285
3261.00,0.0285
3260.00,0.0286
3259.00,0.0286
3258.00,0.0287
3257.00,0.0286
3256.00,0.0286
3255.00,0.0286
3254.00,0.0286
3253.00,0.0287
3252.00,0.0287
3251.00,0.0287
3250.00,0.0287
3249.00,0.0287
3248.00,0.0287
3247.00,0.0287
3246.00,0.0287
3245.00,0.0288
3244.00,0.0288
3243.00,0.0288
3242.00,0.0288
3241.00,0.0288
3240.00,0.0288
3239.00,0.0288
3238.00,0.0288
3237.00,0.0289
3236.00,0.0290
3235.00,0.0291
3234.00,0.0291
3233.00,0.0291
3232.00,0.0291
3231.00,0.0290
3230.00,0.0290
3229.00,0.0289
3228.00,0.0289
3227.00,0.0288
3226.00,0.0289
3225.00,0.0289
3224.00,0.0289
3223.00,0.0289
3222.00,0.0290
3221.00,0.0290
3220.00,0.0290
3219.00,0.0289
3218.00,0.0289
3217.00,0.0289
3216.00,0.0290
3215.00,0.0290
3214.00,0.0291
3213.00,0.0290
3212.00,0.0290
3211.00,0.0290
3210.00,0.0289
3209.00,0.0290
3208.00,0.0290
3207.00,0.0290
3206.00,0.0290
3205.00,0.0290
3204.00,0.0291
3203.00,0.0291
3202.00,0.0291
3201.00,0.0291
3200.00,0.0290
3199.00,0.0290
3198.00,0.0290
3197.00,0.0290
3196.00,0.0290
3195.00,0.0291
3194.00,0.0291
3193.00,0.0291
3192.00,0.0291
3191.00,0.0290
3190.00,0.0290
3189.00,0.0289
3188.00,0.0288
3187.00,0.0288
3186.00,0.0288
3185.00,0.0288
3184.00,0.0289
3183.00,0.0290
3182.00,0.0290
3181.00,0.0291
3180.00,0.0291
3179.00,0.0290
3178.00,0.0289
3177.00,0.0288
3176.00,0.0287
3175.00,0.0287
3174.00,0.0288
3173.00,0.0288
3172.00,0.0288
3171.00,0.0288
3170.00,0.0289
3169.00,0.0288
3168.00,0.0288
3167.00,0.0288
3166.00,0.0289
3165.00,0.0289
3164.00,0.0290
3163.00,0.0290
3162.00,0.0290
3161.00,0.0289
3160.00,0.0288
3159.00,0.0287
3158.00,0.0286
3157.00,0.0286
3156.00,0.0286
3155.00,0.0286
3154.00,0.0287
3153.00,0.0288
3152.00,0.0288
3151.00,0.0288
3150.00,0.0287
3149.00,0.0287
3148.00,0.0287
3147.00,0.0287
3146.00,0.0286
3145.00,0.0286
3144.00,0.0286
3143.00,0.0286
3142.00,0.0286
3141.00,0.0286
3140.00,0.0286
3139.00,0.0286
3138.00,0.0286
3137.00,0.0287
3136.00,0.0287
3135.00,0.0287
3134.00,0.0287
3133.00,0.0286
3132.00,0.0286
3131.00,0.0286
3130.00,0.0286
3129.00,0.0286
3128.00,0.0285
3127.00,0.0285
3126.00,0.0285
3125.00,0.0286
3124.00,0.0286
3123.00,0.0285
3122.00,0.0285
3121.00,0.0285
3120.00,0.0285
3119.00,0.0285
3118.00,0.0286
3117.00,0.0286
3116.00,0.0286
3115.00,0.0286
3114.00,0.0285
3113.00,0.0285
3112.00,0.0285
3111.00,0.0285
3110.00,0.0285
3109.00,0.0285
3108.00,0.0285
3107.00,0.0285
3106.00,0.0286
3105.00,0.0286
3104.00,0.0286
3103.00,0.0286
3102.00,0.0285
3101.00,0.0284
3100.00,0.0284
3099.00,0.0283
3098.00,0.0283
3097.00,0.0283
3096.00,0.0284
3095.00,0.0285
3094.00,0.0286
3093.00,0.0286
3092.00,0.0286
3091.00,0.0285
3090.00,0.0284
3089.00,0.0283
3088.00,0.0282
3087.00,0.0282
3086.00,0.0283
3085.00,0.0284
3084.00,0.0284
3083.00,0.0284
3082.00,0.0284
3081.00,0.0284
3080.00,0.0284
3079.00,0.0284
3078.00,0.0284
3077.00,0.0284
3076.00,0.0284
3075.00,0.0284
3074.00,0.0284
3073.00,0.0284
3072.00,0.0284
3071.00,0.0284
3070.00,0.0284
3069.00,0.0284
3068.00,0.0285
3067.00,0.0285
3066.00,0.0284
3065.00,0.0283
3064.00,0.0282
3063.00,0.0282
3062.00,0.0282
3061.00,0.0282
3060.00,0.0282
3059.00,0.0282
3058.00,0.0282
3057.00,0.0282
3056.00,0.0282
3055.00,0.0282
3054.00,0.0282
3053.00,0.0281
3052.00,0.0281
3051.00,0.0281
3050.00,0.0282
3049.00,0.0282
3048.00,0.0282
3047.00,0.0282
3046.00,0.0282
3045.00,0.0282
3044.00,0.0281
3043.00,0.0281
3042.00,0.0280
3041.00,0.0279
3040.00,0.0279
3039.00,0.0279
3038.00,0.0279
3037.00,0.0279
3036.00,0.0280
3035.00,0.0279
3034.00,0.0279
3033.00,0.0279
3032.00,0.0279
3031.00,0.0279
3030.00,0.0278
3029.00,0.0277
3028.00,0.0276
3027.00,0.0276
3026.00,0.0276
3025.00,0.0276
3024.00,0.0276
3023.00,0.0276
3022.00,0.0276
3021.00,0.0276
3020.00,0.0275
3019.00,0.0274
3018.00,0.0273
3017.00,0.0273
3016.00,0.0273
3015.00,0.0273
3014.00,0.0272
3013.00,0.0271
3012.00,0.0270
3011.00,0.0269
3010.00,0.0268
3009.00,0.0267
3008.00,0.0265
3007.00,0.0263
3006.00,0.0262
3005.00,0.0261
3004.00,0.0260
3003.00,0.0258
3002.00,0.0256
3001.00,0.0254
3000.00,0.0253
2999.00,0.0251
2998.00,0.0250
2997.00,0.0249
2996.00,0.0248
2995.00,0.0248
2994.00,0.0247
2993.00,0.0247
2992.00,0.0246
2991.00,0.0245
2990.00,0.0244
2989.00,0.0243
2988.00,0.0242
2987.00,0.0240
2986.00,0.0237
2985.00,0.0233
2984.00,0.0228
2983.00,0.0225
2982.00,0.0223
2981.00,0.0222
2980.00,0.0224
2979.00,0.0226
2978.00,0.0228
2977.00,0.0231
2976.00,0.0233
2975.00,0.0234
2974.00,0.0233
2973.00,0.0232
2972.00,0.0231
2971.00,0.0231
2970.00,0.0232
2969.00,0.0234
2968.00,0.0236
2967.00,0.0237
2966.00,0.0238
2965.00,0.0239
2964.00,0.0240
2963.00,0.0241
2962.00,0.0242
2961.00,0.0242
2960.00,0.0242
2959.00,0.0242
2958.00,0.0242
2957.00,0.0243
2956.00,0.0244
2955.00,0.0245
2954.00,0.0246
2953.00,0.0247
2952.00,0.0248
2951.00,0.0249
2950.00,0.0249
2949.00,0.0250
2948.00,0.0250
2947.00,0.0250
2946.00,0.0251
2945.00,0.0251
2944.00,0.0252
2943.00,0.0252
2942.00,0.0253
2941.00,0.0253
2940.00,0.0253
2939.00,0.0252
2938.00,0.0252
2937.00,0.0252
2936.00,0.0252
2935.00,0.0252
2934.00,0.0252
2933.00,0.0252
2932.00,0.0251
2931.00,0.0251
2930.00,0.0251
2929.00,0.0251
2928.00,0.0251
2927.00,0.0250
2926.00,0.0250
2925.00,0.0249
2924.00,0.0249
2923.00,0.0248
2922.00,0.0248
2921.00,0.0247
2920.00,0.0246
2919.00,0.0245
2918.00,0.0245
2917.00,0.0244
2916.00,0.0244
2915.00,0.0245
2914.00,0.0245
2913.00,0.0246
2912.00,0.0246
2911.00,0.0247
2910.00,0.0247
2909.00,0.0247
2908.00,0.0246
2907.00,0.0246
2906.00,0.0245
2905.00,0.0245
2904.00,0.0245
2903.00,0.0245
2902.00,0.0245
2901.00,0.0245
2900.00,0.0245
2899.00,0.0245
2898.00,0.0244
2897.00,0.0244
2896.00,0.0244
2895.00,0.0243
2894.00,0.0243
2893.00,0.0242
2892.00,0.0242
2891.00,0.0242
2890.00,0.0242
2889.00,0.0241
2888.00,0.0242
2887.00,0.0242
2886.00,0.0242
2885.00,0.0241
2884.00,0.0241
2883.00,0.0241
2882.00,0.0241
2881.00,0.0242
2880.00,0.0242
2879.00,0.0243
2878.00,0.0243
2877.00,0.0243
2876.00,0.0243
2875.00,0.0243
2874.00,0.0242
2873.00,0.0242
2872.00,0.0242
2871.00,0.0242
2870.00,0.0242
2869.00,0.0243
2868.00,0.0243
2867.00,0.0243
2866.00,0.0244
2865.00,0.0244
2864.00,0.0244
2863.00,0.0244
2862.00,0.0244
2861.00,0.0244
2860.00,0.0244
2859.00,0.0245
2858.00,0.0246
2857.00,0.0246
2856.00,0.0246
2855.00,0.0245
2854.00,0.0245
2853.00,0.0244
2852.00,0.0244
2851.00,0.0244
2850.00,0.0245
2849.00,0.0245
2848.00,0.0244
2847.00,0.0244
2846.00,0.0244
2845.00,0.0244
2844.00,0.0245
2843.00,0.0245
2842.00,0.0245
2841.00,0.0244
2840.00,0.0244
2839.00,0.0243
2838.00,0.0243
2837.00,0.0243
2836.00,0.0244
2835.00,0.0244
2834.00,0.0245
2833.00,0.0244
2832.00,0.0244
2831.00,0.0243
2830.00,0.0242
2829.00,0.0242
2828.00,0.0242
2827.00,0.0242
2826.00,0.0243
2825.00,0.0243
2824.00,0.0243
2823.00,0.0242
2822.00,0.0242
2821.00,0.0241
2820.00,0.0241
2819.00,0.0240
2818.00,0.0240
2817.00,0.0240
2816.00,0.0240
2815.00,0.0239
2814.00,0.0239
2813.00,0.0239
2812.00,0.0238
2811.00,0.0238
2810.00,0.0238
2809.00,0.0238
2808.00,0.0238
2807.00,0.0238
2806.00,0.0238
2805.00,0.0239
2804.00,0.0239
2803.00,0.0238
2802.00,0.0238
2801.00,0.0238
2800.00,0.0238
2799.00,0.0238
2798.00,0.0238
2797.00,0.0237
2796.00,0.0237
2795.00,0.0237
2794.00,0.0236
2793.00,0.0236
2792.00,0.0236
2791.00,0.0236
2790.00,0.0236
2789.00,0.0236
2788.00,0.0236
2787.00,0.0236
2786.00,0.0235
2785.00,0.0235
2784.00,0.0235
2783.00,0.0234
2782.00,0.0234
2781.00,0.0233
2780.00,0.0232
2779.00,0.0232
2778.00,0.0233
2777.00,0.0233
2776.00,0.0233
2775.00,0.0233
2774.00,0.0233
2773.00,0.0233
2772.00,0.0232
2771.00,0.0232
2770.00,0.0231
2769.00,0.0230
2768.00,0.0230
2767.00,0.0230
2766.00,0.0230
2765.00,0.0230
2764.00,0.0230
2763.00,0.0230
2762.00,0.0230
2761.00,0.0230
2760.00,0.0230
2759.00,0.0229
2758.00,0.0229
2757.00,0.0228
2756.00,0.0228
2755.00,0.0228
2754.00,0.0228
2753.00,0.0228
2752.00,0.0228
2751.00,0.0228
2750.00,0.0228
2749.00,0.0228
2748.00,0.0228
2747.00,0.0227
2746.00,0.0227
2745.00,0.0227
2744.00,0.0227
2743.00,0.0227
2742.00,0.0227
2741.00,0.0227
2740.00,0.0226
2739.00,0.0225
2738.00,0.0225
2737.00,0.0224
2736.00,0.0224
2735.00,0.0224
2734.00,0.0224
2733.00,0.0225
2732.00,0.0225
2731.00,0.0225
2730.00,0.0224
2729.00,0.0224
2728.00,0.0224
2727.00,0.0224
2726.00,0.0224
2725.00,0.0223
2724.00,0.0223
2723.00,0.0223
2722.00,0.0222
2721.00,0.0222
2720.00,0.0222
2719.00,0.0222
2718.00,0.0222
2717.00,0.0222
2716.00,0.0222
2715.00,0.0222
2714.00,0.0222
2713.00,0.0222
2712.00,0.0221
2711.00,0.0221
2710.00,0.0221
2709.00,0.0221
2708.00,0.0220
2707.00,0.0220
2706.00,0.0220
2705.00,0.0219
2704.00,0.0219
2703.00,0.0219
2702.00,0.0218
2701.00,0.0218
2700.00,0.0218
2699.00,0.0218
2698.00,0.0218
2697.00,0.0218
2696.00,0.0218
2695.00,0.0218
2694.00,0.0218
2693.00,0.0218
2692.00,0.0218
2691.00,0.0217
2690.00,0.0217
2689.00,0.0217
2688.00,0.0216
2687.00,0.0216
2686.00,0.0216
2685.00,0.0216
2684.00,0.0216
2683.00,0.0216
2682.00,0.0216
2681.00,0.0215
2680.00,0.0214
2679.00,0.0214
2678.00,0.0213
2677.00,0.0213
2676.00,0.0213
2675.00,0.0213
2674.00,0.0213
2673.00,0.0213
2672.00,0.0213
2671.00,0.0213
2670.00,0.0212
2669.00,0.0212
2668.00,0.0212
2667.00,0.0212
2666.00,0.0212
2665.00,0.0212
2664.00,0.0213
2663.00,0.0213
2662.00,0.0213
2661.00,0.0213
2660.00,0.0213
2659.00,0.0213
2658.00,0.0213
2657.00,0.0213
2656.00,0.0213
2655.00,0.0213
2654.00,0.0213
2653.00,0.0213
2652.00,0.0213
2651.00,0.0213
2650.00,0.0213
2649.00,0.0213
2648.00,0.0213
2647.00,0.0212
2646.00,0.0212
2645.00,0.0212
2644.00,0.0212
2643.00,0.0213
2642.00,0.0213
2641.00,0.0213
2640.00,0.0213
2639.00,0.0213
2638.00,0.0213
2637.00,0.0212
2636.00,0.0212
2635.00,0.0212
2634.00,0.0212
2633.00,0.0212
2632.00,0.0212
2631.00,0.0212
2630.00,0.0211
2629.00,0.0211
2628.00,0.0210
2627.00,0.0210
2626.00,0.0210
2625.00,0.0211
2624.00,0.0212
2623.00,0.0212
2622.00,0.0213
2621.00,0.0213
2620.00,0.0213
2619.00,0.0213
2618.00,0.0213
2617.00,0.0213
2616.00,0.0212
2615.00,0.0212
2614.00,0.0211
2613.00,0.0211
2612.00,0.0212
2611.00,0.0213
2610.00,0.0213
2609.00,0.0212
2608.00,0.0211
2607.00,0.0211
2606.00,0.0211
2605.00,0.0212
2604.00,0.0212
2603.00,0.0212
2602.00,0.0212
2601.00,0.0211
2600.00,0.0211
2599.00,0.0210
2598.00,0.0210
2597.00,0.0209
2596.00,0.0209
2595.00,0.0208
2594.00,0.0209
2593.00,0.0209
2592.00,0.0210
2591.00,0.0211
2590.00,0.0211
2589.00,0.0211
2588.00,0.0211
2587.00,0.0211
2586.00,0.0210
2585.00,0.0209
2584.00,0.0209
2583.00,0.0209
2582.00,0.0210
2581.00,0.0210
2580.00,0.0210
2579.00,0.0210
2578.00,0.0210
2577.00,0.0209
2576.00,0.0208
2575.00,0.0207
2574.00,0.0207
2573.00,0.0208
2572.00,0.0208
2571.00,0.0208
2570.00,0.0207
2569.00,0.0207
2568.00,0.0208
2567.00,0.0209
2566.00,0.0210
2565.00,0.0210
2564.00,0.0210
2563.00,0.0210
2562.00,0.0210
2561.00,0.0210
2560.00,0.0209
2559.00,0.0209
2558.00,0.0209
2557.00,0.0209
2556.00,0.0209
2555.00,0.0209
2554.00,0.0209
2553.00,0.0208
2552.00,0.0207
2551.00,0.0206
2550.00,0.0205
2549.00,0.0204
2548.00,0.0204
2547.00,0.0204
2546.00,0.0204
2545.00,0.0204
2544.00,0.0205
2543.00,0.0205
2542.00,0.0204
2541.00,0.0203
2540.00,0.0202
2539.00,0.0201
2538.00,0.0200
2537.00,0.0200
2536.00,0.0201
2535.00,0.0201
2534.00,0.0203
2533.00,0.0204
2532.00,0.0204
2531.00,0.0204
2530.00,0.0203
2529.00,0.0203
2528.00,0.0203
2527.00,0.0202
2526.00,0.0202
2525.00,0.0201
2524.00,0.0200
2523.00,0.0201
2522.00,0.0201
2521.00,0.0201
2520.00,0.0202
2519.00,0.0202
2518.00,0.0203
2517.00,0.0204
2516.00,0.0204
2515.00,0.0204
2514.00,0.0203
2513.00,0.0202
2512.00,0.0201
2511.00,0.0201
2510.00,0.0202
2509.00,0.0203
2508.00,0.0203
2507.00,0.0203
2506.00,0.0203
2505.00,0.0202
2504.00,0.0201
2503.00,0.0201
2502.00,0.0201
2501.00,0.0201
2500.00,0.0202
2499.00,0.0202
2498.00,0.0202
2497.00,0.0202
2496.00,0.0202
2495.00,0.0203
2494.00,0.0203
2493.00,0.0203
2492.00,0.0203
2491.00,0.0203
2490.00,0.0202
2489.00,0.0203
2488.00,0.0203
2487.00,0.0202
2486.00,0.0202
2485.00,0.0201
2484.00,0.0200
2483.00,0.0199
2482.00,0.0200
2481.00,0.0201
2480.00,0.0201
2479.00,0.0201
2478.00,0.0200
2477.00,0.0199
2476.00,0.0199
2475.00,0.0198
2474.00,0.0198
2473.00,0.0198
2472.00,0.0199
2471.00,0.0199
2470.00,0.0199
2469.00,0.0199
2468.00,0.0198
2467.00,0.0198
2466.00,0.0197
2465.00,0.0196
2464.00,0.0196
2463.00,0.0196
2462.00,0.0196
2461.00,0.0196
2460.00,0.0197
2459.00,0.0197
2458.00,0.0198
2457.00,0.0198
2456.00,0.0198
2455.00,0.0198
2454.00,0.0199
2453.00,0.0199
2452.00,0.0199
2451.00,0.0199
2450.00,0.0198
2449.00,0.0197
2448.00,0.0197
2447.00,0.0196
2446.00,0.0196
2445.00,0.0196
2444.00,0.0195
2443.00,0.0195
2442.00,0.0194
2441.00,0.0194
2440.00,0.0194
2439.00,0.0194
2438.00,0.0195
2437.00,0.0195
2436.00,0.0195
2435.00,0.0194
2434.00,0.0194
2433.00,0.0193
2432.00,0.0193
2431.00,0.0193
2430.00,0.0193
2429.00,0.0193
2428.00,0.0193
2427.00,0.0193
2426.00,0.0192
2425.00,0.0192
2424.00,0.0192
2423.00,0.0192
2422.00,0.0192
2421.00,0.0192
2420.00,0.0192
2419.00,0.0191
2418.00,0.0191
2417.00,0.0191
2416.00,0.0190
2415.00,0.0190
2414.00,0.0190
2413.00,0.0190
2412.00,0.0190
2411.00,0.0190
2410.00,0.0190
2409.00,0.0190
2408.00,0.0190
2407.00,0.0189
2406.00,0.0189
2405.00,0.0189
2404.00,0.0188
2403.00,0.0188
2402.00,0.0187
2401.00,0.0186
2400.00,0.0186
2399.00,0.0186
2398.00,0.0186
2397.00,0.0186
2396.00,0.0185
2395.00,0.0185
2394.00,0.0185
2393.00,0.0184
2392.00,0.0184
2391.00,0.0184
2390.00,0.0183
2389.00,0.0183
2388.00,0.0182
2387.00,0.0182
2386.00,0.0181
2385.00,0.0180
2384.00,0.0179
2383.00,0.0179
2382.00,0.0178
2381.00,0.0179
2380.00,0.0180
2379.00,0.0180
2378.00,0.0180
2377.00,0.0180
2376.00,0.0179
2375.00,0.0179
2374.00,0.0178
2373.00,0.0178
2372.00,0.0177
2371.00,0.0176
2370.00,0.0173
2369.00,0.0170
2368.00,0.0169
2367.00,0.0169
2366.00,0.0172
2365.00,0.0176
2364.00,0.0177
2363.00,0.0176
2362.00,0.0175
2361.00,0.0175
2360.00,0.0175
2359.00,0.0175
2358.00,0.0175
2357.00,0.0174
2356.00,0.0175
2355.00,0.0176
2354.00,0.0177
2353.00,0.0177
2352.00,0.0176
2351.00,0.0175
2350.00,0.0173
2349.00,0.0173
2348.00,0.0173
2347.00,0.0173
2346.00,0.0172
2345.00,0.0172
2344.00,0.0173
2343.00,0.0175
2342.00,0.0176
2341.00,0.0176
2340.00,0.0176
2339.00,0.0174
2338.00,0.0172
2337.00,0.0171
2336.00,0.0171
2335.00,0.0172
2334.00,0.0173
2333.00,0.0173
2332.00,0.0172
2331.00,0.0171
2330.00,0.0169
2329.00,0.0168
2328.00,0.0168
2327.00,0.0170
2326.00,0.0172
2325.00,0.0173
2324.00,0.0172
2323.00,0.0171
2322.00,0.0170
2321.00,0.0170
2320.00,0.0169
2319.00,0.0168
2318.00,0.0168
2317.00,0.0168
2316.00,0.0169
2315.00,0.0169
2314.00,0.0169
2313.00,0.0170
2312.00,0.0170
2311.00,0.0171
2310.00,0.0172
2309.00,0.0173
2308.00,0.0173
2307.00,0.0172
2306.00,0.0171
2305.00,0.0170
2304.00,0.0169
2303.00,0.0169
2302.00,0.0168
2301.00,0.0168
2300.00,0.0169
2299.00,0.0170
2298.00,0.0170
2297.00,0.0169
2296.00,0.0169
2295.00,0.0169
2294.00,0.0170
2293.00,0.0172
2292.00,0.0174
2291.00,0.0175
2290.00,0.0175
2289.00,0.0174
2288.00,0.0174
2287.00,0.0175
2286.00,0.0176
2285.00,0.0177
2284.00,0.0178
2283.00,0.0179
2282.00,0.0179
2281.00,0.0178
2280.00,0.0178
2279.00,0.0177
2278.00,0.0177
2277.00,0.0176
2276.00,0.0175
2275.00,0.0174
2274.00,0.0173
2273.00,0.0173
2272.00,0.0173
2271.00,0.0173
2270.00,0.0173
2269.00,0.0173
2268.00,0.0172
2267.00,0.0172
2266.00,0.0172
2265.00,0.0172
2264.00,0.0173
2263.00,0.0174
2262.00,0.0174
2261.00,0.0173
2260.00,0.0173
2259.00,0.0172
2258.00,0.0170
2257.00,0.0168
2256.00,0.0166
2255.00,0.0167
2254.00,0.0167
2253.00,0.0168
2252.00,0.0168
2251.00,0.0169
2250.00,0.0169
2249.00,0.0168
2248.00,0.0168
2247.00,0.0168
2246.00,0.0169
2245.00,0.0171
2244.00,0.0172
2243.00,0.0172
2242.00,0.0172
2241.00,0.0171
2240.00,0.0169
2239.00,0.0168
2238.00,0.0167
2237.00,0.0167
2236.00,0.0166
2235.00,0.0167
2234.00,0.0167
2233.00,0.0167
2232.00,0.0167
2231.00,0.0165
2230.00,0.0164
2229.00,0.0164
2228.00,0.0165
2227.00,0.0167
2226.00,0.0168
2225.00,0.0168
2224.00,0.0167
2223.00,0.0166
2222.00,0.0165
2221.00,0.0164
2220.00,0.0164
2219.00,0.0164
2218.00,0.0164
2217.00,0.0164
2216.00,0.0165
2215.00,0.0166
2214.00,0.0167
2213.00,0.0167
2212.00,0.0165
2211.00,0.0163
2210.00,0.0162
2209.00,0.0162
2208.00,0.0163
2207.00,0.0164
2206.00,0.0165
2205.00,0.0165
2204.00,0.0165
2203.00,0.0165
2202.00,0.0166
2201.00,0.0166
2200.00,0.0165
2199.00,0.0164
2198.00,0.0164
2197.00,0.0163
2196.00,0.0162
2195.00,0.0161
2194.00,0.0160
2193.00,0.0159
2192.00,0.0158
2191.00,0.0156
2190.00,0.0154
2189.00,0.0153
2188.00,0.0154
2187.00,0.0158
2186.00,0.0162
2185.00,0.0163
2184.00,0.0161
2183.00,0.0157
2182.00,0.0154
2181.00,0.0154
2180.00,0.0155
2179.00,0.0157
2178.00,0.0160
2177.00,0.0162
2176.00,0.0162
2175.00,0.0160
2174.00,0.0158
2173.00,0.0158
2172.00,0.0159
2171.00,0.0161
2170.00,0.0164
2169.00,0.0165
2168.00,0.0165
2167.00,0.0163
2166.00,0.0163
2165.00,0.0165
2164.00,0.0167
2163.00,0.0169
2162.00,0.0169
2161.00,0.0166
2160.00,0.0160
2159.00,0.0152
2158.00,0.0147
2157.00,0.0145
2156.00,0.0145
2155.00,0.0147
2154.00,0.0149
2153.00,0.0151
2152.00,0.0151
2151.00,0.0150
2150.00,0.0148
2149.00,0.0146
2148.00,0.0147
2147.00,0.0149
2146.00,0.0151
2145.00,0.0153
2144.00,0.0153
2143.00,0.0154
2142.00,0.0154
2141.00,0.0155
2140.00,0.0155
2139.00,0.0153
2138.00,0.0151
2137.00,0.0149
2136.00,0.0146
2135.00,0.0145
2134.00,0.0144
2133.00,0.0145
2132.00,0.0145
2131.00,0.0146
2130.00,0.0147
2129.00,0.0148
2128.00,0.0149
2127.00,0.0150
2126.00,0.0149
2125.00,0.0148
2124.00,0.0148
2123.00,0.0148
2122.00,0.0147
2121.00,0.0147
2120.00,0.0147
2119.00,0.0146
2118.00,0.0146
2117.00,0.0146
2116.00,0.0146
2115.00,0.0144
2114.00,0.0142
2113.00,0.0141
2112.00,0.0142
2111.00,0.0144
2110.00,0.0146
2109.00,0.0148
2108.00,0.0148
2107.00,0.0149
2106.00,0.0149
2105.00,0.0148
2104.00,0.0148
2103.00,0.0147
2102.00,0.0146
2101.00,0.0146
2100.00,0.0145
2099.00,0.0143
2098.00,0.0142
2097.00,0.0141
2096.00,0.0141
2095.00,0.0141
2094.00,0.0141
2093.00,0.0142
2092.00,0.0142
2091.00,0.0141
2090.00,0.0140
2089.00,0.0139
2088.00,0.0139
2087.00,0.0140
2086.00,0.0141
2085.00,0.0143
2084.00,0.0145
2083.00,0.0145
2082.00,0.0144
2081.00,0.0144
2080.00,0.0143
2079.00,0.0143
2078.00,0.0143
2077.00,0.0143
2076.00,0.0143
2075.00,0.0144
2074.00,0.0144
2073.00,0.0144
2072.00,0.0143
2071.00,0.0144
2070.00,0.0144
2069.00,0.0143
2068.00,0.0141
2067.00,0.0140
2066.00,0.0139
2065.00,0.0140
2064.00,0.0141
2063.00,0.0142
2062.00,0.0143
2061.00,0.0142
2060.00,0.0140
2059.00,0.0138
2058.00,0.0137
2057.00,0.0138
2056.00,0.0139
2055.00,0.0139
2054.00,0.0140
2053.00,0.0142
2052.00,0.0144
2051.00,0.0143
2050.00,0.0141
2049.00,0.0139
2048.00,0.0137
2047.00,0.0137
2046.00,0.0139
2045.00,0.0141
2044.00,0.0144
2043.00,0.0145
2042.00,0.0144
2041.00,0.0142
2040.00,0.0139
2039.00,0.0138
2038.00,0.0139
2037.00,0.0143
2036.00,0.0146
2035.00,0.0145
2034.00,0.0142
2033.00,0.0141
2032.00,0.0143
2031.00,0.0145
2030.00,0.0146
2029.00,0.0145
2028.00,0.0142
2027.00,0.0139
2026.00,0.0136
2025.00,0.0133
2024.00,0.0130
2023.00,0.0126
2022.00,0.0124
2021.00,0.0124
2020.00,0.0123
2019.00,0.0122
2018.00,0.0120
2017.00,0.0120
2016.00,0.0122
2015.00,0.0126
2014.00,0.0128
2013.00,0.0129
2012.00,0.0129
2011.00,0.0128
2010.00,0.0129
2009.00,0.0130
2008.00,0.0130
2007.00,0.0128
2006.00,0.0126
2005.00,0.0125
2004.00,0.0125
2003.00,0.0129
2002.00,0.0133
2001.00,0.0136
2000.00,0.0135
1999.00,0.0132
1998.00,0.0129
1997.00,0.0129
1996.00,0.0132
1995.00,0.0135
1994.00,0.0137
1993.00,0.0137
1992.00,0.0136
1991.00,0.0133
1990.00,0.0130
1989.00,0.0129
1988.00,0.0128
1987.00,0.0129
1986.00,0.0129
1985.00,0.0129
1984.00,0.0129
1983.00,0.0128
1982.00,0.0128
1981.00,0.0126
1980.00,0.0123
1979.00,0.0119
1978.00,0.0114
1977.00,0.0111
1976.00,0.0112
1975.00,0.0116
1974.00,0.0121
1973.00,0.0122
1972.00,0.0121
1971.00,0.0120
1970.00,0.0120
1969.00,0.0121
1968.00,0.0122
1967.00,0.0120
1966.00,0.0117
1965.00,0.0115
1964.00,0.0115
1963.00,0.0116
1962.00,0.0116
1961.00,0.0116
1960.00,0.0117
1959.00,0.0117
1958.00,0.0117
1957.00,0.0117
1956.00,0.0116
1955.00,0.0116
1954.00,0.0116
1953.00,0.0117
1952.00,0.0117
1951.00,0.0115
1950.00,0.0113
1949.00,0.0112
1948.00,0.0112
1947.00,0.0113
1946.00,0.0113
1945.00,0.0113
1944.00,0.0110
1943.00,0.0108
1942.00,0.0106
1941.00,0.0106
1940.00,0.0106
1939.00,0.0106
1938.00,0.0105
1937.00,0.0105
1936.00,0.0104
1935.00,0.0103
1934.00,0.0101
1933.00,0.0101
1932.00,0.0102
1931.00,0.0104
1930.00,0.0106
1929.00,0.0108
1928.00,0.0109
1927.00,0.0109
1926.00,0.0109
1925.00,0.0108
1924.00,0.0107
1923.00,0.0105
1922.00,0.0104
1921.00,0.0104
1920.00,0.0104
1919.00,0.0102
1918.00,0.0100
1917.00,0.0098
1916.00,0.0099
1915.00,0.0100
1914.00,0.0102
1913.00,0.0102
1912.00,0.0102
1911.00,0.0101
1910.00,0.0099
1909.00,0.0097
1908.00,0.0096
1907.00,0.0095
1906.00,0.0095
1905.00,0.0096
1904.00,0.0097
1903.00,0.0097
1902.00,0.0097
1901.00,0.0096
1900.00,0.0096
1899.00,0.0096
1898.00,0.0096
1897.00,0.0096
1896.00,0.0094
1895.00,0.0092
1894.00,0.0091
1893.00,0.0091
1892.00,0.0092
1891.00,0.0092
1890.00,0.0091
1889.00,0.0090
1888.00,0.0089
1887.00,0.0089
1886.00,0.0089
1885.00,0.0089
1884.00,0.0090
1883.00,0.0090
1882.00,0.0090
1881.00,0.0090
1880.00,0.0089
1879.00,0.0088
1878.00,0.0087
1877.00,0.0086
1876.00,0.0086
1875.00,0.0086
1874.00,0.0086
1873.00,0.0088
1872.00,0.0088
1871.00,0.0088
1870.00,0.0086
1869.00,0.0083
1868.00,0.0080
1867.00,0.0078
1866.00,0.0079
1865.00,0.0080
1864.00,0.0081
1863.00,0.0080
1862.00,0.0080
1861.00,0.0079
1860.00,0.0078
1859.00,0.0077
1858.00,0.0077
1857.00,0.0078
1856.00,0.0078
1855.00,0.0078
1854.00,0.0078
1853.00,0.0077
1852.00,0.0076
1851.00,0.0077
1850.00,0.0078
1849.00,0.0078
1848.00,0.0078
1847.00,0.0079
1846.00,0.0079
1845.00,0.0078
1844.00,0.0075
1843.00,0.0072
1842.00,0.0072
1841.00,0.0073
1840.00,0.0074
1839.00,0.0073
1838.00,0.0073
1837.00,0.0073
1836.00,0.0072
1835.00,0.0072
1834.00,0.0072
1833.00,0.0074
1832.00,0.0076
1831.00,0.0075
1830.00,0.0072
1829.00,0.0069
1828.00,0.0068
1827.00,0.0069
1826.00,0.0069
1825.00,0.0067
1824.00,0.0066
1823.00,0.0066
1822.00,0.0067
1821.00,0.0068
1820.00,0.0069
1819.00,0.0068
1818.00,0.0067
1817.00,0.0066
1816.00,0.0066
1815.00,0.0066
1814.00,0.0066
1813.00,0.0067
1812.00,0.0067
1811.00,0.0066
1810.00,0.0066
1809.00,0.0067
1808.00,0.0068
1807.00,0.0068
1806.00,0.0069
1805.00,0.0070
1804.00,0.0071
1803.00,0.0071
1802.00,0.0071
1801.00,0.0070
1800.00,0.0070
1799.00,0.0070
1798.00,0.0071
1797.00,0.0073
1796.00,0.0076
1795.00,0.0078
1794.00,0.0079
1793.00,0.0079
1792.00,0.0078
1791.00,0.0076
1790.00,0.0076
1789.00,0.0079
1788.00,0.0082
1787.00,0.0084
1786.00,0.0086
1785.00,0.0087
1784.00,0.0088
1783.00,0.0089
1782.00,0.0091
1781.00,0.0091
1780.00,0.0092
1779.00,0.0093
1778.00,0.0096
1777.00,0.0099
1776.00,0.0102
1775.00,0.0105
1774.00,0.0106
1773.00,0.0106
1772.00,0.0104
1771.00,0.0103
1770.00,0.0106
1769.00,0.0110
1768.00,0.0112
1767.00,0.0114
1766.00,0.0116
1765.00,0.0119
1764.00,0.0122
1763.00,0.0123
1762.00,0.0123
1761.00,0.0123
1760.00,0.0125
1759.00,0.0127
1758.00,0.0129
1757.00,0.0129
1756.00,0.0131
1755.00,0.0134
1754.00,0.0137
1753.00,0.0140
1752.00,0.0141
1751.00,0.0141
1750.00,0.0141
1749.00,0.0142
1748.00,0.0144
1747.00,0.0146
1746.00,0.0149
1745.00,0.0152
1744.00,0.0154
1743.00,0.0157
1742.00,0.0159
1741.00,0.0161
1740.00,0.0163
1739.00,0.0165
1738.00,0.0167
1737.00,0.0172
1736.00,0.0176
1735.00,0.0179
1734.00,0.0180
1733.00,0.0179
1732.00,0.0181
1731.00,0.0184
1730.00,0.0186
1729.00,0.0189
1728.00,0.0192
1727.00,0.0195
1726.00,0.0198
1725.00,0.0201
1724.00,0.0203
1723.00,0.0206
1722.00,0.0208
1721.00,0.0211
1720.00,0.0213
1719.00,0.0214
1718.00,0.0215
1717.00,0.0217
1716.00,0.0219
1715.00,0.0221
1714.00,0.0223
1713.00,0.0226
1712.00,0.0228
1711.00,0.0230
1710.00,0.0231
1709.00,0.0232
1708.00,0.0233
1707.00,0.0234
1706.00,0.0234
1705.00,0.0235
1704.00,0.0237
1703.00,0.0240
1702.00,0.0243
1701.00,0.0244
1700.00,0.0243
1699.00,0.0241
1698.00,0.0242
1697.00,0.0243
1696.00,0.0243
1695.00,0.0243
1694.00,0.0244
1693.00,0.0246
1692.00,0.0247
1691.00,0.0247
1690.00,0.0248
1689.00,0.0248
1688.00,0.0249
1687.00,0.0249
1686.00,0.0248
1685.00,0.0247
1684.00,0.0246
1683.00,0.0245
1682.00,0.0246
1681.00,0.0248
1680.00,0.0248
1679.00,0.0250
1678.00,0.0251
1677.00,0.0254
1676.00,0.0255
1675.00,0.0256
1674.00,0.0256
1673.00,0.0256
1672.00,0.0255
1671.00,0.0255
1670.00,0.0255
1669.00,0.0255
1668.00,0.0255
1667.00,0.0256
1666.00,0.0257
1665.00,0.0258
1664.00,0.0258
1663.00,0.0258
1662.00,0.0258
1661.00,0.0260
1660.00,0.0262
1659.00,0.0264
1658.00,0.0266
1657.00,0.0267
1656.00,0.0266
1655.00,0.0263
1654.00,0.0263
1653.00,0.0264
1652.00,0.0264
1651.00,0.0266
1650.00,0.0268
1649.00,0.0269
1648.00,0.0270
1647.00,0.0272
1646.00,0.0274
1645.00,0.0277
1644.00,0.0280
1643.00,0.0282
1642.00,0.0283
1641.00,0.0283
1640.00,0.0284
1639.00,0.0285
1638.00,0.0285
1637.00,0.0287
1636.00,0.0290
1635.00,0.0293
1634.00,0.0294
1633.00,0.0295
1632.00,0.0295
1631.00,0.0296
1630.00,0.0297
1629.00,0.0299
1628.00,0.0300
1627.00,0.0301
1626.00,0.0304
1625.00,0.0306
1624.00,0.0309
1623.00,0.0311
1622.00,0.0312
1621.00,0.0313
1620.00,0.0314
1619.00,0.0314
1618.00,0.0315
1617.00,0.0316
1616.00,0.0318
1615.00,0.0320
1614.00,0.0322
1613.00,0.0323
1612.00,0.0324
1611.00,0.0325
1610.00,0.0327
1609.00,0.0327
1608.00,0.0328
1607.00,0.0330
1606.00,0.0332
1605.00,0.0334
1604.00,0.0335
1603.00,0.0336
1602.00,0.0335
1601.00,0.0335
1600.00,0.0335
1599.00,0.0335
1598.00,0.0337
1597.00,0.0338
1596.00,0.0340
1595.00,0.0341
1594.00,0.0342
1593.00,0.0343
1592.00,0.0344
1591.00,0.0344
1590.00,0.0344
1589.00,0.0345
1588.00,0.0346
1587.00,0.0347
1586.00,0.0348
1585.00,0.0349
1584.00,0.0349
1583.00,0.0349
1582.00,0.0350
1581.00,0.0350
1580.00,0.0350
1579.00,0.0350
1578.00,0.0351
1577.00,0.0352
1576.00,0.0354
1575.00,0.0354
1574.00,0.0354
1573.00,0.0353
1572.00,0.0352
1571.00,0.0351
1570.00,0.0352
1569.00,0.0353
1568.00,0.0354
1567.00,0.0354
1566.00,0.0354
1565.00,0.0353
1564.00,0.0352
1563.00,0.0350
1562.00,0.0348
1561.00,0.0343
1560.00,0.0342
1559.00,0.0349
1558.00,0.0351
1557.00,0.0350
1556.00,0.0351
1555.00,0.0351
1554.00,0.0351
1553.00,0.0351
1552.00,0.0351
1551.00,0.0350
1550.00,0.0348
1549.00,0.0347
1548.00,0.0345
1547.00,0.0343
1546.00,0.0341
1545.00,0.0339
1544.00,0.0337
1543.00,0.0335
1542.00,0.0332
1541.00,0.0330
1540.00,0.0330
1539.00,0.0328
1538.00,0.0328
1537.00,0.0329
1536.00,0.0328
1535.00,0.0327
1534.00,0.0327
1533.00,0.0327
1532.00,0.0326
1531.00,0.0325
1530.00,0.0325
1529.00,0.0324
1528.00,0.0324
1527.00,0.0323
1526.00,0.0321
1525.00,0.0319
1524.00,0.0317
1523.00,0.0315
1522.00,0.0314
1521.00,0.0315
1520.00,0.0315
1519.00,0.0314
1518.00,0.0312
1517.00,0.0310
1516.00,0.0309
1515.00,0.0309
1514.00,0.0309
1513.00,0.0309
1512.00,0.0307
1511.00,0.0305
1510.00,0.0302
1509.00,0.0300
1508.00,0.0300
1507.00,0.0300
1506.00,0.0299
1505.00,0.0299
1504.00,0.0299
1503.00,0.0298
1502.00,0.0297
1501.00,0.0295
1500.00,0.0295
1499.00,0.0295
1498.00,0.0295
1497.00,0.0296
1496.00,0.0296
1495.00,0.0296
1494.00,0.0294
1493.00,0.0293
1492.00,0.0292
1491.00,0.0291
1490.00,0.0291
1489.00,0.0291
1488.00,0.0291
1487.00,0.0290
1486.00,0.0290
1485.00,0.0290
1484.00,0.0290
1483.00,0.0289
1482.00,0.0289
1481.00,0.0290
1480.00,0.0290
1479.00,0.0289
1478.00,0.0289
1477.00,0.0289
1476.00,0.0289
1475.00,0.0289
1474.00,0.0289
1473.00,0.0290
1472.00,0.0291
1471.00,0.0292
1470.00,0.0294
1469.00,0.0295
1468.00,0.0295
1467.00,0.0294
1466.00,0.0293
1465.00,0.0293
1464.00,0.0292
1463.00,0.0292
1462.00,0.0291
1461.00,0.0290
1460.00,0.0289
1459.00,0.0289
1458.00,0.0291
1457.00,0.0294
1456.00,0.0295
1455.00,0.0296
1454.00,0.0296
1453.00,0.0296
1452.00,0.0297
1451.00,0.0298
1450.00,0.0300
1449.00,0.0302
1448.00,0.0303
1447.00,0.0305
1446.00,0.0305
1445.00,0.0306
1444.00,0.0306
1443.00,0.0306
1442.00,0.0306
1441.00,0.0306
1440.00,0.0306
1439.00,0.0307
1438.00,0.0309
1437.00,0.0311
1436.00,0.0313
1435.00,0.0313
1434.00,0.0312
1433.00,0.0311
1432.00,0.0311
1431.00,0.0311
1430.00,0.0311
1429.00,0.0310
1428.00,0.0311
1427.00,0.0311
1426.00,0.0311
1425.00,0.0311
1424.00,0.0312
1423.00,0.0313
1422.00,0.0313
1421.00,0.0313
1420.00,0.0314
1419.00,0.0316
1418.00,0.0317
1417.00,0.0318
1416.00,0.0319
1415.00,0.0318
1414.00,0.0317
1413.00,0.0316
1412.00,0.0315
1411.00,0.0315
1410.00,0.0315
1409.00,0.0315
1408.00,0.0314
1407.00,0.0314
1406.00,0.0313
1405.00,0.0313
1404.00,0.0313
1403.00,0.0313
1402.00,0.0312
1401.00,0.0311
1400.00,0.0310
1399.00,0.0310
1398.00,0.0310
1397.00,0.0310
1396.00,0.0310
1395.00,0.0310
1394.00,0.0310
1393.00,0.0310
1392.00,0.0311
1391.00,0.0311
1390.00,0.0311
1389.00,0.0311
1388.00,0.0312
1387.00,0.0313
1386.00,0.0313
1385.00,0.0313
1384.00,0.0313
1383.00,0.0313
1382.00,0.0314
1381.00,0.0315
1380.00,0.0316
1379.00,0.0317
1378.00,0.0318
1377.00,0.0318
1376.00,0.0319
1375.00,0.0319
1374.00,0.0321
1373.00,0.0322
1372.00,0.0323
1371.00,0.0324
1370.00,0.0325
1369.00,0.0325
1368.00,0.0326
1367.00,0.0327
1366.00,0.0327
1365.00,0.0327
1364.00,0.0327
1363.00,0.0328
1362.00,0.0329
1361.00,0.0331
1360.00,0.0332
1359.00,0.0332
1358.00,0.0332
1357.00,0.0333
1356.00,0.0333
1355.00,0.0334
1354.00,0.0335
1353.00,0.0335
1352.00,0.0335
1351.00,0.0335
1350.00,0.0334
1349.00,0.0334
1348.00,0.0334
1347.00,0.0334
1346.00,0.0334
1345.00,0.0334
1344.00,0.0333
1343.00,0.0333
1342.00,0.0333
1341.00,0.0333
1340.00,0.0334
1339.00,0.0335
1338.00,0.0336
1337.00,0.0336
1336.00,0.0336
1335.00,0.0336
1334.00,0.0336
1333.00,0.0336
1332.00,0.0335
1331.00,0.0335
1330.00,0.0335
1329.00,0.0334
1328.00,0.0334
1327.00,0.0334
1326.00,0.0334
1325.00,0.0334
1324.00,0.0334
1323.00,0.0335
1322.00,0.0336
1321.00,0.0336
1320.00,0.0337
1319.00,0.0336
1318.00,0.0335
1317.00,0.0334
1316.00,0.0332
1315.00,0.0332
1314.00,0.0332
1313.00,0.0333
1312.00,0.0335
1311.00,0.0336
1310.00,0.0336
1309.00,0.0336
1308.00,0.0335
1307.00,0.0335
1306.00,0.0334
1305.00,0.0335
1304.00,0.0335
1303.00,0.0336
1302.00,0.0337
1301.00,0.0337
1300.00,0.0337
1299.00,0.0336
1298.00,0.0336
1297.00,0.0335
1296.00,0.0335
1295.00,0.0335
1294.00,0.0336
1293.00,0.0337
1292.00,0.0338
1291.00,0.0338
1290.00,0.0339
1289.00,0.0339
1288.00,0.0340
1287.00,0.0339
1286.00,0.0339
1285.00,0.0339
1284.00,0.0339
1283.00,0.0339
1282.00,0.0339
1281.00,0.0339
1280.00,0.0338
1279.00,0.0338
1278.00,0.0337
1277.00,0.0337
1276.00,0.0337
1275.00,0.0337
1274.00,0.0337
1273.00,0.0337
1272.00,0.0336
1271.00,0.0336
1270.00,0.0336
1269.00,0.0337
1268.00,0.0337
1267.00,0.0337
1266.00,0.0337
1265.00,0.0337
1264.00,0.0337
1263.00,0.0336
1262.00,0.0336
1261.00,0.0336
1260.00,0.0336
1259.00,0.0337
1258.00,0.0337
1257.00,0.0336
1256.00,0.0335
1255.00,0.0334
1254.00,0.0334
1253.00,0.0334
1252.00,0.0335
1251.00,0.0335
1250.00,0.0335
1249.00,0.0335
1248.00,0.0335
1247.00,0.0335
1246.00,0.0335
1245.00,0.0336
1244.00,0.0336
1243.00,0.0336
1242.00,0.0336
1241.00,0.0335
1240.00,0.0334
1239.00,0.0335
1238.00,0.0335
1237.00,0.0336
1236.00,0.0337
1235.00,0.0337
1234.00,0.0337
1233.00,0.0337
1232.00,0.0336
1231.00,0.0336
1230.00,0.0336
1229.00,0.0336
1228.00,0.0336
1227.00,0.0336
1226.00,0.0336
1225.00,0.0336
1224.00,0.0335
1223.00,0.0335
1222.00,0.0335
1221.00,0.0335
1220.00,0.0336
1219.00,0.0336
1218.00,0.0336
1217.00,0.0336
1216.00,0.0336
1215.00,0.0336
1214.00,0.0335
1213.00,0.0335
1212.00,0.0336
1211.00,0.0336
1210.00,0.0337
1209.00,0.0337
1208.00,0.0337
1207.00,0.0336
1206.00,0.0335
1205.00,0.0334
1204.00,0.0334
1203.00,0.0334
1202.00,0.0334
1201.00,0.0333
1200.00,0.0333
1199.00,0.0333
1198.00,0.0332
1197.00,0.0331
1196.00,0.0331
1195.00,0.0330
1194.00,0.0330
1193.00,0.0330
1192.00,0.0330
1191.00,0.0329
1190.00,0.0328
1189.00,0.0327
1188.00,0.0326
1187.00,0.0325
1186.00,0.0324
1185.00,0.0324
1184.00,0.0323
1183.00,0.0322
1182.00,0.0320
1181.00,0.0319
1180.00,0.0318
1179.00,0.0317
1178.00,0.0316
1177.00,0.0316
1176.00,0.0315
1175.00,0.0315
1174.00,0.0315
1173.00,0.0314
1172.00,0.0313
1171.00,0.0312
1170.00,0.0310
1169.00,0.0309
1168.00,0.0309
1167.00,0.0309
1166.00,0.0309
1165.00,0.0309
1164.00,0.0308
1163.00,0.0308
1162.00,0.0307
1161.00,0.0307
1160.00,0.0307
1159.00,0.0307
1158.00,0.0306
1157.00,0.0305
1156.00,0.0305
1155.00,0.0306
1154.00,0.0307
1153.00,0.0306
1152.00,0.0305
1151.00,0.0303
1150.00,0.0302
1149.00,0.0301
1148.00,0.0300
1147.00,0.0300
1146.00,0.0301
1145.00,0.0301
1144.00,0.0302
1143.00,0.0303
1142.00,0.0303
1141.00,0.0303
1140.00,0.0302
1139.00,0.0301
1138.00,0.0301
1137.00,0.0301
1136.00,0.0301
1135.00,0.0302
1134.00,0.0303
1133.00,0.0303
1132.00,0.0302
1131.00,0.0301
1130.00,0.0301
1129.00,0.0302
1128.00,0.0303
1127.00,0.0303
1126.00,0.0301
1125.00,0.0299
1124.00,0.0299
1123.00,0.0301
1122.00,0.0304
1121.00,0.0307
1120.00,0.0308
1119.00,0.0307
1118.00,0.0306
1117.00,0.0305
1116.00,0.0306
1115.00,0.0308
1114.00,0.0309
1113.00,0.0308
1112.00,0.0308
1111.00,0.0307
1110.00,0.0308
1109.00,0.0308
1108.00,0.0306
1107.00,0.0305
1106.00,0.0303
1105.00,0.0302
1104.00,0.0302
1103.00,0.0304
1102.00,0.0306
1101.00,0.0306
1100.00,0.0306
1099.00,0.0306
1098.00,0.0305
1097.00,0.0304
1096.00,0.0303
1095.00,0.0302
1094.00,0.0301
1093.00,0.0301
1092.00,0.0302
1091.00,0.0302
1090.00,0.0301
1089.00,0.0299
1088.00,0.0297
1087.00,0.0296
1086.00,0.0297
1085.00,0.0299
1084.00,0.0300
1083.00,0.0301
1082.00,0.0301
1081.00,0.0301
1080.00,0.0302
1079.00,0.0303
1078.00,0.0306
1077.00,0.0308
1076.00,0.0308
1075.00,0.0306
1074.00,0.0304
1073.00,0.0303
1072.00,0.0303
1071.00,0.0302
1070.00,0.0301
1069.00,0.0299
1068.00,0.0299
1067.00,0.0300
1066.00,0.0302
1065.00,0.0304
1064.00,0.0306
1063.00,0.0307
1062.00,0.0307
1061.00,0.0305
1060.00,0.0303
1059.00,0.0302
1058.00,0.0303
1057.00,0.0305
1056.00,0.0307
1055.00,0.0309
1054.00,0.0311
1053.00,0.0312
1052.00,0.0313
1051.00,0.0313
1050.00,0.0314
1049.00,0.0315
1048.00,0.0316
1047.00,0.0316
1046.00,0.0316
1045.00,0.0316
1044.00,0.0317
1043.00,0.0317
1042.00,0.0315
1041.00,0.0313
1040.00,0.0312
1039.00,0.0312
1038.00,0.0314
1037.00,0.0314
1036.00,0.0314
1035.00,0.0314
1034.00,0.0314
1033.00,0.0313
1032.00,0.0313
1031.00,0.0313
1030.00,0.0312
1029.00,0.0311
1028.00,0.0311
1027.00,0.0311
1026.00,0.0311
1025.00,0.0312
1024.00,0.0312
1023.00,0.0311
1022.00,0.0310
1021.00,0.0309
1020.00,0.0308
1019.00,0.0307
1018.00,0.0307
1017.00,0.0307
1016.00,0.0308
1015.00,0.0310
1014.00,0.0310
1013.00,0.0309
1012.00,0.0308
1011.00,0.0308
1010.00,0.0308
1009.00,0.0308
1008.00,0.0308
1007.00,0.0307
1006.00,0.0307
1005.00,0.0307
1004.00,0.0308
1003.00,0.0309
1002.00,0.0309
1001.00,0.0308
1000.00,0.0306
999.00,0.0303
998.00,0.0301
997.00,0.0300
996.00,0.0302
995.00,0.0303
994.00,0.0304
993.00,0.0302
992.00,0.0299
991.00,0.0298
990.00,0.0297
989.00,0.0296
988.00,0.0297
987.00,0.0298
986.00,0.0299
985.00,0.0299
984.00,0.0298
983.00,0.0296
982.00,0.0295
981.00,0.0295
980.00,0.0295
979.00,0.0295
978.00,0.0294
977.00,0.0291
976.00,0.0289
975.00,0.0288
974.00,0.0289
973.00,0.0289
972.00,0.0289
971.00,0.0288
970.00,0.0286
969.00,0.0285
968.00,0.0283
967.00,0.0281
966.00,0.0280
965.00,0.0279
964.00,0.0279
963.00,0.0280
962.00,0.0280
961.00,0.0281
960.00,0.0280
959.00,0.0279
958.00,0.0279
957.00,0.0279
956.00,0.0279
955.00,0.0278
954.00,0.0277
953.00,0.0276
952.00,0.0277
951.00,0.0278
950.00,0.0280
949.00,0.0281
948.00,0.0281
947.00,0.0281
946.00,0.0279
945.00,0.0279
944.00,0.0279
943.00,0.0278
942.00,0.0278
941.00,0.0278
940.00,0.0279
939.00,0.0281
938.00,0.0283
937.00,0.0283
936.00,0.0282
935.00,0.0281
934.00,0.0281
933.00,0.0283
932.00,0.0285
931.00,0.0287
930.00,0.0289
929.00,0.0290
928.00,0.0291
927.00,0.0292
926.00,0.0293
925.00,0.0293
924.00,0.0293
923.00,0.0294
922.00,0.0295
921.00,0.0295
920.00,0.0296
919.00,0.0296
918.00,0.0297
917.00,0.0298
916.00,0.0300
915.00,0.0301
914.00,0.0301
913.00,0.0301
912.00,0.0300
911.00,0.0299
910.00,0.0297
909.00,0.0296
908.00,0.0294
907.00,0.0294
906.00,0.0296
905.00,0.0298
904.00,0.0302
903.00,0.0306
902.00,0.0308
901.00,0.0307
900.00,0.0305
899.00,0.0304
898.00,0.0305
897.00,0.0307
896.00,0.0308
895.00,0.0308
894.00,0.0308
893.00,0.0307
892.00,0.0306
891.00,0.0305
890.00,0.0305
889.00,0.0306
888.00,0.0306
887.00,0.0305
886.00,0.0303
885.00,0.0302
884.00,0.0302
883.00,0.0304
882.00,0.0307
881.00,0.0309
880.00,0.0309
879.00,0.0307
878.00,0.0305
877.00,0.0303
876.00,0.0301
875.00,0.0300
874.00,0.0299
873.00,0.0299
872.00,0.0300
871.00,0.0300
870.00,0.0301
869.00,0.0302
868.00,0.0302
867.00,0.0302
866.00,0.0303
865.00,0.0304
864.00,0.0304
863.00,0.0305
862.00,0.0306
861.00,0.0308
860.00,0.0308
859.00,0.0308
858.00,0.0305
857.00,0.0303
856.00,0.0302
855.00,0.0302
854.00,0.0303
853.00,0.0304
852.00,0.0304
851.00,0.0305
850.00,0.0307
849.00,0.0308
848.00,0.0310
847.00,0.0311
846.00,0.0312
845.00,0.0314
844.00,0.0314
843.00,0.0314
842.00,0.0311
841.00,0.0309
840.00,0.0308
839.00,0.0306
838.00,0.0306
837.00,0.0306
836.00,0.0307
835.00,0.0307
834.00,0.0307
833.00,0.0307
832.00,0.0307
831.00,0.0308
830.00,0.0308
829.00,0.0308
828.00,0.0307
827.00,0.0308
826.00,0.0310
825.00,0.0314
824.00,0.0318
823.00,0.0320
822.00,0.0320
821.00,0.0319
820.00,0.0319
819.00,0.0320
818.00,0.0319
817.00,0.0317
816.00,0.0314
815.00,0.0312
814.00,0.0313
813.00,0.0315
812.00,0.0317
811.00,0.0320
810.00,0.0322
809.00,0.0323
808.00,0.0323
807.00,0.0322
806.00,0.0320
805.00,0.0318
804.00,0.0317
803.00,0.0316
802.00,0.0317
801.00,0.0319
800.00,0.0322
799.00,0.0324
798.00,0.0325
797.00,0.0325
796.00,0.0323
795.00,0.0322
794.00,0.0321
793.00,0.0320
792.00,0.0320
791.00,0.0323
790.00,0.0326
789.00,0.0328
788.00,0.0328
787.00,0.0328
786.00,0.0329
785.00,0.0332
784.00,0.0334
783.00,0.0335
782.00,0.0335
781.00,0.0334
780.00,0.0332
779.00,0.0330
778.00,0.0329
777.00,0.0329
776.00,0.0330
775.00,0.0331
774.00,0.0330
773.00,0.0329
772.00,0.0328
771.00,0.0330
770.00,0.0332
769.00,0.0333
768.00,0.0333
767.00,0.0332
766.00,0.0330
765.00,0.0329
764.00,0.0328
763.00,0.0329
762.00,0.0327
761.00,0.0326
760.00,0.0325
759.00,0.0327
758.00,0.0331
757.00,0.0333
756.00,0.0334
755.00,0.0332
754.00,0.0331
753.00,0.0331
752.00,0.0332
751.00,0.0334
750.00,0.0337
749.00,0.0339
748.00,0.0340
747.00,0.0341
746.00,0.0339
745.00,0.0336
744.00,0.0333
743.00,0.0332
742.00,0.0333
741.00,0.0333
740.00,0.0333
739.00,0.0332
738.00,0.0330
737.00,0.0330
736.00,0.0330
735.00,0.0329
734.00,0.0329
733.00,0.0328
732.00,0.0328
731.00,0.0328
730.00,0.0328
729.00,0.0330
728.00,0.0333
727.00,0.0337
726.00,0.0340
725.00,0.0341
724.00,0.0340
723.00,0.0338
722.00,0.0335
721.00,0.0334
720.00,0.0334
719.00,0.0335
718.00,0.0335
717.00,0.0335
716.00,0.0335
715.00,0.0334
714.00,0.0335
713.00,0.0336
712.00,0.0339
711.00,0.0339
710.00,0.0338
709.00,0.0336
708.00,0.0334
707.00,0.0334
706.00,0.0335
705.00,0.0337
704.00,0.0339
703.00,0.0342
702.00,0.0344
701.00,0.0343
700.00,0.0341
699.00,0.0339
698.00,0.0339
697.00,0.0339
696.00,0.0340
695.00,0.0343
694.00,0.0346
693.00,0.0350
692.00,0.0352
691.00,0.0353
690.00,0.0354
689.00,0.0354
688.00,0.0353
687.00,0.0350
686.00,0.0347
685.00,0.0345
684.00,0.0344
683.00,0.0343
682.00,0.0341
681.00,0.0341
680.00,0.0342
679.00,0.0343
678.00,0.0345
677.00,0.0347
676.00,0.0348
675.00,0.0349
674.00,0.0350
673.00,0.0351
672.00,0.0352
671.00,0.0353
670.00,0.0355
669.00,0.0361
668.00,0.0366
667.00,0.0368
666.00,0.0367
665.00,0.0366
664.00,0.0365
663.00,0.0363
662.00,0.0359
661.00,0.0353
660.00,0.0346
659.00,0.0341
658.00,0.0341
657.00,0.0347
656.00,0.0355
655.00,0.0360
654.00,0.0358
653.00,0.0352
652.00,0.0344
651.00,0.0339
650.00,0.0339
