Created as New Dataset,Monday, April 03 2023
cm-1,A
4000.00,0.0106
3999.00,0.0106
3998.00,0.0106
3997.00,0.0106
3996.00,0.0106
3995.00,0.0105
3994.00,0.0106
3993.00,0.0106
3992.00,0.0106
3991.00,0.0106
3990.00,0.0106
3989.00,0.0106
3988.00,0.0106
3987.00,0.0106
3986.00,0.0106
3985.00,0.0106
3984.00,0.0106
3983.00,0.0106
3982.00,0.0106
3981.00,0.0105
3980.00,0.0105
3979.00,0.0106
3978.00,0.0106
3977.00,0.0106
3976.00,0.0106
3975.00,0.0106
3974.00,0.0106
3973.00,0.0106
3972.00,0.0106
3971.00,0.0106
3970.00,0.0106
3969.00,0.0106
3968.00,0.0105
3967.00,0.0105
3966.00,0.0106
3965.00,0.0106
3964.00,0.0107
3963.00,0.0107
3962.00,0.0107
3961.00,0.0107
3960.00,0.0106
3959.00,0.0106
3958.00,0.0106
3957.00,0.0106
3956.00,0.0106
3955.00,0.0105
3954.00,0.0106
3953.00,0.0106
3952.00,0.0107
3951.00,0.0107
3950.00,0.0107
3949.00,0.0106
3948.00,0.0106
3947.00,0.0106
3946.00,0.0107
3945.00,0.0107
3944.00,0.0107
3943.00,0.0106
3942.00,0.0105
3941.00,0.0105
3940.00,0.0106
3939.00,0.0106
3938.00,0.0106
3937.00,0.0107
3936.00,0.0107
3935.00,0.0107
3934.00,0.0108
3933.00,0.0108
3932.00,0.0108
3931.00,0.0107
3930.00,0.0107
3929.00,0.0107
3928.00,0.0107
3927.00,0.0107
3926.00,0.0107
3925.00,0.0106
3924.00,0.0106
3923.00,0.0106
3922.00,0.0106
3921.00,0.0106
3920.00,0.0106
3919.00,0.0106
3918.00,0.0107
3917.00,0.0106
3916.00,0.0106
3915.00,0.0106
3914.00,0.0106
3913.00,0.0106
3912.00,0.0106
3911.00,0.0106
3910.00,0.0106
3909.00,0.0106
3908.00,0.0107
3907.00,0.0107
3906.00,0.0108
3905.00,0.0108
3904.00,0.0108
3903.00,0.0107
3902.00,0.0107
3901.00,0.0107
3900.00,0.0106
3899.00,0.0105
3898.00,0.0106
3897.00,0.0107
3896.00,0.0108
3895.00,0.0109
3894.00,0.0108
3893.00,0.0107
3892.00,0.0106
3891.00,0.0105
3890.00,0.0106
3889.00,0.0107
3888.00,0.0108
3887.00,0.0108
3886.00,0.0108
3885.00,0.0108
3884.00,0.0109
3883.00,0.0109
3882.00,0.0108
3881.00,0.0106
3880.00,0.0105
3879.00,0.0105
3878.00,0.0106
3877.00,0.0108
3876.00,0.0108
3875.00,0.0108
3874.00,0.0107
3873.00,0.0107
3872.00,0.0108
3871.00,0.0107
3870.00,0.0106
3869.00,0.0106
3868.00,0.0107
3867.00,0.0109
3866.00,0.0109
3865.00,0.0108
3864.00,0.0107
3863.00,0.0107
3862.00,0.0107
3861.00,0.0108
3860.00,0.0108
3859.00,0.0109
3858.00,0.0108
3857.00,0.0108
3856.00,0.0108
3855.00,0.0109
3854.00,0.0111
3853.00,0.0110
3852.00,0.0109
3851.00,0.0109
3850.00,0.0109
3849.00,0.0109
3848.00,0.0108
3847.00,0.0108
3846.00,0.0107
3845.00,0.0108
3844.00,0.0108
3843.00,0.0108
3842.00,0.0109
3841.00,0.0110
3840.00,0.0110
3839.00,0.0110
3838.00,0.0110
3837.00,0.0109
3836.00,0.0109
3835.00,0.0108
3834.00,0.0108
3833.00,0.0108
3832.00,0.0108
3831.00,0.0109
3830.00,0.0109
3829.00,0.0110
3828.00,0.0109
3827.00,0.0108
3826.00,0.0107
3825.00,0.0108
3824.00,0.0109
3823.00,0.0109
3822.00,0.0109
3821.00,0.0109
3820.00,0.0109
3819.00,0.0110
3818.00,0.0111
3817.00,0.0110
3816.00,0.0108
3815.00,0.0107
3814.00,0.0107
3813.00,0.0108
3812.00,0.0107
3811.00,0.0106
3810.00,0.0106
3809.00,0.0106
3808.00,0.0107
3807.00,0.0107
3806.00,0.0108
3805.00,0.0110
3804.00,0.0111
3803.00,0.0111
3802.00,0.0111
3801.00,0.0110
3800.00,0.0110
3799.00,0.0110
3798.00,0.0109
3797.00,0.0107
3796.00,0.0106
3795.00,0.0106
3794.00,0.0107
3793.00,0.0107
3792.00,0.0107
3791.00,0.0106
3790.00,0.0106
3789.00,0.0107
3788.00,0.0107
3787.00,0.0108
3786.00,0.0108
3785.00,0.0108
3784.00,0.0107
3783.00,0.0108
3782.00,0.0108
3781.00,0.0108
3780.00,0.0107
3779.00,0.0106
3778.00,0.0106
3777.00,0.0106
3776.00,0.0106
3775.00,0.0106
3774.00,0.0107
3773.00,0.0107
3772.00,0.0108
3771.00,0.0108
3770.00,0.0108
3769.00,0.0108
3768.00,0.0108
3767.00,0.0108
3766.00,0.0107
3765.00,0.0106
3764.00,0.0107
3763.00,0.0108
3762.00,0.0108
3761.00,0.0109
3760.00,0.0108
3759.00,0.0108
3758.00,0.0108
3757.00,0.0108
3756.00,0.0108
3755.00,0.0109
3754.00,0.0109
3753.00,0.0110
3752.00,0.0112
3751.00,0.0114
3750.00,0.0114
3749.00,0.0113
3748.00,0.0112
3747.00,0.0112
3746.00,0.0110
3745.00,0.0109
3744.00,0.0108
3743.00,0.0109
3742.00,0.0110
3741.00,0.0111
3740.00,0.0111
3739.00,0.0110
3738.00,0.0110
3737.00,0.0110
3736.00,0.0110
3735.00,0.0109
3734.00,0.0107
3733.00,0.0106
3732.00,0.0106
3731.00,0.0107
3730.00,0.0108
3729.00,0.0109
3728.00,0.0109
3727.00,0.0108
3726.00,0.0108
3725.00,0.0108
3724.00,0.0108
3723.00,0.0108
3722.00,0.0108
3721.00,0.0107
3720.00,0.0107
3719.00,0.0107
3718.00,0.0108
3717.00,0.0108
3716.00,0.0108
3715.00,0.0108
3714.00,0.0108
3713.00,0.0108
3712.00,0.0109
3711.00,0.0108
3710.00,0.0108
3709.00,0.0107
3708.00,0.0108
3707.00,0.0108
3706.00,0.0108
3705.00,0.0108
3704.00,0.0107
3703.00,0.0107
3702.00,0.0106
3701.00,0.0106
3700.00,0.0107
3699.00,0.0108
3698.00,0.0109
3697.00,0.0109
3696.00,0.0109
3695.00,0.0108
3694.00,0.0108
3693.00,0.0108
3692.00,0.0108
3691.00,0.0108
3690.00,0.0109
3689.00,0.0109
3688.00,0.0109
3687.00,0.0109
3686.00,0.0110
3685.00,0.0111
3684.00,0.0110
3683.00,0.0110
3682.00,0.0110
3681.00,0.0110
3680.00,0.0109
3679.00,0.0109
3678.00,0.0109
3677.00,0.0111
3676.00,0.0112
3675.00,0.0113
3674.00,0.0114
3673.00,0.0116
3672.00,0.0117
3671.00,0.0115
3670.00,0.0113
3669.00,0.0111
3668.00,0.0111
3667.00,0.0112
3666.00,0.0113
3665.00,0.0113
3664.00,0.0114
3663.00,0.0115
3662.00,0.0115
3661.00,0.0116
3660.00,0.0116
3659.00,0.0116
3658.00,0.0117
3657.00,0.0117
3656.00,0.0118
3655.00,0.0118
3654.00,0.0119
3653.00,0.0119
3652.00,0.0118
3651.00,0.0120
3650.00,0.0123
3649.00,0.0125
3648.00,0.0124
3647.00,0.0123
3646.00,0.0123
3645.00,0.0123
3644.00,0.0124
3643.00,0.0124
3642.00,0.0124
3641.00,0.0125
3640.00,0.0125
3639.00,0.0126
3638.00,0.0125
3637.00,0.0125
3636.00,0.0126
3635.00,0.0126
3634.00,0.0127
3633.00,0.0127
3632.00,0.0127
3631.00,0.0128
3630.00,0.0129
3629.00,0.0131
3628.00,0.0131
3627.00,0.0132
3626.00,0.0133
3625.00,0.0133
3624.00,0.0132
3623.00,0.0132
3622.00,0.0132
3621.00,0.0133
3620.00,0.0134
3619.00,0.0135
3618.00,0.0135
3617.00,0.0136
3616.00,0.0136
3615.00,0.0136
3614.00,0.0136
3613.00,0.0136
3612.00,0.0136
3611.00,0.0137
3610.00,0.0138
3609.00,0.0138
3608.00,0.0138
3607.00,0.0137
3606.00,0.0137
3605.00,0.0138
3604.00,0.0138
3603.00,0.0138
3602.00,0.0138
3601.00,0.0139
3600.00,0.0139
3599.00,0.0140
3598.00,0.0140
3597.00,0.0140
3596.00,0.0140
3595.00,0.0141
3594.00,0.0141
3593.00,0.0142
3592.00,0.0142
3591.00,0.0142
3590.00,0.0141
3589.00,0.0141
3588.00,0.0141
3587.00,0.0141
3586.00,0.0141
3585.00,0.0142
3584.00,0.0142
3583.00,0.0142
3582.00,0.0142
3581.00,0.0143
3580.00,0.0143
3579.00,0.0143
3578.00,0.0143
3577.00,0.0144
3576.00,0.0144
3575.00,0.0144
3574.00,0.0144
3573.00,0.0144
3572.00,0.0145
3571.00,0.0145
3570.00,0.0145
3569.00,0.0146
3568.00,0.0148
3567.00,0.0148
3566.00,0.0148
3565.00,0.0148
3564.00,0.0148
3563.00,0.0148
3562.00,0.0148
3561.00,0.0148
3560.00,0.0148
3559.00,0.0148
3558.00,0.0148
3557.00,0.0148
3556.00,0.0148
3555.00,0.0148
3554.00,0.0149
3553.00,0.0149
3552.00,0.0150
3551.00,0.0150
3550.00,0.0151
3549.00,0.0151
3548.00,0.0152
3547.00,0.0152
3546.00,0.0153
3545.00,0.0153
3544.00,0.0153
3543.00,0.0152
3542.00,0.0151
3541.00,0.0151
3540.00,0.0150
3539.00,0.0151
3538.00,0.0151
3537.00,0.0152
3536.00,0.0152
3535.00,0.0153
3534.00,0.0153
3533.00,0.0153
3532.00,0.0153
3531.00,0.0153
3530.00,0.0154
3529.00,0.0154
3528.00,0.0154
3527.00,0.0155
3526.00,0.0155
3525.00,0.0155
3524.00,0.0155
3523.00,0.0155
3522.00,0.0155
3521.00,0.0155
3520.00,0.0155
3519.00,0.0155
3518.00,0.0156
3517.00,0.0157
3516.00,0.0157
3515.00,0.0157
3514.00,0.0156
3513.00,0.0156
3512.00,0.0156
3511.00,0.0156
3510.00,0.0157
3509.00,0.0157
3508.00,0.0157
3507.00,0.0157
3506.00,0.0157
3505.00,0.0158
3504.00,0.0158
3503.00,0.0159
3502.00,0.0159
3501.00,0.0159
3500.00,0.0159
3499.00,0.0159
3498.00,0.0159
3497.00,0.0160
3496.00,0.0161
3495.00,0.0161
3494.00,0.0161
3493.00,0.0161
3492.00,0.0161
3491.00,0.0161
3490.00,0.0161
3489.00,0.0161
3488.00,0.0161
3487.00,0.0161
3486.00,0.0161
3485.00,0.0161
3484.00,0.0161
3483.00,0.0162
3482.00,0.0162
3481.00,0.0162
3480.00,0.0162
3479.00,0.0162
3478.00,0.0162
3477.00,0.0162
3476.00,0.0162
3475.00,0.0163
3474.00,0.0163
3473.00,0.0163
3472.00,0.0163
3471.00,0.0163
3470.00,0.0163
3469.00,0.0163
3468.00,0.0163
3467.00,0.0164
3466.00,0.0164
3465.00,0.0164
3464.00,0.0164
3463.00,0.0165
3462.00,0.0165
3461.00,0.0165
3460.00,0.0165
3459.00,0.0165
3458.00,0.0165
3457.00,0.0165
3456.00,0.0165
3455.00,0.0165
3454.00,0.0166
3453.00,0.0166
3452.00,0.0167
3451.00,0.0167
3450.00,0.0168
3449.00,0.0168
3448.00,0.0169
3447.00,0.0169
3446.00,0.0168
3445.00,0.0168
3444.00,0.0168
3443.00,0.0168
3442.00,0.0168
3441.00,0.0168
3440.00,0.0168
3439.00,0.0168
3438.00,0.0168
3437.00,0.0169
3436.00,0.0170
3435.00,0.0170
3434.00,0.0170
3433.00,0.0170
3432.00,0.0170
3431.00,0.0170
3430.00,0.0170
3429.00,0.0170
3428.00,0.0169
3427.00,0.0170
3426.00,0.0170
3425.00,0.0170
3424.00,0.0171
3423.00,0.0171
3422.00,0.0171
3421.00,0.0171
3420.00,0.0171
3419.00,0.0171
3418.00,0.0171
3417.00,0.0171
3416.00,0.0171
3415.00,0.0171
3414.00,0.0171
3413.00,0.0171
3412.00,0.0172
3411.00,0.0171
3410.00,0.0171
3409.00,0.0171
3408.00,0.0171
3407.00,0.0172
3406.00,0.0172
3405.00,0.0173
3404.00,0.0173
3403.00,0.0173
3402.00,0.0173
3401.00,0.0173
3400.00,0.0173
3399.00,0.0173
3398.00,0.0173
3397.00,0.0173
3396.00,0.0173
3395.00,0.0174
3394.00,0.0174
3393.00,0.0174
3392.00,0.0174
3391.00,0.0174
3390.00,0.0174
3389.00,0.0174
3388.00,0.0174
3387.00,0.0174
3386.00,0.0174
3385.00,0.0174
3384.00,0.0174
3383.00,0.0174
3382.00,0.0174
3381.00,0.0174
3380.00,0.0175
3379.00,0.0175
3378.00,0.0175
3377.00,0.0176
3376.00,0.0176
3375.00,0.0176
3374.00,0.0176
3373.00,0.0175
3372.00,0.0175
3371.00,0.0175
3370.00,0.0175
3369.00,0.0175
3368.00,0.0175
3367.00,0.0175
3366.00,0.0176
3365.00,0.0176
3364.00,0.0176
3363.00,0.0176
3362.00,0.0177
3361.00,0.0177
3360.00,0.0177
3359.00,0.0177
3358.00,0.0177
3357.00,0.0177
3356.00,0.0178
3355.00,0.0178
3354.00,0.0177
3353.00,0.0177
3352.00,0.0178
3351.00,0.0178
3350.00,0.0179
3349.00,0.0179
3348.00,0.0179
3347.00,0.0178
3346.00,0.0177
3345.00,0.0177
3344.00,0.0177
3343.00,0.0177
3342.00,0.0178
3341.00,0.0178
3340.00,0.0178
3339.00,0.0178
3338.00,0.0178
3337.00,0.0178
3336.00,0.0178
3335.00,0.0178
3334.00,0.0178
3333.00,0.0178
3332.00,0.0179
3331.00,0.0179
3330.00,0.0179
3329.00,0.0179
3328.00,0.0180
3327.00,0.0180
3326.00,0.0180
3325.00,0.0180
3324.00,0.0180
3323.00,0.0179
3322.00,0.0179
3321.00,0.0179
3320.00,0.0179
3319.00,0.0179
3318.00,0.0179
3317.00,0.0179
3316.00,0.0179
3315.00,0.0179
3314.00,0.0179
3313.00,0.0179
3312.00,0.0179
3311.00,0.0179
3310.00,0.0180
3309.00,0.0180
3308.00,0.0180
3307.00,0.0180
3306.00,0.0180
3305.00,0.0180
3304.00,0.0180
3303.00,0.0180
3302.00,0.0180
3301.00,0.0180
3300.00,0.0180
3299.00,0.0181
3298.00,0.0181
3297.00,0.0181
3296.00,0.0181
3295.00,0.0181
3294.00,0.0181
3293.00,0.0181
3292.00,0.0181
3291.00,0.0181
3290.00,0.0181
3289.00,0.0181
3288.00,0.0181
3287.00,0.0181
3286.00,0.0182
3285.00,0.0182
3284.00,0.0182
3283.00,0.0182
3282.00,0.0182
3281.00,0.0182
3280.00,0.0182
3279.00,0.0181
3278.00,0.0181
3277.00,0.0181
3276.00,0.0181
3275.00,0.0182
3274.00,0.0182
3273.00,0.0183
3272.00,0.0183
3271.00,0.0183
3270.00,0.0182
3269.00,0.0182
3268.00,0.0182
3267.00,0.0182
3266.00,0.0182
3265.00,0.0182
3264.00,0.0181
3263.00,0.0181
3262.00,0.0181
3261.00,0.0181
3260.00,0.0181
3259.00,0.0181
3258.00,0.0181
3257.00,0.0182
3256.00,0.0182
3255.00,0.0182
3254.00,0.0182
3253.00,0.0182
3252.00,0.0182
3251.00,0.0182
3250.00,0.0182
3249.00,0.0183
3248.00,0.0183
3247.00,0.0183
3246.00,0.0183
3245.00,0.0183
3244.00,0.0183
3243.00,0.0183
3242.00,0.0183
3241.00,0.0183
3240.00,0.0183
3239.00,0.0183
3238.00,0.0183
3237.00,0.0183
3236.00,0.0183
3235.00,0.0183
3234.00,0.0183
3233.00,0.0183
3232.00,0.0183
3231.00,0.0184
3230.00,0.0184
3229.00,0.0184
3228.00,0.0184
3227.00,0.0183
3226.00,0.0183
3225.00,0.0183
3224.00,0.0183
3223.00,0.0182
3222.00,0.0183
3221.00,0.0183
3220.00,0.0183
3219.00,0.0184
3218.00,0.0184
3217.00,0.0184
3216.00,0.0183
3215.00,0.0183
3214.00,0.0183
3213.00,0.0184
3212.00,0.0184
3211.00,0.0184
3210.00,0.0184
3209.00,0.0184
3208.00,0.0183
3207.00,0.0183
3206.00,0.0183
3205.00,0.0183
3204.00,0.0183
3203.00,0.0183
3202.00,0.0183
3201.00,0.0183
3200.00,0.0184
3199.00,0.0184
3198.00,0.0184
3197.00,0.0184
3196.00,0.0183
3195.00,0.0183
3194.00,0.0183
3193.00,0.0183
3192.00,0.0183
3191.00,0.0183
3190.00,0.0183
3189.00,0.0183
3188.00,0.0183
3187.00,0.0184
3186.00,0.0184
3185.00,0.0184
3184.00,0.0183
3183.00,0.0183
3182.00,0.0183
3181.00,0.0183
3180.00,0.0183
3179.00,0.0183
3178.00,0.0183
3177.00,0.0182
3176.00,0.0182
3175.00,0.0182
3174.00,0.0182
3173.00,0.0182
3172.00,0.0183
3171.00,0.0183
3170.00,0.0183
3169.00,0.0183
3168.00,0.0183
3167.00,0.0183
3166.00,0.0182
3165.00,0.0182
3164.00,0.0182
3163.00,0.0182
3162.00,0.0182
3161.00,0.0182
3160.00,0.0182
3159.00,0.0182
3158.00,0.0182
3157.00,0.0182
3156.00,0.0181
3155.00,0.0181
3154.00,0.0181
3153.00,0.0181
3152.00,0.0181
3151.00,0.0181
3150.00,0.0181
3149.00,0.0181
3148.00,0.0181
3147.00,0.0181
3146.00,0.0181
3145.00,0.0181
3144.00,0.0181
3143.00,0.0181
3142.00,0.0181
3141.00,0.0181
3140.00,0.0182
3139.00,0.0182
3138.00,0.0182
3137.00,0.0182
3136.00,0.0181
3135.00,0.0181
3134.00,0.0181
3133.00,0.0181
3132.00,0.0181
3131.00,0.0181
3130.00,0.0181
3129.00,0.0181
3128.00,0.0180
3127.00,0.0180
3126.00,0.0180
3125.00,0.0180
3124.00,0.0181
3123.00,0.0181
3122.00,0.0181
3121.00,0.0181
3120.00,0.0181
3119.00,0.0182
3118.00,0.0182
3117.00,0.0181
3116.00,0.0181
3115.00,0.0180
3114.00,0.0180
3113.00,0.0180
3112.00,0.0179
3111.00,0.0179
3110.00,0.0179
3109.00,0.0179
3108.00,0.0179
3107.00,0.0180
3106.00,0.0180
3105.00,0.0180
3104.00,0.0180
3103.00,0.0180
3102.00,0.0180
3101.00,0.0180
3100.00,0.0180
3099.00,0.0179
3098.00,0.0179
3097.00,0.0178
3096.00,0.0178
3095.00,0.0178
3094.00,0.0178
3093.00,0.0178
3092.00,0.0179
3091.00,0.0179
3090.00,0.0179
3089.00,0.0179
3088.00,0.0179
3087.00,0.0179
3086.00,0.0179
3085.00,0.0179
3084.00,0.0179
3083.00,0.0179
3082.00,0.0179
3081.00,0.0179
3080.00,0.0179
3079.00,0.0179
3078.00,0.0179
3077.00,0.0178
3076.00,0.0178
3075.00,0.0178
3074.00,0.0178
3073.00,0.0178
3072.00,0.0178
3071.00,0.0178
3070.00,0.0177
3069.00,0.0177
3068.00,0.0178
3067.00,0.0178
3066.00,0.0178
3065.00,0.0178
3064.00,0.0178
3063.00,0.0178
3062.00,0.0177
3061.00,0.0177
3060.00,0.0177
3059.00,0.0177
3058.00,0.0177
3057.00,0.0176
3056.00,0.0176
3055.00,0.0176
3054.00,0.0176
3053.00,0.0176
3052.00,0.0176
3051.00,0.0176
3050.00,0.0176
3049.00,0.0176
3048.00,0.0176
3047.00,0.0176
3046.00,0.0176
3045.00,0.0176
3044.00,0.0176
3043.00,0.0175
3042.00,0.0175
3041.00,0.0175
3040.00,0.0174
3039.00,0.0174
3038.00,0.0174
3037.00,0.0174
3036.00,0.0174
3035.00,0.0174
3034.00,0.0174
3033.00,0.0174
3032.00,0.0173
3031.00,0.0173
3030.00,0.0173
3029.00,0.0173
3028.00,0.0172
3027.00,0.0172
3026.00,0.0173
3025.00,0.0173
3024.00,0.0173
3023.00,0.0172
3022.00,0.0172
3021.00,0.0172
3020.00,0.0171
3019.00,0.0171
3018.00,0.0171
3017.00,0.0171
3016.00,0.0171
3015.00,0.0171
3014.00,0.0171
3013.00,0.0171
3012.00,0.0171
3011.00,0.0170
3010.00,0.0170
3009.00,0.0169
3008.00,0.0169
3007.00,0.0168
3006.00,0.0168
3005.00,0.0168
3004.00,0.0168
3003.00,0.0168
3002.00,0.0168
3001.00,0.0167
3000.00,0.0167
2999.00,0.0167
2998.00,0.0166
2997.00,0.0166
2996.00,0.0166
2995.00,0.0166
2994.00,0.0166
2993.00,0.0166
2992.00,0.0166
2991.00,0.0165
2990.00,0.0165
2989.00,0.0164
2988.00,0.0164
2987.00,0.0163
2986.00,0.0163
2985.00,0.0162
2984.00,0.0161
2983.00,0.0160
2982.00,0.0160
2981.00,0.0159
2980.00,0.0159
2979.00,0.0159
2978.00,0.0159
2977.00,0.0159
2976.00,0.0159
2975.00,0.0159
2974.00,0.0159
2973.00,0.0158
2972.00,0.0158
2971.00,0.0158
2970.00,0.0158
2969.00,0.0158
2968.00,0.0158
2967.00,0.0158
2966.00,0.0157
2965.00,0.0157
2964.00,0.0157
2963.00,0.0156
2962.00,0.0156
2961.00,0.0155
2960.00,0.0155
2959.00,0.0155
2958.00,0.0155
2957.00,0.0155
2956.00,0.0155
2955.00,0.0155
2954.00,0.0155
2953.00,0.0155
2952.00,0.0155
2951.00,0.0156
2950.00,0.0156
2949.00,0.0155
2948.00,0.0155
2947.00,0.0155
2946.00,0.0154
2945.00,0.0154
2944.00,0.0154
2943.00,0.0154
2942.00,0.0153
2941.00,0.0153
2940.00,0.0152
2939.00,0.0151
2938.00,0.0151
2937.00,0.0150
2936.00,0.0149
2935.00,0.0148
2934.00,0.0147
2933.00,0.0146
2932.00,0.0145
2931.00,0.0144
2930.00,0.0143
2929.00,0.0142
2928.00,0.0141
2927.00,0.0140
2926.00,0.0140
2925.00,0.0139
2924.00,0.0139
2923.00,0.0139
2922.00,0.0139
2921.00,0.0139
2920.00,0.0139
2919.00,0.0139
2918.00,0.0139
2917.00,0.0140
2916.00,0.0141
2915.00,0.0142
2914.00,0.0143
2913.00,0.0144
2912.00,0.0145
2911.00,0.0146
2910.00,0.0147
2909.00,0.0147
2908.00,0.0148
2907.00,0.0149
2906.00,0.0149
2905.00,0.0150
2904.00,0.0150
2903.00,0.0150
2902.00,0.0150
2901.00,0.0150
2900.00,0.0150
2899.00,0.0150
2898.00,0.0151
2897.00,0.0151
2896.00,0.0151
2895.00,0.0151
2894.00,0.0151
2893.00,0.0151
2892.00,0.0151
2891.00,0.0151
2890.00,0.0151
2889.00,0.0151
2888.00,0.0152
2887.00,0.0152
2886.00,0.0152
2885.00,0.0152
2884.00,0.0152
2883.00,0.0152
2882.00,0.0152
2881.00,0.0152
2880.00,0.0152
2879.00,0.0152
2878.00,0.0152
2877.00,0.0152
2876.00,0.0152
2875.00,0.0152
2874.00,0.0151
2873.00,0.0151
2872.00,0.0151
2871.00,0.0150
2870.00,0.0150
2869.00,0.0149
2868.00,0.0149
2867.00,0.0148
2866.00,0.0148
2865.00,0.0148
2864.00,0.0148
2863.00,0.0147
2862.00,0.0147
2861.00,0.0147
2860.00,0.0146
2859.00,0.0145
2858.00,0.0144
2857.00,0.0143
2856.00,0.0142
2855.00,0.0142
2854.00,0.0142
2853.00,0.0141
2852.00,0.0141
2851.00,0.0141
2850.00,0.0142
2849.00,0.0143
2848.00,0.0144
2847.00,0.0145
2846.00,0.0146
2845.00,0.0147
2844.00,0.0148
2843.00,0.0148
2842.00,0.0149
2841.00,0.0149
2840.00,0.0150
2839.00,0.0150
2838.00,0.0151
2837.00,0.0151
2836.00,0.0151
2835.00,0.0150
2834.00,0.0150
2833.00,0.0150
2832.00,0.0150
2831.00,0.0150
2830.00,0.0151
2829.00,0.0151
2828.00,0.0151
2827.00,0.0151
2826.00,0.0150
2825.00,0.0150
2824.00,0.0150
2823.00,0.0150
2822.00,0.0151
2821.00,0.0151
2820.00,0.0151
2819.00,0.0151
2818.00,0.0151
2817.00,0.0151
2816.00,0.0151
2815.00,0.0151
2814.00,0.0151
2813.00,0.0151
2812.00,0.0151
2811.00,0.0151
2810.00,0.0150
2809.00,0.0150
2808.00,0.0150
2807.00,0.0150
2806.00,0.0150
2805.00,0.0150
2804.00,0.0150
2803.00,0.0150
2802.00,0.0150
2801.00,0.0150
2800.00,0.0149
2799.00,0.0149
2798.00,0.0149
2797.00,0.0149
2796.00,0.0149
2795.00,0.0149
2794.00,0.0149
2793.00,0.0149
2792.00,0.0148
2791.00,0.0148
2790.00,0.0148
2789.00,0.0149
2788.00,0.0149
2787.00,0.0148
2786.00,0.0148
2785.00,0.0148
2784.00,0.0148
2783.00,0.0148
2782.00,0.0148
2781.00,0.0148
2780.00,0.0148
2779.00,0.0147
2778.00,0.0147
2777.00,0.0147
2776.00,0.0147
2775.00,0.0147
2774.00,0.0147
2773.00,0.0147
2772.00,0.0147
2771.00,0.0147
2770.00,0.0147
2769.00,0.0147
2768.00,0.0147
2767.00,0.0147
2766.00,0.0147
2765.00,0.0146
2764.00,0.0146
2763.00,0.0146
2762.00,0.0146
2761.00,0.0146
2760.00,0.0146
2759.00,0.0146
2758.00,0.0146
2757.00,0.0146
2756.00,0.0146
2755.00,0.0146
2754.00,0.0146
2753.00,0.0146
2752.00,0.0146
2751.00,0.0146
2750.00,0.0145
2749.00,0.0145
2748.00,0.0145
2747.00,0.0145
2746.00,0.0145
2745.00,0.0145
2744.00,0.0145
2743.00,0.0144
2742.00,0.0144
2741.00,0.0144
2740.00,0.0144
2739.00,0.0144
2738.00,0.0144
2737.00,0.0144
2736.00,0.0144
2735.00,0.0144
2734.00,0.0144
2733.00,0.0143
2732.00,0.0144
2731.00,0.0144
2730.00,0.0144
2729.00,0.0144
2728.00,0.0143
2727.00,0.0143
2726.00,0.0143
2725.00,0.0143
2724.00,0.0143
2723.00,0.0143
2722.00,0.0143
2721.00,0.0144
2720.00,0.0144
2719.00,0.0144
2718.00,0.0143
2717.00,0.0143
2716.00,0.0143
2715.00,0.0143
2714.00,0.0143
2713.00,0.0143
2712.00,0.0143
2711.00,0.0143
2710.00,0.0142
2709.00,0.0142
2708.00,0.0142
2707.00,0.0142
2706.00,0.0142
2705.00,0.0142
2704.00,0.0142
2703.00,0.0142
2702.00,0.0142
2701.00,0.0142
2700.00,0.0142
2699.00,0.0142
2698.00,0.0142
2697.00,0.0142
2696.00,0.0142
2695.00,0.0142
2694.00,0.0142
2693.00,0.0142
2692.00,0.0141
2691.00,0.0141
2690.00,0.0141
2689.00,0.0141
2688.00,0.0141
2687.00,0.0141
2686.00,0.0141
2685.00,0.0141
2684.00,0.0141
2683.00,0.0141
2682.00,0.0141
2681.00,0.0141
2680.00,0.0141
2679.00,0.0140
2678.00,0.0140
2677.00,0.0140
2676.00,0.0140
2675.00,0.0140
2674.00,0.0141
2673.00,0.0141
2672.00,0.0141
2671.00,0.0141
2670.00,0.0140
2669.00,0.0140
2668.00,0.0140
2667.00,0.0141
2666.00,0.0141
2665.00,0.0141
2664.00,0.0142
2663.00,0.0142
2662.00,0.0142
2661.00,0.0142
2660.00,0.0142
2659.00,0.0142
2658.00,0.0142
2657.00,0.0142
2656.00,0.0142
2655.00,0.0142
2654.00,0.0143
2653.00,0.0143
2652.00,0.0143
2651.00,0.0143
2650.00,0.0142
2649.00,0.0142
2648.00,0.0142
2647.00,0.0142
2646.00,0.0143
2645.00,0.0143
2644.00,0.0143
2643.00,0.0143
2642.00,0.0142
2641.00,0.0142
2640.00,0.0142
2639.00,0.0142
2638.00,0.0142
2637.00,0.0142
2636.00,0.0142
2635.00,0.0142
2634.00,0.0142
2633.00,0.0142
2632.00,0.0142
2631.00,0.0143
2630.00,0.0143
2629.00,0.0143
2628.00,0.0143
2627.00,0.0143
2626.00,0.0143
2625.00,0.0143
2624.00,0.0143
2623.00,0.0143
2622.00,0.0143
2621.00,0.0143
2620.00,0.0143
2619.00,0.0143
2618.00,0.0142
2617.00,0.0142
2616.00,0.0142
2615.00,0.0142
2614.00,0.0142
2613.00,0.0142
2612.00,0.0142
2611.00,0.0142
2610.00,0.0142
2609.00,0.0143
2608.00,0.0143
2607.00,0.0143
2606.00,0.0143
2605.00,0.0143
2604.00,0.0143
2603.00,0.0143
2602.00,0.0143
2601.00,0.0142
2600.00,0.0142
2599.00,0.0142
2598.00,0.0142
2597.00,0.0142
2596.00,0.0142
2595.00,0.0142
2594.00,0.0142
2593.00,0.0142
2592.00,0.0142
2591.00,0.0142
2590.00,0.0142
2589.00,0.0142
2588.00,0.0141
2587.00,0.0142
2586.00,0.0142
2585.00,0.0142
2584.00,0.0142
2583.00,0.0142
2582.00,0.0142
2581.00,0.0142
2580.00,0.0143
2579.00,0.0143
2578.00,0.0143
2577.00,0.0142
2576.00,0.0142
2575.00,0.0142
2574.00,0.0141
2573.00,0.0141
2572.00,0.0141
2571.00,0.0141
2570.00,0.0141
2569.00,0.0141
2568.00,0.0142
2567.00,0.0142
2566.00,0.0142
2565.00,0.0142
2564.00,0.0142
2563.00,0.0141
2562.00,0.0141
2561.00,0.0140
2560.00,0.0140
2559.00,0.0140
2558.00,0.0141
2557.00,0.0141
2556.00,0.0141
2555.00,0.0141
2554.00,0.0141
2553.00,0.0141
2552.00,0.0141
2551.00,0.0141
2550.00,0.0141
2549.00,0.0141
2548.00,0.0141
2547.00,0.0141
2546.00,0.0141
2545.00,0.0140
2544.00,0.0139
2543.00,0.0139
2542.00,0.0139
2541.00,0.0139
2540.00,0.0140
2539.00,0.0140
2538.00,0.0140
2537.00,0.0140
2536.00,0.0139
2535.00,0.0138
2534.00,0.0138
2533.00,0.0138
2532.00,0.0138
2531.00,0.0138
2530.00,0.0139
2529.00,0.0139
2528.00,0.0139
2527.00,0.0139
2526.00,0.0139
2525.00,0.0139
2524.00,0.0139
2523.00,0.0139
2522.00,0.0139
2521.00,0.0139
2520.00,0.0139
2519.00,0.0139
2518.00,0.0139
2517.00,0.0139
2516.00,0.0139
2515.00,0.0139
2514.00,0.0139
2513.00,0.0139
2512.00,0.0139
2511.00,0.0138
2510.00,0.0138
2509.00,0.0138
2508.00,0.0137
2507.00,0.0137
2506.00,0.0137
2505.00,0.0138
2504.00,0.0138
2503.00,0.0138
2502.00,0.0138
2501.00,0.0137
2500.00,0.0137
2499.00,0.0137
2498.00,0.0137
2497.00,0.0137
2496.00,0.0138
2495.00,0.0138
2494.00,0.0139
2493.00,0.0139
2492.00,0.0139
2491.00,0.0138
2490.00,0.0138
2489.00,0.0138
2488.00,0.0137
2487.00,0.0137
2486.00,0.0137
2485.00,0.0136
2484.00,0.0136
2483.00,0.0136
2482.00,0.0136
2481.00,0.0136
2480.00,0.0136
2479.00,0.0137
2478.00,0.0137
2477.00,0.0137
2476.00,0.0137
2475.00,0.0137
2474.00,0.0137
2473.00,0.0136
2472.00,0.0136
2471.00,0.0136
2470.00,0.0136
2469.00,0.0136
2468.00,0.0136
2467.00,0.0136
2466.00,0.0136
2465.00,0.0136
2464.00,0.0136
2463.00,0.0136
2462.00,0.0136
2461.00,0.0136
2460.00,0.0136
2459.00,0.0136
2458.00,0.0136
2457.00,0.0136
2456.00,0.0135
2455.00,0.0135
2454.00,0.0136
2453.00,0.0136
2452.00,0.0137
2451.00,0.0137
2450.00,0.0137
2449.00,0.0137
2448.00,0.0136
2447.00,0.0136
2446.00,0.0136
2445.00,0.0136
2444.00,0.0135
2443.00,0.0135
2442.00,0.0134
2441.00,0.0134
2440.00,0.0134
2439.00,0.0134
2438.00,0.0134
2437.00,0.0134
2436.00,0.0134
2435.00,0.0134
2434.00,0.0134
2433.00,0.0135
2432.00,0.0135
2431.00,0.0135
2430.00,0.0134
2429.00,0.0134
2428.00,0.0134
2427.00,0.0133
2426.00,0.0134
2425.00,0.0134
2424.00,0.0134
2423.00,0.0133
2422.00,0.0133
2421.00,0.0132
2420.00,0.0131
2419.00,0.0131
2418.00,0.0131
2417.00,0.0131
2416.00,0.0131
2415.00,0.0131
2414.00,0.0132
2413.00,0.0132
2412.00,0.0132
2411.00,0.0132
2410.00,0.0131
2409.00,0.0131
2408.00,0.0131
2407.00,0.0130
2406.00,0.0130
2405.00,0.0130
2404.00,0.0130
2403.00,0.0131
2402.00,0.0131
2401.00,0.0131
2400.00,0.0131
2399.00,0.0130
2398.00,0.0129
2397.00,0.0129
2396.00,0.0130
2395.00,0.0130
2394.00,0.0130
2393.00,0.0129
2392.00,0.0129
2391.00,0.0129
2390.00,0.0128
2389.00,0.0128
2388.00,0.0128
2387.00,0.0127
2386.00,0.0126
2385.00,0.0126
2384.00,0.0126
2383.00,0.0125
2382.00,0.0125
2381.00,0.0124
2380.00,0.0124
2379.00,0.0123
2378.00,0.0123
2377.00,0.0123
2376.00,0.0124
2375.00,0.0125
2374.00,0.0125
2373.00,0.0125
2372.00,0.0125
2371.00,0.0126
2370.00,0.0127
2369.00,0.0127
2368.00,0.0126
2367.00,0.0124
2366.00,0.0124
2365.00,0.0125
2364.00,0.0126
2363.00,0.0127
2362.00,0.0127
2361.00,0.0127
2360.00,0.0127
2359.00,0.0127
2358.00,0.0125
2357.00,0.0125
2356.00,0.0125
2355.00,0.0125
2354.00,0.0124
2353.00,0.0124
2352.00,0.0125
2351.00,0.0127
2350.00,0.0128
2349.00,0.0127
2348.00,0.0124
2347.00,0.0121
2346.00,0.0120
2345.00,0.0121
2344.00,0.0124
2343.00,0.0125
2342.00,0.0126
2341.00,0.0126
2340.00,0.0127
2339.00,0.0127
2338.00,0.0127
2337.00,0.0127
2336.00,0.0127
2335.00,0.0127
2334.00,0.0127
2333.00,0.0127
2332.00,0.0127
2331.00,0.0128
2330.00,0.0129
2329.00,0.0130
2328.00,0.0132
2327.00,0.0133
2326.00,0.0133
2325.00,0.0133
2324.00,0.0133
2323.00,0.0132
2322.00,0.0132
2321.00,0.0132
2320.00,0.0132
2319.00,0.0132
2318.00,0.0132
2317.00,0.0132
2316.00,0.0131
2315.00,0.0130
2314.00,0.0129
2313.00,0.0129
2312.00,0.0129
2311.00,0.0130
2310.00,0.0130
2309.00,0.0131
2308.00,0.0131
2307.00,0.0131
2306.00,0.0131
2305.00,0.0131
2304.00,0.0130
2303.00,0.0129
2302.00,0.0128
2301.00,0.0128
2300.00,0.0127
2299.00,0.0127
2298.00,0.0127
2297.00,0.0127
2296.00,0.0127
2295.00,0.0127
2294.00,0.0128
2293.00,0.0129
2292.00,0.0130
2291.00,0.0130
2290.00,0.0130
2289.00,0.0131
2288.00,0.0131
2287.00,0.0131
2286.00,0.0131
2285.00,0.0130
2284.00,0.0129
2283.00,0.0128
2282.00,0.0128
2281.00,0.0127
2280.00,0.0126
2279.00,0.0125
2278.00,0.0125
2277.00,0.0125
2276.00,0.0125
2275.00,0.0125
2274.00,0.0125
2273.00,0.0125
2272.00,0.0125
2271.00,0.0125
2270.00,0.0125
2269.00,0.0125
2268.00,0.0125
2267.00,0.0125
2266.00,0.0125
2265.00,0.0126
2264.00,0.0127
2263.00,0.0127
2262.00,0.0128
2261.00,0.0129
2260.00,0.0129
2259.00,0.0128
2258.00,0.0127
2257.00,0.0126
2256.00,0.0125
2255.00,0.0125
2254.00,0.0125
2253.00,0.0126
2252.00,0.0126
2251.00,0.0126
2250.00,0.0125
2249.00,0.0125
2248.00,0.0125
2247.00,0.0125
2246.00,0.0125
2245.00,0.0125
2244.00,0.0125
2243.00,0.0125
2242.00,0.0125
2241.00,0.0125
2240.00,0.0126
2239.00,0.0126
2238.00,0.0126
2237.00,0.0126
2236.00,0.0125
2235.00,0.0125
2234.00,0.0126
2233.00,0.0127
2232.00,0.0128
2231.00,0.0128
2230.00,0.0127
2229.00,0.0125
2228.00,0.0125
2227.00,0.0125
2226.00,0.0125
2225.00,0.0125
2224.00,0.0126
2223.00,0.0125
2222.00,0.0125
2221.00,0.0125
2220.00,0.0124
2219.00,0.0124
2218.00,0.0124
2217.00,0.0123
2216.00,0.0123
2215.00,0.0124
2214.00,0.0125
2213.00,0.0126
2212.00,0.0126
2211.00,0.0127
2210.00,0.0127
2209.00,0.0126
2208.00,0.0125
2207.00,0.0123
2206.00,0.0123
2205.00,0.0123
2204.00,0.0124
2203.00,0.0124
2202.00,0.0125
2201.00,0.0125
2200.00,0.0126
2199.00,0.0128
2198.00,0.0130
2197.00,0.0130
2196.00,0.0128
2195.00,0.0127
2194.00,0.0126
2193.00,0.0126
2192.00,0.0126
2191.00,0.0126
2190.00,0.0126
2189.00,0.0127
2188.00,0.0128
2187.00,0.0129
2186.00,0.0130
2185.00,0.0129
2184.00,0.0128
2183.00,0.0126
2182.00,0.0126
2181.00,0.0126
2180.00,0.0126
2179.00,0.0126
2178.00,0.0125
2177.00,0.0123
2176.00,0.0121
2175.00,0.0121
2174.00,0.0123
2173.00,0.0125
2172.00,0.0128
2171.00,0.0131
2170.00,0.0133
2169.00,0.0134
2168.00,0.0133
2167.00,0.0130
2166.00,0.0129
2165.00,0.0130
2164.00,0.0132
2163.00,0.0133
2162.00,0.0132
2161.00,0.0127
2160.00,0.0121
2159.00,0.0116
2158.00,0.0115
2157.00,0.0115
2156.00,0.0116
2155.00,0.0116
2154.00,0.0115
2153.00,0.0116
2152.00,0.0116
2151.00,0.0116
2150.00,0.0116
2149.00,0.0116
2148.00,0.0116
2147.00,0.0116
2146.00,0.0116
2145.00,0.0117
2144.00,0.0117
2143.00,0.0117
2142.00,0.0117
2141.00,0.0116
2140.00,0.0116
2139.00,0.0115
2138.00,0.0115
2137.00,0.0113
2136.00,0.0112
2135.00,0.0110
2134.00,0.0109
2133.00,0.0109
2132.00,0.0110
2131.00,0.0110
2130.00,0.0111
2129.00,0.0112
2128.00,0.0113
2127.00,0.0114
2126.00,0.0115
2125.00,0.0116
2124.00,0.0116
2123.00,0.0115
2122.00,0.0115
2121.00,0.0116
2120.00,0.0116
2119.00,0.0117
2118.00,0.0118
2117.00,0.0119
2116.00,0.0120
2115.00,0.0120
2114.00,0.0120
2113.00,0.0120
2112.00,0.0120
2111.00,0.0120
2110.00,0.0119
2109.00,0.0118
2108.00,0.0118
2107.00,0.0118
2106.00,0.0119
2105.00,0.0119
2104.00,0.0118
2103.00,0.0118
2102.00,0.0118
2101.00,0.0118
2100.00,0.0118
2099.00,0.0117
2098.00,0.0116
2097.00,0.0116
2096.00,0.0115
2095.00,0.0114
2094.00,0.0114
2093.00,0.0115
2092.00,0.0115
2091.00,0.0116
2090.00,0.0116
2089.00,0.0116
2088.00,0.0116
2087.00,0.0116
2086.00,0.0115
2085.00,0.0115
2084.00,0.0115
2083.00,0.0115
2082.00,0.0115
2081.00,0.0115
2080.00,0.0115
2079.00,0.0116
2078.00,0.0117
2077.00,0.0117
2076.00,0.0118
2075.00,0.0118
2074.00,0.0118
2073.00,0.0118
2072.00,0.0118
2071.00,0.0118
2070.00,0.0118
2069.00,0.0118
2068.00,0.0117
2067.00,0.0117
2066.00,0.0116
2065.00,0.0116
2064.00,0.0115
2063.00,0.0113
2062.00,0.0112
2061.00,0.0112
2060.00,0.0112
2059.00,0.0112
2058.00,0.0113
2057.00,0.0113
2056.00,0.0114
2055.00,0.0115
2054.00,0.0117
2053.00,0.0118
2052.00,0.0119
2051.00,0.0120
2050.00,0.0119
2049.00,0.0119
2048.00,0.0118
2047.00,0.0117
2046.00,0.0117
2045.00,0.0117
2044.00,0.0117
2043.00,0.0117
2042.00,0.0117
2041.00,0.0117
2040.00,0.0118
2039.00,0.0119
2038.00,0.0120
2037.00,0.0122
2036.00,0.0123
2035.00,0.0122
2034.00,0.0120
2033.00,0.0118
2032.00,0.0118
2031.00,0.0118
2030.00,0.0119
2029.00,0.0119
2028.00,0.0119
2027.00,0.0119
2026.00,0.0118
2025.00,0.0117
2024.00,0.0116
2023.00,0.0116
2022.00,0.0116
2021.00,0.0116
2020.00,0.0116
2019.00,0.0117
2018.00,0.0117
2017.00,0.0118
2016.00,0.0118
2015.00,0.0117
2014.00,0.0116
2013.00,0.0117
2012.00,0.0117
2011.00,0.0117
2010.00,0.0117
2009.00,0.0116
2008.00,0.0116
2007.00,0.0116
2006.00,0.0116
2005.00,0.0115
2004.00,0.0115
2003.00,0.0115
2002.00,0.0114
2001.00,0.0115
2000.00,0.0116
1999.00,0.0116
1998.00,0.0116
1997.00,0.0116
1996.00,0.0116
1995.00,0.0116
1994.00,0.0116
1993.00,0.0117
1992.00,0.0117
1991.00,0.0118
1990.00,0.0118
1989.00,0.0117
1988.00,0.0116
1987.00,0.0114
1986.00,0.0114
1985.00,0.0116
1984.00,0.0118
1983.00,0.0120
1982.00,0.0122
1981.00,0.0123
1980.00,0.0121
1979.00,0.0118
1978.00,0.0116
1977.00,0.0114
1976.00,0.0113
1975.00,0.0112
1974.00,0.0111
1973.00,0.0110
1972.00,0.0110
1971.00,0.0110
1970.00,0.0111
1969.00,0.0112
1968.00,0.0111
1967.00,0.0110
1966.00,0.0109
1965.00,0.0109
1964.00,0.0109
1963.00,0.0109
1962.00,0.0108
1961.00,0.0107
1960.00,0.0106
1959.00,0.0105
1958.00,0.0104
1957.00,0.0104
1956.00,0.0104
1955.00,0.0104
1954.00,0.0105
1953.00,0.0105
1952.00,0.0104
1951.00,0.0104
1950.00,0.0105
1949.00,0.0106
1948.00,0.0107
1947.00,0.0109
1946.00,0.0109
1945.00,0.0109
1944.00,0.0107
1943.00,0.0105
1942.00,0.0104
1941.00,0.0102
1940.00,0.0101
1939.00,0.0101
1938.00,0.0101
1937.00,0.0102
1936.00,0.0103
1935.00,0.0104
1934.00,0.0103
1933.00,0.0103
1932.00,0.0102
1931.00,0.0101
1930.00,0.0101
1929.00,0.0101
1928.00,0.0100
1927.00,0.0100
1926.00,0.0101
1925.00,0.0102
1924.00,0.0101
1923.00,0.0100
1922.00,0.0099
1921.00,0.0100
1920.00,0.0100
1919.00,0.0101
1918.00,0.0100
1917.00,0.0099
1916.00,0.0098
1915.00,0.0098
1914.00,0.0099
1913.00,0.0099
1912.00,0.0099
1911.00,0.0098
1910.00,0.0098
1909.00,0.0098
1908.00,0.0097
1907.00,0.0097
1906.00,0.0097
1905.00,0.0097
1904.00,0.0097
1903.00,0.0097
1902.00,0.0097
1901.00,0.0097
1900.00,0.0097
1899.00,0.0097
1898.00,0.0097
1897.00,0.0097
1896.00,0.0096
1895.00,0.0095
1894.00,0.0095
1893.00,0.0095
1892.00,0.0096
1891.00,0.0095
1890.00,0.0094
1889.00,0.0093
1888.00,0.0092
1887.00,0.0092
1886.00,0.0093
1885.00,0.0093
1884.00,0.0092
1883.00,0.0092
1882.00,0.0092
1881.00,0.0092
1880.00,0.0092
1879.00,0.0092
1878.00,0.0091
1877.00,0.0092
1876.00,0.0092
1875.00,0.0092
1874.00,0.0092
1873.00,0.0093
1872.00,0.0093
1871.00,0.0093
1870.00,0.0093
1869.00,0.0091
1868.00,0.0090
1867.00,0.0089
1866.00,0.0089
1865.00,0.0089
1864.00,0.0090
1863.00,0.0090
1862.00,0.0089
1861.00,0.0088
1860.00,0.0088
1859.00,0.0088
1858.00,0.0088
1857.00,0.0088
1856.00,0.0088
1855.00,0.0088
1854.00,0.0088
1853.00,0.0088
1852.00,0.0087
1851.00,0.0087
1850.00,0.0087
1849.00,0.0087
1848.00,0.0088
1847.00,0.0088
1846.00,0.0088
1845.00,0.0087
1844.00,0.0084
1843.00,0.0083
1842.00,0.0083
1841.00,0.0084
1840.00,0.0085
1839.00,0.0085
1838.00,0.0084
1837.00,0.0084
1836.00,0.0083
1835.00,0.0083
1834.00,0.0084
1833.00,0.0085
1832.00,0.0086
1831.00,0.0085
1830.00,0.0083
1829.00,0.0081
1828.00,0.0081
1827.00,0.0081
1826.00,0.0081
1825.00,0.0080
1824.00,0.0079
1823.00,0.0080
1822.00,0.0080
1821.00,0.0081
1820.00,0.0081
1819.00,0.0080
1818.00,0.0080
1817.00,0.0079
1816.00,0.0079
1815.00,0.0080
1814.00,0.0080
1813.00,0.0080
1812.00,0.0079
1811.00,0.0078
1810.00,0.0077
1809.00,0.0077
1808.00,0.0078
1807.00,0.0078
1806.00,0.0079
1805.00,0.0079
1804.00,0.0079
1803.00,0.0079
1802.00,0.0078
1801.00,0.0078
1800.00,0.0078
1799.00,0.0078
1798.00,0.0079
1797.00,0.0080
1796.00,0.0081
1795.00,0.0082
1794.00,0.0082
1793.00,0.0082
1792.00,0.0080
1791.00,0.0078
1790.00,0.0078
1789.00,0.0079
1788.00,0.0081
1787.00,0.0081
1786.00,0.0082
1785.00,0.0082
1784.00,0.0083
1783.00,0.0083
1782.00,0.0084
1781.00,0.0083
1780.00,0.0083
1779.00,0.0084
1778.00,0.0085
1777.00,0.0086
1776.00,0.0088
1775.00,0.0089
1774.00,0.0090
1773.00,0.0090
1772.00,0.0088
1771.00,0.0088
1770.00,0.0088
1769.00,0.0089
1768.00,0.0090
1767.00,0.0090
1766.00,0.0091
1765.00,0.0093
1764.00,0.0094
1763.00,0.0093
1762.00,0.0093
1761.00,0.0092
1760.00,0.0093
1759.00,0.0094
1758.00,0.0095
1757.00,0.0094
1756.00,0.0093
1755.00,0.0094
1754.00,0.0096
1753.00,0.0097
1752.00,0.0098
1751.00,0.0098
1750.00,0.0097
1749.00,0.0096
1748.00,0.0096
1747.00,0.0097
1746.00,0.0098
1745.00,0.0099
1744.00,0.0100
1743.00,0.0100
1742.00,0.0101
1741.00,0.0103
1740.00,0.0105
1739.00,0.0106
1738.00,0.0108
1737.00,0.0110
1736.00,0.0113
1735.00,0.0115
1734.00,0.0116
1733.00,0.0114
1732.00,0.0113
1731.00,0.0114
1730.00,0.0114
1729.00,0.0115
1728.00,0.0117
1727.00,0.0120
1726.00,0.0122
1725.00,0.0124
1724.00,0.0125
1723.00,0.0126
1722.00,0.0128
1721.00,0.0129
1720.00,0.0130
1719.00,0.0131
1718.00,0.0132
1717.00,0.0133
1716.00,0.0133
1715.00,0.0133
1714.00,0.0134
1713.00,0.0135
1712.00,0.0137
1711.00,0.0138
1710.00,0.0139
1709.00,0.0140
1708.00,0.0142
1707.00,0.0143
1706.00,0.0143
1705.00,0.0143
1704.00,0.0144
1703.00,0.0146
1702.00,0.0148
1701.00,0.0150
1700.00,0.0153
1699.00,0.0153
1698.00,0.0153
1697.00,0.0153
1696.00,0.0150
1695.00,0.0148
1694.00,0.0148
1693.00,0.0150
1692.00,0.0151
1691.00,0.0151
1690.00,0.0151
1689.00,0.0151
1688.00,0.0152
1687.00,0.0152
1686.00,0.0151
1685.00,0.0151
1684.00,0.0150
1683.00,0.0149
1682.00,0.0151
1681.00,0.0152
1680.00,0.0152
1679.00,0.0153
1678.00,0.0154
1677.00,0.0155
1676.00,0.0156
1675.00,0.0156
1674.00,0.0157
1673.00,0.0157
1672.00,0.0158
1671.00,0.0158
1670.00,0.0159
1669.00,0.0158
1668.00,0.0159
1667.00,0.0159
1666.00,0.0160
1665.00,0.0161
1664.00,0.0162
1663.00,0.0163
1662.00,0.0164
1661.00,0.0165
1660.00,0.0165
1659.00,0.0166
1658.00,0.0167
1657.00,0.0168
1656.00,0.0167
1655.00,0.0167
1654.00,0.0169
1653.00,0.0170
1652.00,0.0169
1651.00,0.0171
1650.00,0.0173
1649.00,0.0174
1648.00,0.0176
1647.00,0.0178
1646.00,0.0178
1645.00,0.0179
1644.00,0.0179
1643.00,0.0180
1642.00,0.0181
1641.00,0.0181
1640.00,0.0182
1639.00,0.0183
1638.00,0.0184
1637.00,0.0186
1636.00,0.0188
1635.00,0.0188
1634.00,0.0189
1633.00,0.0190
1632.00,0.0191
1631.00,0.0192
1630.00,0.0193
1629.00,0.0194
1628.00,0.0195
1627.00,0.0196
1626.00,0.0198
1625.00,0.0199
1624.00,0.0201
1623.00,0.0202
1622.00,0.0203
1621.00,0.0204
1620.00,0.0204
1619.00,0.0204
1618.00,0.0206
1617.00,0.0208
1616.00,0.0208
1615.00,0.0209
1614.00,0.0209
1613.00,0.0210
1612.00,0.0211
1611.00,0.0212
1610.00,0.0214
1609.00,0.0215
1608.00,0.0216
1607.00,0.0217
1606.00,0.0217
1605.00,0.0217
1604.00,0.0218
1603.00,0.0219
1602.00,0.0219
1601.00,0.0220
1600.00,0.0220
1599.00,0.0221
1598.00,0.0222
1597.00,0.0222
1596.00,0.0223
1595.00,0.0224
1594.00,0.0224
1593.00,0.0225
1592.00,0.0225
1591.00,0.0225
1590.00,0.0226
1589.00,0.0226
1588.00,0.0226
1587.00,0.0226
1586.00,0.0227
1585.00,0.0227
1584.00,0.0227
1583.00,0.0227
1582.00,0.0228
1581.00,0.0228
1580.00,0.0228
1579.00,0.0228
1578.00,0.0228
1577.00,0.0229
1576.00,0.0230
1575.00,0.0230
1574.00,0.0230
1573.00,0.0230
1572.00,0.0229
1571.00,0.0230
1570.00,0.0231
1569.00,0.0231
1568.00,0.0230
1567.00,0.0230
1566.00,0.0230
1565.00,0.0229
1564.00,0.0229
1563.00,0.0228
1562.00,0.0226
1561.00,0.0222
1560.00,0.0223
1559.00,0.0229
1558.00,0.0230
1557.00,0.0230
1556.00,0.0230
1555.00,0.0228
1554.00,0.0227
1553.00,0.0225
1552.00,0.0225
1551.00,0.0224
1550.00,0.0223
1549.00,0.0222
1548.00,0.0222
1547.00,0.0221
1546.00,0.0221
1545.00,0.0220
1544.00,0.0220
1543.00,0.0219
1542.00,0.0218
1541.00,0.0217
1540.00,0.0216
1539.00,0.0213
1538.00,0.0213
1537.00,0.0213
1536.00,0.0212
1535.00,0.0211
1534.00,0.0211
1533.00,0.0210
1532.00,0.0210
1531.00,0.0209
1530.00,0.0209
1529.00,0.0208
1528.00,0.0208
1527.00,0.0208
1526.00,0.0208
1525.00,0.0208
1524.00,0.0208
1523.00,0.0207
1522.00,0.0205
1521.00,0.0204
1520.00,0.0202
1519.00,0.0202
1518.00,0.0201
1517.00,0.0201
1516.00,0.0200
1515.00,0.0200
1514.00,0.0200
1513.00,0.0199
1512.00,0.0199
1511.00,0.0199
1510.00,0.0198
1509.00,0.0197
1508.00,0.0197
1507.00,0.0195
1506.00,0.0192
1505.00,0.0192
1504.00,0.0194
1503.00,0.0194
1502.00,0.0193
1501.00,0.0192
1500.00,0.0191
1499.00,0.0190
1498.00,0.0190
1497.00,0.0190
1496.00,0.0190
1495.00,0.0191
1494.00,0.0191
1493.00,0.0192
1492.00,0.0193
1491.00,0.0194
1490.00,0.0194
1489.00,0.0192
1488.00,0.0190
1487.00,0.0189
1486.00,0.0188
1485.00,0.0188
1484.00,0.0189
1483.00,0.0189
1482.00,0.0189
1481.00,0.0189
1480.00,0.0189
1479.00,0.0189
1478.00,0.0189
1477.00,0.0189
1476.00,0.0189
1475.00,0.0190
1474.00,0.0191
1473.00,0.0191
1472.00,0.0190
1471.00,0.0189
1470.00,0.0189
1469.00,0.0189
1468.00,0.0189
1467.00,0.0188
1466.00,0.0188
1465.00,0.0189
1464.00,0.0189
1463.00,0.0190
1462.00,0.0190
1461.00,0.0190
1460.00,0.0190
1459.00,0.0191
1458.00,0.0192
1457.00,0.0194
1456.00,0.0193
1455.00,0.0194
1454.00,0.0194
1453.00,0.0194
1452.00,0.0195
1451.00,0.0195
1450.00,0.0196
1449.00,0.0197
1448.00,0.0198
1447.00,0.0198
1446.00,0.0198
1445.00,0.0198
1444.00,0.0199
1443.00,0.0199
1442.00,0.0200
1441.00,0.0200
1440.00,0.0201
1439.00,0.0201
1438.00,0.0201
1437.00,0.0202
1436.00,0.0203
1435.00,0.0203
1434.00,0.0204
1433.00,0.0204
1432.00,0.0204
1431.00,0.0204
1430.00,0.0204
1429.00,0.0204
1428.00,0.0205
1427.00,0.0205
1426.00,0.0205
1425.00,0.0205
1424.00,0.0205
1423.00,0.0205
1422.00,0.0205
1421.00,0.0205
1420.00,0.0206
1419.00,0.0207
1418.00,0.0206
1417.00,0.0206
1416.00,0.0207
1415.00,0.0208
1414.00,0.0208
1413.00,0.0208
1412.00,0.0208
1411.00,0.0208
1410.00,0.0208
1409.00,0.0208
1408.00,0.0208
1407.00,0.0208
1406.00,0.0208
1405.00,0.0208
1404.00,0.0209
1403.00,0.0211
1402.00,0.0211
1401.00,0.0212
1400.00,0.0212
1399.00,0.0213
1398.00,0.0213
1397.00,0.0214
1396.00,0.0214
1395.00,0.0214
1394.00,0.0214
1393.00,0.0214
1392.00,0.0215
1391.00,0.0215
1390.00,0.0215
1389.00,0.0216
1388.00,0.0216
1387.00,0.0216
1386.00,0.0216
1385.00,0.0216
1384.00,0.0217
1383.00,0.0217
1382.00,0.0218
1381.00,0.0218
1380.00,0.0219
1379.00,0.0219
1378.00,0.0219
1377.00,0.0219
1376.00,0.0219
1375.00,0.0220
1374.00,0.0220
1373.00,0.0220
1372.00,0.0221
1371.00,0.0221
1370.00,0.0221
1369.00,0.0221
1368.00,0.0222
1367.00,0.0222
1366.00,0.0222
1365.00,0.0222
1364.00,0.0222
1363.00,0.0222
1362.00,0.0222
1361.00,0.0222
1360.00,0.0222
1359.00,0.0222
1358.00,0.0222
1357.00,0.0222
1356.00,0.0222
1355.00,0.0222
1354.00,0.0221
1353.00,0.0221
1352.00,0.0221
1351.00,0.0221
1350.00,0.0222
1349.00,0.0222
1348.00,0.0222
1347.00,0.0222
1346.00,0.0221
1345.00,0.0221
1344.00,0.0221
1343.00,0.0221
1342.00,0.0221
1341.00,0.0221
1340.00,0.0221
1339.00,0.0221
1338.00,0.0220
1337.00,0.0220
1336.00,0.0220
1335.00,0.0220
1334.00,0.0220
1333.00,0.0219
1332.00,0.0219
1331.00,0.0219
1330.00,0.0220
1329.00,0.0220
1328.00,0.0220
1327.00,0.0220
1326.00,0.0220
1325.00,0.0219
1324.00,0.0219
1323.00,0.0220
1322.00,0.0220
1321.00,0.0221
1320.00,0.0221
1319.00,0.0221
1318.00,0.0220
1317.00,0.0220
1316.00,0.0221
1315.00,0.0221
1314.00,0.0221
1313.00,0.0222
1312.00,0.0222
1311.00,0.0222
1310.00,0.0222
1309.00,0.0223
1308.00,0.0223
1307.00,0.0223
1306.00,0.0223
1305.00,0.0223
1304.00,0.0223
1303.00,0.0224
1302.00,0.0224
1301.00,0.0224
1300.00,0.0223
1299.00,0.0223
1298.00,0.0223
1297.00,0.0223
1296.00,0.0224
1295.00,0.0224
1294.00,0.0224
1293.00,0.0224
1292.00,0.0225
1291.00,0.0225
1290.00,0.0226
1289.00,0.0226
1288.00,0.0226
1287.00,0.0226
1286.00,0.0227
1285.00,0.0226
1284.00,0.0227
1283.00,0.0227
1282.00,0.0227
1281.00,0.0227
1280.00,0.0228
1279.00,0.0228
1278.00,0.0228
1277.00,0.0228
1276.00,0.0228
1275.00,0.0228
1274.00,0.0228
1273.00,0.0228
1272.00,0.0228
1271.00,0.0229
1270.00,0.0229
1269.00,0.0229
1268.00,0.0230
1267.00,0.0230
1266.00,0.0230
1265.00,0.0230
1264.00,0.0230
1263.00,0.0231
1262.00,0.0231
1261.00,0.0232
1260.00,0.0232
1259.00,0.0233
1258.00,0.0233
1257.00,0.0232
1256.00,0.0232
1255.00,0.0232
1254.00,0.0232
1253.00,0.0231
1252.00,0.0232
1251.00,0.0232
1250.00,0.0232
1249.00,0.0232
1248.00,0.0233
1247.00,0.0233
1246.00,0.0234
1245.00,0.0233
1244.00,0.0233
1243.00,0.0233
1242.00,0.0233
1241.00,0.0233
1240.00,0.0233
1239.00,0.0233
1238.00,0.0233
1237.00,0.0233
1236.00,0.0233
1235.00,0.0234
1234.00,0.0234
1233.00,0.0234
1232.00,0.0234
1231.00,0.0235
1230.00,0.0235
1229.00,0.0235
1228.00,0.0235
1227.00,0.0235
1226.00,0.0235
1225.00,0.0235
1224.00,0.0235
1223.00,0.0235
1222.00,0.0235
1221.00,0.0234
1220.00,0.0234
1219.00,0.0234
1218.00,0.0234
1217.00,0.0234
1216.00,0.0234
1215.00,0.0234
1214.00,0.0234
1213.00,0.0233
1212.00,0.0233
1211.00,0.0232
1210.00,0.0232
1209.00,0.0232
1208.00,0.0232
1207.00,0.0232
1206.00,0.0233
1205.00,0.0233
1204.00,0.0233
1203.00,0.0233
1202.00,0.0233
1201.00,0.0233
1200.00,0.0233
1199.00,0.0233
1198.00,0.0233
1197.00,0.0232
1196.00,0.0232
1195.00,0.0232
1194.00,0.0232
1193.00,0.0231
1192.00,0.0231
1191.00,0.0231
1190.00,0.0230
1189.00,0.0230
1188.00,0.0230
1187.00,0.0230
1186.00,0.0230
1185.00,0.0230
1184.00,0.0231
1183.00,0.0231
1182.00,0.0230
1181.00,0.0230
1180.00,0.0230
1179.00,0.0230
1178.00,0.0231
1177.00,0.0231
1176.00,0.0231
1175.00,0.0230
1174.00,0.0229
1173.00,0.0228
1172.00,0.0228
1171.00,0.0228
1170.00,0.0228
1169.00,0.0228
1168.00,0.0228
1167.00,0.0227
1166.00,0.0227
1165.00,0.0226
1164.00,0.0226
1163.00,0.0226
1162.00,0.0226
1161.00,0.0227
1160.00,0.0227
1159.00,0.0226
1158.00,0.0226
1157.00,0.0225
1156.00,0.0225
1155.00,0.0226
1154.00,0.0226
1153.00,0.0225
1152.00,0.0225
1151.00,0.0225
1150.00,0.0225
1149.00,0.0224
1148.00,0.0224
1147.00,0.0223
1146.00,0.0223
1145.00,0.0223
1144.00,0.0223
1143.00,0.0223
1142.00,0.0223
1141.00,0.0222
1140.00,0.0222
1139.00,0.0222
1138.00,0.0222
1137.00,0.0222
1136.00,0.0223
1135.00,0.0223
1134.00,0.0224
1133.00,0.0224
1132.00,0.0224
1131.00,0.0224
1130.00,0.0224
1129.00,0.0224
1128.00,0.0224
1127.00,0.0223
1126.00,0.0223
1125.00,0.0223
1124.00,0.0223
1123.00,0.0223
1122.00,0.0223
1121.00,0.0223
1120.00,0.0224
1119.00,0.0224
1118.00,0.0225
1117.00,0.0226
1116.00,0.0227
1115.00,0.0227
1114.00,0.0226
1113.00,0.0225
1112.00,0.0226
1111.00,0.0226
1110.00,0.0227
1109.00,0.0226
1108.00,0.0226
1107.00,0.0226
1106.00,0.0225
1105.00,0.0225
1104.00,0.0224
1103.00,0.0224
1102.00,0.0224
1101.00,0.0225
1100.00,0.0226
1099.00,0.0225
1098.00,0.0225
1097.00,0.0224
1096.00,0.0224
1095.00,0.0224
1094.00,0.0225
1093.00,0.0225
1092.00,0.0225
1091.00,0.0225
1090.00,0.0225
1089.00,0.0225
1088.00,0.0225
1087.00,0.0226
1086.00,0.0225
1085.00,0.0225
1084.00,0.0224
1083.00,0.0224
1082.00,0.0223
1081.00,0.0223
1080.00,0.0222
1079.00,0.0222
1078.00,0.0222
1077.00,0.0223
1076.00,0.0223
1075.00,0.0223
1074.00,0.0224
1073.00,0.0225
1072.00,0.0225
1071.00,0.0226
1070.00,0.0226
1069.00,0.0226
1068.00,0.0227
1067.00,0.0227
1066.00,0.0227
1065.00,0.0227
1064.00,0.0227
1063.00,0.0228
1062.00,0.0227
1061.00,0.0227
1060.00,0.0227
1059.00,0.0226
1058.00,0.0227
1057.00,0.0227
1056.00,0.0228
1055.00,0.0228
1054.00,0.0229
1053.00,0.0229
1052.00,0.0229
1051.00,0.0230
1050.00,0.0232
1049.00,0.0233
1048.00,0.0234
1047.00,0.0234
1046.00,0.0233
1045.00,0.0232
1044.00,0.0231
1043.00,0.0231
1042.00,0.0231
1041.00,0.0231
1040.00,0.0231
1039.00,0.0231
1038.00,0.0231
1037.00,0.0233
1036.00,0.0233
1035.00,0.0233
1034.00,0.0233
1033.00,0.0232
1032.00,0.0232
1031.00,0.0232
1030.00,0.0233
1029.00,0.0233
1028.00,0.0232
1027.00,0.0231
1026.00,0.0230
1025.00,0.0228
1024.00,0.0227
1023.00,0.0227
1022.00,0.0227
1021.00,0.0228
1020.00,0.0228
1019.00,0.0227
1018.00,0.0227
1017.00,0.0226
1016.00,0.0226
1015.00,0.0226
1014.00,0.0226
1013.00,0.0226
1012.00,0.0226
1011.00,0.0226
1010.00,0.0225
1009.00,0.0225
1008.00,0.0224
1007.00,0.0224
1006.00,0.0223
1005.00,0.0223
1004.00,0.0222
1003.00,0.0223
1002.00,0.0223
1001.00,0.0222
1000.00,0.0222
999.00,0.0221
998.00,0.0220
997.00,0.0220
996.00,0.0220
995.00,0.0219
994.00,0.0219
993.00,0.0219
992.00,0.0218
991.00,0.0218
990.00,0.0217
989.00,0.0216
988.00,0.0215
987.00,0.0215
986.00,0.0215
985.00,0.0215
984.00,0.0214
983.00,0.0214
982.00,0.0214
981.00,0.0214
980.00,0.0214
979.00,0.0214
978.00,0.0214
977.00,0.0213
976.00,0.0213
975.00,0.0212
974.00,0.0211
973.00,0.0211
972.00,0.0211
971.00,0.0211
970.00,0.0211
969.00,0.0210
968.00,0.0209
967.00,0.0209
966.00,0.0208
965.00,0.0208
964.00,0.0208
963.00,0.0207
962.00,0.0207
961.00,0.0208
960.00,0.0208
959.00,0.0208
958.00,0.0208
957.00,0.0208
956.00,0.0207
955.00,0.0207
954.00,0.0207
953.00,0.0207
952.00,0.0206
951.00,0.0206
950.00,0.0205
949.00,0.0206
948.00,0.0206
947.00,0.0207
946.00,0.0207
945.00,0.0207
944.00,0.0207
943.00,0.0207
942.00,0.0207
941.00,0.0208
940.00,0.0209
939.00,0.0209
938.00,0.0210
937.00,0.0210
936.00,0.0210
935.00,0.0210
934.00,0.0211
933.00,0.0211
932.00,0.0211
931.00,0.0211
930.00,0.0210
929.00,0.0209
928.00,0.0210
927.00,0.0210
926.00,0.0211
925.00,0.0212
924.00,0.0213
923.00,0.0213
922.00,0.0214
921.00,0.0214
920.00,0.0214
919.00,0.0215
918.00,0.0217
917.00,0.0219
916.00,0.0221
915.00,0.0221
914.00,0.0220
913.00,0.0219
912.00,0.0218
911.00,0.0218
910.00,0.0219
909.00,0.0219
908.00,0.0220
907.00,0.0221
906.00,0.0221
905.00,0.0221
904.00,0.0221
903.00,0.0222
902.00,0.0222
901.00,0.0223
900.00,0.0223
899.00,0.0224
898.00,0.0224
897.00,0.0223
896.00,0.0223
895.00,0.0224
894.00,0.0224
893.00,0.0225
892.00,0.0225
891.00,0.0225
890.00,0.0225
889.00,0.0226
888.00,0.0227
887.00,0.0228
886.00,0.0228
885.00,0.0228
884.00,0.0227
883.00,0.0226
882.00,0.0226
881.00,0.0225
880.00,0.0225
879.00,0.0225
878.00,0.0226
877.00,0.0225
876.00,0.0225
875.00,0.0224
874.00,0.0224
873.00,0.0225
872.00,0.0226
871.00,0.0227
870.00,0.0227
869.00,0.0226
868.00,0.0226
867.00,0.0225
866.00,0.0224
865.00,0.0224
864.00,0.0225
863.00,0.0226
862.00,0.0227
861.00,0.0227
860.00,0.0226
859.00,0.0226
858.00,0.0227
857.00,0.0227
856.00,0.0227
855.00,0.0226
854.00,0.0226
853.00,0.0226
852.00,0.0227
851.00,0.0227
850.00,0.0228
849.00,0.0228
848.00,0.0229
847.00,0.0228
846.00,0.0227
845.00,0.0227
844.00,0.0229
843.00,0.0230
842.00,0.0231
841.00,0.0232
840.00,0.0233
839.00,0.0235
838.00,0.0236
837.00,0.0237
836.00,0.0237
835.00,0.0236
834.00,0.0234
833.00,0.0233
832.00,0.0233
831.00,0.0235
830.00,0.0237
829.00,0.0241
828.00,0.0243
827.00,0.0245
826.00,0.0245
825.00,0.0243
824.00,0.0242
823.00,0.0242
822.00,0.0242
821.00,0.0243
820.00,0.0243
819.00,0.0244
818.00,0.0244
817.00,0.0245
816.00,0.0245
815.00,0.0245
814.00,0.0245
813.00,0.0246
812.00,0.0246
811.00,0.0246
810.00,0.0245
809.00,0.0244
808.00,0.0244
807.00,0.0245
806.00,0.0247
805.00,0.0248
804.00,0.0248
803.00,0.0248
802.00,0.0248
801.00,0.0248
800.00,0.0248
799.00,0.0249
798.00,0.0250
797.00,0.0251
796.00,0.0252
795.00,0.0252
794.00,0.0251
793.00,0.0251
792.00,0.0251
791.00,0.0252
790.00,0.0253
789.00,0.0253
788.00,0.0253
787.00,0.0253
786.00,0.0252
785.00,0.0252
784.00,0.0251
783.00,0.0252
782.00,0.0253
781.00,0.0254
780.00,0.0256
779.00,0.0258
778.00,0.0259
777.00,0.0259
776.00,0.0260
775.00,0.0261
774.00,0.0262
773.00,0.0263
772.00,0.0263
771.00,0.0262
770.00,0.0262
769.00,0.0262
768.00,0.0264
767.00,0.0265
766.00,0.0266
765.00,0.0266
764.00,0.0266
763.00,0.0264
762.00,0.0264
761.00,0.0266
760.00,0.0269
759.00,0.0272
758.00,0.0273
757.00,0.0273
756.00,0.0273
755.00,0.0271
754.00,0.0268
753.00,0.0266
752.00,0.0266
751.00,0.0268
750.00,0.0270
749.00,0.0271
748.00,0.0272
747.00,0.0273
746.00,0.0272
745.00,0.0271
744.00,0.0270
743.00,0.0269
742.00,0.0268
741.00,0.0268
740.00,0.0267
739.00,0.0267
738.00,0.0268
737.00,0.0269
736.00,0.0270
735.00,0.0270
734.00,0.0269
733.00,0.0268
732.00,0.0269
731.00,0.0270
730.00,0.0272
729.00,0.0274
728.00,0.0274
727.00,0.0273
726.00,0.0273
725.00,0.0272
724.00,0.0271
723.00,0.0270
722.00,0.0271
721.00,0.0273
720.00,0.0275
719.00,0.0275
718.00,0.0275
717.00,0.0274
716.00,0.0273
715.00,0.0274
714.00,0.0274
713.00,0.0275
712.00,0.0275
711.00,0.0276
710.00,0.0276
709.00,0.0276
708.00,0.0277
707.00,0.0279
706.00,0.0281
705.00,0.0283
704.00,0.0282
703.00,0.0281
702.00,0.0280
701.00,0.0281
700.00,0.0283
699.00,0.0283
698.00,0.0283
697.00,0.0282
696.00,0.0282
695.00,0.0283
694.00,0.0284
693.00,0.0286
692.00,0.0285
691.00,0.0285
690.00,0.0286
689.00,0.0288
688.00,0.0291
687.00,0.0292
686.00,0.0294
685.00,0.0295
684.00,0.0296
683.00,0.0296
682.00,0.0296
681.00,0.0295
680.00,0.0294
679.00,0.0291
678.00,0.0289
677.00,0.0289
676.00,0.0291
675.00,0.0293
674.00,0.0294
673.00,0.0295
672.00,0.0297
671.00,0.0298
670.00,0.0299
669.00,0.0300
668.00,0.0304
667.00,0.0305
666.00,0.0302
665.00,0.0299
664.00,0.0298
663.00,0.0299
662.00,0.0302
661.00,0.0305
660.00,0.0307
659.00,0.0309
658.00,0.0311
657.00,0.0312
656.00,0.0311
655.00,0.0309
654.00,0.0307
653.00,0.0308
652.00,0.0310
651.00,0.0310
650.00,0.0308
