Created as New Dataset,Monday, April 03 2023
cm-1,A
4000.00,0.0111
3999.00,0.0111
3998.00,0.0111
3997.00,0.0110
3996.00,0.0110
3995.00,0.0110
3994.00,0.0110
3993.00,0.0110
3992.00,0.0110
3991.00,0.0110
3990.00,0.0110
3989.00,0.0110
3988.00,0.0110
3987.00,0.0110
3986.00,0.0110
3985.00,0.0110
3984.00,0.0110
3983.00,0.0110
3982.00,0.0110
3981.00,0.0110
3980.00,0.0110
3979.00,0.0110
3978.00,0.0110
3977.00,0.0110
3976.00,0.0110
3975.00,0.0110
3974.00,0.0110
3973.00,0.0110
3972.00,0.0110
3971.00,0.0110
3970.00,0.0110
3969.00,0.0109
3968.00,0.0109
3967.00,0.0109
3966.00,0.0109
3965.00,0.0110
3964.00,0.0110
3963.00,0.0110
3962.00,0.0110
3961.00,0.0110
3960.00,0.0110
3959.00,0.0110
3958.00,0.0110
3957.00,0.0110
3956.00,0.0109
3955.00,0.0109
3954.00,0.0109
3953.00,0.0109
3952.00,0.0109
3951.00,0.0110
3950.00,0.0110
3949.00,0.0109
3948.00,0.0110
3947.00,0.0110
3946.00,0.0110
3945.00,0.0110
3944.00,0.0109
3943.00,0.0109
3942.00,0.0108
3941.00,0.0108
3940.00,0.0109
3939.00,0.0109
3938.00,0.0109
3937.00,0.0110
3936.00,0.0110
3935.00,0.0111
3934.00,0.0111
3933.00,0.0111
3932.00,0.0111
3931.00,0.0110
3930.00,0.0109
3929.00,0.0109
3928.00,0.0109
3927.00,0.0108
3926.00,0.0108
3925.00,0.0108
3924.00,0.0108
3923.00,0.0108
3922.00,0.0109
3921.00,0.0109
3920.00,0.0110
3919.00,0.0110
3918.00,0.0110
3917.00,0.0110
3916.00,0.0109
3915.00,0.0109
3914.00,0.0109
3913.00,0.0109
3912.00,0.0109
3911.00,0.0109
3910.00,0.0109
3909.00,0.0110
3908.00,0.0110
3907.00,0.0110
3906.00,0.0110
3905.00,0.0110
3904.00,0.0110
3903.00,0.0110
3902.00,0.0111
3901.00,0.0111
3900.00,0.0110
3899.00,0.0109
3898.00,0.0109
3897.00,0.0110
3896.00,0.0111
3895.00,0.0111
3894.00,0.0111
3893.00,0.0110
3892.00,0.0109
3891.00,0.0108
3890.00,0.0109
3889.00,0.0110
3888.00,0.0111
3887.00,0.0111
3886.00,0.0111
3885.00,0.0111
3884.00,0.0111
3883.00,0.0111
3882.00,0.0110
3881.00,0.0108
3880.00,0.0107
3879.00,0.0107
3878.00,0.0109
3877.00,0.0110
3876.00,0.0110
3875.00,0.0109
3874.00,0.0109
3873.00,0.0110
3872.00,0.0110
3871.00,0.0109
3870.00,0.0108
3869.00,0.0108
3868.00,0.0109
3867.00,0.0111
3866.00,0.0111
3865.00,0.0110
3864.00,0.0109
3863.00,0.0109
3862.00,0.0109
3861.00,0.0109
3860.00,0.0110
3859.00,0.0110
3858.00,0.0109
3857.00,0.0109
3856.00,0.0109
3855.00,0.0111
3854.00,0.0113
3853.00,0.0112
3852.00,0.0110
3851.00,0.0110
3850.00,0.0110
3849.00,0.0110
3848.00,0.0109
3847.00,0.0109
3846.00,0.0109
3845.00,0.0109
3844.00,0.0109
3843.00,0.0109
3842.00,0.0110
3841.00,0.0110
3840.00,0.0110
3839.00,0.0109
3838.00,0.0109
3837.00,0.0108
3836.00,0.0108
3835.00,0.0108
3834.00,0.0108
3833.00,0.0108
3832.00,0.0108
3831.00,0.0109
3830.00,0.0110
3829.00,0.0110
3828.00,0.0110
3827.00,0.0109
3826.00,0.0108
3825.00,0.0108
3824.00,0.0109
3823.00,0.0110
3822.00,0.0110
3821.00,0.0109
3820.00,0.0110
3819.00,0.0111
3818.00,0.0111
3817.00,0.0110
3816.00,0.0108
3815.00,0.0108
3814.00,0.0108
3813.00,0.0109
3812.00,0.0108
3811.00,0.0108
3810.00,0.0107
3809.00,0.0108
3808.00,0.0108
3807.00,0.0109
3806.00,0.0109
3805.00,0.0110
3804.00,0.0111
3803.00,0.0110
3802.00,0.0109
3801.00,0.0108
3800.00,0.0108
3799.00,0.0109
3798.00,0.0108
3797.00,0.0107
3796.00,0.0106
3795.00,0.0107
3794.00,0.0107
3793.00,0.0107
3792.00,0.0107
3791.00,0.0107
3790.00,0.0107
3789.00,0.0108
3788.00,0.0108
3787.00,0.0108
3786.00,0.0108
3785.00,0.0107
3784.00,0.0107
3783.00,0.0107
3782.00,0.0107
3781.00,0.0107
3780.00,0.0106
3779.00,0.0106
3778.00,0.0106
3777.00,0.0106
3776.00,0.0107
3775.00,0.0107
3774.00,0.0107
3773.00,0.0107
3772.00,0.0108
3771.00,0.0108
3770.00,0.0107
3769.00,0.0107
3768.00,0.0108
3767.00,0.0108
3766.00,0.0107
3765.00,0.0107
3764.00,0.0108
3763.00,0.0109
3762.00,0.0109
3761.00,0.0108
3760.00,0.0108
3759.00,0.0107
3758.00,0.0107
3757.00,0.0108
3756.00,0.0108
3755.00,0.0109
3754.00,0.0109
3753.00,0.0110
3752.00,0.0111
3751.00,0.0112
3750.00,0.0112
3749.00,0.0112
3748.00,0.0111
3747.00,0.0110
3746.00,0.0109
3745.00,0.0108
3744.00,0.0108
3743.00,0.0109
3742.00,0.0110
3741.00,0.0110
3740.00,0.0110
3739.00,0.0109
3738.00,0.0110
3737.00,0.0111
3736.00,0.0110
3735.00,0.0109
3734.00,0.0107
3733.00,0.0107
3732.00,0.0107
3731.00,0.0108
3730.00,0.0109
3729.00,0.0109
3728.00,0.0109
3727.00,0.0109
3726.00,0.0109
3725.00,0.0108
3724.00,0.0107
3723.00,0.0106
3722.00,0.0106
3721.00,0.0105
3720.00,0.0105
3719.00,0.0105
3718.00,0.0105
3717.00,0.0106
3716.00,0.0107
3715.00,0.0107
3714.00,0.0108
3713.00,0.0108
3712.00,0.0108
3711.00,0.0107
3710.00,0.0106
3709.00,0.0105
3708.00,0.0106
3707.00,0.0106
3706.00,0.0106
3705.00,0.0106
3704.00,0.0105
3703.00,0.0105
3702.00,0.0104
3701.00,0.0104
3700.00,0.0105
3699.00,0.0106
3698.00,0.0106
3697.00,0.0106
3696.00,0.0106
3695.00,0.0106
3694.00,0.0106
3693.00,0.0107
3692.00,0.0107
3691.00,0.0108
3690.00,0.0108
3689.00,0.0108
3688.00,0.0108
3687.00,0.0108
3686.00,0.0109
3685.00,0.0109
3684.00,0.0109
3683.00,0.0109
3682.00,0.0109
3681.00,0.0109
3680.00,0.0109
3679.00,0.0108
3678.00,0.0109
3677.00,0.0109
3676.00,0.0110
3675.00,0.0111
3674.00,0.0112
3673.00,0.0115
3672.00,0.0115
3671.00,0.0114
3670.00,0.0113
3669.00,0.0112
3668.00,0.0112
3667.00,0.0113
3666.00,0.0113
3665.00,0.0113
3664.00,0.0114
3663.00,0.0114
3662.00,0.0115
3661.00,0.0115
3660.00,0.0116
3659.00,0.0117
3658.00,0.0118
3657.00,0.0119
3656.00,0.0119
3655.00,0.0120
3654.00,0.0120
3653.00,0.0120
3652.00,0.0120
3651.00,0.0122
3650.00,0.0125
3649.00,0.0125
3648.00,0.0123
3647.00,0.0122
3646.00,0.0123
3645.00,0.0124
3644.00,0.0125
3643.00,0.0125
3642.00,0.0126
3641.00,0.0126
3640.00,0.0126
3639.00,0.0127
3638.00,0.0127
3637.00,0.0128
3636.00,0.0129
3635.00,0.0129
3634.00,0.0130
3633.00,0.0130
3632.00,0.0130
3631.00,0.0132
3630.00,0.0134
3629.00,0.0136
3628.00,0.0137
3627.00,0.0138
3626.00,0.0138
3625.00,0.0138
3624.00,0.0137
3623.00,0.0137
3622.00,0.0137
3621.00,0.0139
3620.00,0.0140
3619.00,0.0141
3618.00,0.0141
3617.00,0.0142
3616.00,0.0142
3615.00,0.0142
3614.00,0.0142
3613.00,0.0142
3612.00,0.0143
3611.00,0.0145
3610.00,0.0146
3609.00,0.0147
3608.00,0.0147
3607.00,0.0146
3606.00,0.0146
3605.00,0.0147
3604.00,0.0147
3603.00,0.0147
3602.00,0.0147
3601.00,0.0148
3600.00,0.0148
3599.00,0.0148
3598.00,0.0148
3597.00,0.0149
3596.00,0.0149
3595.00,0.0150
3594.00,0.0151
3593.00,0.0152
3592.00,0.0152
3591.00,0.0153
3590.00,0.0153
3589.00,0.0153
3588.00,0.0154
3587.00,0.0154
3586.00,0.0154
3585.00,0.0155
3584.00,0.0155
3583.00,0.0156
3582.00,0.0156
3581.00,0.0156
3580.00,0.0156
3579.00,0.0156
3578.00,0.0156
3577.00,0.0156
3576.00,0.0156
3575.00,0.0157
3574.00,0.0157
3573.00,0.0157
3572.00,0.0158
3571.00,0.0158
3570.00,0.0158
3569.00,0.0159
3568.00,0.0161
3567.00,0.0163
3566.00,0.0163
3565.00,0.0163
3564.00,0.0163
3563.00,0.0163
3562.00,0.0163
3561.00,0.0163
3560.00,0.0163
3559.00,0.0163
3558.00,0.0163
3557.00,0.0164
3556.00,0.0164
3555.00,0.0165
3554.00,0.0165
3553.00,0.0166
3552.00,0.0166
3551.00,0.0167
3550.00,0.0167
3549.00,0.0168
3548.00,0.0168
3547.00,0.0169
3546.00,0.0170
3545.00,0.0171
3544.00,0.0171
3543.00,0.0171
3542.00,0.0171
3541.00,0.0171
3540.00,0.0171
3539.00,0.0171
3538.00,0.0171
3537.00,0.0171
3536.00,0.0172
3535.00,0.0172
3534.00,0.0173
3533.00,0.0173
3532.00,0.0173
3531.00,0.0173
3530.00,0.0173
3529.00,0.0174
3528.00,0.0174
3527.00,0.0175
3526.00,0.0176
3525.00,0.0176
3524.00,0.0176
3523.00,0.0177
3522.00,0.0176
3521.00,0.0176
3520.00,0.0176
3519.00,0.0177
3518.00,0.0177
3517.00,0.0178
3516.00,0.0178
3515.00,0.0178
3514.00,0.0178
3513.00,0.0178
3512.00,0.0178
3511.00,0.0179
3510.00,0.0179
3509.00,0.0179
3508.00,0.0180
3507.00,0.0180
3506.00,0.0180
3505.00,0.0181
3504.00,0.0181
3503.00,0.0181
3502.00,0.0181
3501.00,0.0182
3500.00,0.0182
3499.00,0.0182
3498.00,0.0183
3497.00,0.0184
3496.00,0.0184
3495.00,0.0185
3494.00,0.0185
3493.00,0.0185
3492.00,0.0185
3491.00,0.0185
3490.00,0.0185
3489.00,0.0185
3488.00,0.0186
3487.00,0.0186
3486.00,0.0186
3485.00,0.0186
3484.00,0.0186
3483.00,0.0186
3482.00,0.0187
3481.00,0.0188
3480.00,0.0188
3479.00,0.0188
3478.00,0.0188
3477.00,0.0188
3476.00,0.0189
3475.00,0.0189
3474.00,0.0189
3473.00,0.0190
3472.00,0.0189
3471.00,0.0189
3470.00,0.0190
3469.00,0.0190
3468.00,0.0191
3467.00,0.0191
3466.00,0.0192
3465.00,0.0192
3464.00,0.0192
3463.00,0.0192
3462.00,0.0192
3461.00,0.0192
3460.00,0.0192
3459.00,0.0192
3458.00,0.0192
3457.00,0.0192
3456.00,0.0192
3455.00,0.0192
3454.00,0.0193
3453.00,0.0194
3452.00,0.0194
3451.00,0.0195
3450.00,0.0195
3449.00,0.0195
3448.00,0.0195
3447.00,0.0195
3446.00,0.0196
3445.00,0.0195
3444.00,0.0195
3443.00,0.0195
3442.00,0.0196
3441.00,0.0196
3440.00,0.0197
3439.00,0.0197
3438.00,0.0197
3437.00,0.0197
3436.00,0.0197
3435.00,0.0198
3434.00,0.0198
3433.00,0.0199
3432.00,0.0199
3431.00,0.0200
3430.00,0.0200
3429.00,0.0200
3428.00,0.0199
3427.00,0.0200
3426.00,0.0200
3425.00,0.0200
3424.00,0.0201
3423.00,0.0201
3422.00,0.0202
3421.00,0.0202
3420.00,0.0201
3419.00,0.0201
3418.00,0.0201
3417.00,0.0201
3416.00,0.0201
3415.00,0.0201
3414.00,0.0201
3413.00,0.0201
3412.00,0.0202
3411.00,0.0202
3410.00,0.0202
3409.00,0.0202
3408.00,0.0202
3407.00,0.0203
3406.00,0.0203
3405.00,0.0203
3404.00,0.0204
3403.00,0.0204
3402.00,0.0205
3401.00,0.0205
3400.00,0.0205
3399.00,0.0204
3398.00,0.0204
3397.00,0.0204
3396.00,0.0205
3395.00,0.0206
3394.00,0.0206
3393.00,0.0206
3392.00,0.0206
3391.00,0.0206
3390.00,0.0206
3389.00,0.0206
3388.00,0.0206
3387.00,0.0207
3386.00,0.0207
3385.00,0.0208
3384.00,0.0208
3383.00,0.0208
3382.00,0.0207
3381.00,0.0207
3380.00,0.0207
3379.00,0.0207
3378.00,0.0208
3377.00,0.0208
3376.00,0.0208
3375.00,0.0209
3374.00,0.0209
3373.00,0.0209
3372.00,0.0209
3371.00,0.0209
3370.00,0.0209
3369.00,0.0208
3368.00,0.0209
3367.00,0.0209
3366.00,0.0209
3365.00,0.0210
3364.00,0.0210
3363.00,0.0210
3362.00,0.0210
3361.00,0.0210
3360.00,0.0210
3359.00,0.0210
3358.00,0.0210
3357.00,0.0210
3356.00,0.0210
3355.00,0.0210
3354.00,0.0210
3353.00,0.0210
3352.00,0.0211
3351.00,0.0211
3350.00,0.0212
3349.00,0.0212
3348.00,0.0212
3347.00,0.0212
3346.00,0.0212
3345.00,0.0211
3344.00,0.0212
3343.00,0.0212
3342.00,0.0212
3341.00,0.0212
3340.00,0.0212
3339.00,0.0211
3338.00,0.0211
3337.00,0.0212
3336.00,0.0212
3335.00,0.0212
3334.00,0.0213
3333.00,0.0213
3332.00,0.0213
3331.00,0.0213
3330.00,0.0213
3329.00,0.0213
3328.00,0.0213
3327.00,0.0212
3326.00,0.0212
3325.00,0.0212
3324.00,0.0212
3323.00,0.0212
3322.00,0.0211
3321.00,0.0211
3320.00,0.0212
3319.00,0.0212
3318.00,0.0213
3317.00,0.0213
3316.00,0.0213
3315.00,0.0213
3314.00,0.0213
3313.00,0.0213
3312.00,0.0213
3311.00,0.0213
3310.00,0.0213
3309.00,0.0213
3308.00,0.0214
3307.00,0.0214
3306.00,0.0214
3305.00,0.0213
3304.00,0.0213
3303.00,0.0214
3302.00,0.0214
3301.00,0.0214
3300.00,0.0215
3299.00,0.0215
3298.00,0.0215
3297.00,0.0215
3296.00,0.0214
3295.00,0.0214
3294.00,0.0214
3293.00,0.0215
3292.00,0.0215
3291.00,0.0215
3290.00,0.0214
3289.00,0.0214
3288.00,0.0214
3287.00,0.0214
3286.00,0.0214
3285.00,0.0214
3284.00,0.0214
3283.00,0.0214
3282.00,0.0214
3281.00,0.0214
3280.00,0.0215
3279.00,0.0215
3278.00,0.0215
3277.00,0.0215
3276.00,0.0215
3275.00,0.0215
3274.00,0.0216
3273.00,0.0216
3272.00,0.0217
3271.00,0.0216
3270.00,0.0216
3269.00,0.0216
3268.00,0.0216
3267.00,0.0216
3266.00,0.0216
3265.00,0.0216
3264.00,0.0216
3263.00,0.0215
3262.00,0.0215
3261.00,0.0215
3260.00,0.0215
3259.00,0.0215
3258.00,0.0215
3257.00,0.0216
3256.00,0.0216
3255.00,0.0216
3254.00,0.0216
3253.00,0.0216
3252.00,0.0216
3251.00,0.0216
3250.00,0.0216
3249.00,0.0216
3248.00,0.0217
3247.00,0.0217
3246.00,0.0218
3245.00,0.0218
3244.00,0.0218
3243.00,0.0218
3242.00,0.0217
3241.00,0.0217
3240.00,0.0217
3239.00,0.0217
3238.00,0.0217
3237.00,0.0218
3236.00,0.0218
3235.00,0.0218
3234.00,0.0218
3233.00,0.0217
3232.00,0.0217
3231.00,0.0217
3230.00,0.0217
3229.00,0.0217
3228.00,0.0218
3227.00,0.0218
3226.00,0.0218
3225.00,0.0218
3224.00,0.0218
3223.00,0.0217
3222.00,0.0217
3221.00,0.0217
3220.00,0.0218
3219.00,0.0218
3218.00,0.0218
3217.00,0.0217
3216.00,0.0217
3215.00,0.0217
3214.00,0.0217
3213.00,0.0217
3212.00,0.0217
3211.00,0.0217
3210.00,0.0217
3209.00,0.0218
3208.00,0.0218
3207.00,0.0218
3206.00,0.0218
3205.00,0.0217
3204.00,0.0217
3203.00,0.0217
3202.00,0.0217
3201.00,0.0218
3200.00,0.0218
3199.00,0.0218
3198.00,0.0218
3197.00,0.0218
3196.00,0.0218
3195.00,0.0218
3194.00,0.0218
3193.00,0.0218
3192.00,0.0218
3191.00,0.0218
3190.00,0.0218
3189.00,0.0218
3188.00,0.0218
3187.00,0.0218
3186.00,0.0219
3185.00,0.0219
3184.00,0.0218
3183.00,0.0218
3182.00,0.0218
3181.00,0.0218
3180.00,0.0218
3179.00,0.0218
3178.00,0.0218
3177.00,0.0217
3176.00,0.0218
3175.00,0.0218
3174.00,0.0218
3173.00,0.0218
3172.00,0.0218
3171.00,0.0218
3170.00,0.0218
3169.00,0.0218
3168.00,0.0218
3167.00,0.0218
3166.00,0.0218
3165.00,0.0218
3164.00,0.0218
3163.00,0.0218
3162.00,0.0218
3161.00,0.0218
3160.00,0.0218
3159.00,0.0217
3158.00,0.0217
3157.00,0.0217
3156.00,0.0217
3155.00,0.0217
3154.00,0.0216
3153.00,0.0216
3152.00,0.0216
3151.00,0.0216
3150.00,0.0216
3149.00,0.0217
3148.00,0.0217
3147.00,0.0217
3146.00,0.0217
3145.00,0.0217
3144.00,0.0216
3143.00,0.0216
3142.00,0.0216
3141.00,0.0216
3140.00,0.0217
3139.00,0.0217
3138.00,0.0217
3137.00,0.0217
3136.00,0.0216
3135.00,0.0216
3134.00,0.0216
3133.00,0.0216
3132.00,0.0216
3131.00,0.0216
3130.00,0.0216
3129.00,0.0216
3128.00,0.0216
3127.00,0.0216
3126.00,0.0216
3125.00,0.0216
3124.00,0.0216
3123.00,0.0216
3122.00,0.0215
3121.00,0.0215
3120.00,0.0216
3119.00,0.0216
3118.00,0.0216
3117.00,0.0216
3116.00,0.0216
3115.00,0.0216
3114.00,0.0216
3113.00,0.0216
3112.00,0.0215
3111.00,0.0215
3110.00,0.0215
3109.00,0.0215
3108.00,0.0215
3107.00,0.0215
3106.00,0.0214
3105.00,0.0214
3104.00,0.0214
3103.00,0.0214
3102.00,0.0215
3101.00,0.0215
3100.00,0.0214
3099.00,0.0214
3098.00,0.0214
3097.00,0.0214
3096.00,0.0214
3095.00,0.0214
3094.00,0.0214
3093.00,0.0214
3092.00,0.0214
3091.00,0.0214
3090.00,0.0215
3089.00,0.0215
3088.00,0.0216
3087.00,0.0216
3086.00,0.0215
3085.00,0.0215
3084.00,0.0214
3083.00,0.0214
3082.00,0.0213
3081.00,0.0213
3080.00,0.0214
3079.00,0.0214
3078.00,0.0214
3077.00,0.0214
3076.00,0.0213
3075.00,0.0213
3074.00,0.0213
3073.00,0.0213
3072.00,0.0213
3071.00,0.0212
3070.00,0.0212
3069.00,0.0212
3068.00,0.0213
3067.00,0.0213
3066.00,0.0213
3065.00,0.0213
3064.00,0.0213
3063.00,0.0212
3062.00,0.0212
3061.00,0.0212
3060.00,0.0212
3059.00,0.0212
3058.00,0.0212
3057.00,0.0212
3056.00,0.0211
3055.00,0.0211
3054.00,0.0211
3053.00,0.0211
3052.00,0.0211
3051.00,0.0211
3050.00,0.0210
3049.00,0.0210
3048.00,0.0210
3047.00,0.0210
3046.00,0.0210
3045.00,0.0210
3044.00,0.0210
3043.00,0.0210
3042.00,0.0210
3041.00,0.0210
3040.00,0.0210
3039.00,0.0210
3038.00,0.0210
3037.00,0.0210
3036.00,0.0210
3035.00,0.0210
3034.00,0.0209
3033.00,0.0209
3032.00,0.0209
3031.00,0.0208
3030.00,0.0208
3029.00,0.0208
3028.00,0.0208
3027.00,0.0208
3026.00,0.0208
3025.00,0.0208
3024.00,0.0208
3023.00,0.0208
3022.00,0.0207
3021.00,0.0207
3020.00,0.0206
3019.00,0.0206
3018.00,0.0207
3017.00,0.0207
3016.00,0.0207
3015.00,0.0208
3014.00,0.0208
3013.00,0.0208
3012.00,0.0207
3011.00,0.0207
3010.00,0.0206
3009.00,0.0206
3008.00,0.0205
3007.00,0.0205
3006.00,0.0205
3005.00,0.0205
3004.00,0.0205
3003.00,0.0205
3002.00,0.0205
3001.00,0.0205
3000.00,0.0205
2999.00,0.0205
2998.00,0.0205
2997.00,0.0204
2996.00,0.0204
2995.00,0.0204
2994.00,0.0204
2993.00,0.0204
2992.00,0.0204
2991.00,0.0204
2990.00,0.0203
2989.00,0.0203
2988.00,0.0203
2987.00,0.0203
2986.00,0.0203
2985.00,0.0203
2984.00,0.0203
2983.00,0.0203
2982.00,0.0202
2981.00,0.0202
2980.00,0.0202
2979.00,0.0202
2978.00,0.0202
2977.00,0.0202
2976.00,0.0202
2975.00,0.0203
2974.00,0.0203
2973.00,0.0202
2972.00,0.0202
2971.00,0.0201
2970.00,0.0201
2969.00,0.0201
2968.00,0.0201
2967.00,0.0201
2966.00,0.0201
2965.00,0.0200
2964.00,0.0200
2963.00,0.0200
2962.00,0.0199
2961.00,0.0199
2960.00,0.0199
2959.00,0.0198
2958.00,0.0198
2957.00,0.0198
2956.00,0.0199
2955.00,0.0199
2954.00,0.0199
2953.00,0.0199
2952.00,0.0199
2951.00,0.0199
2950.00,0.0199
2949.00,0.0199
2948.00,0.0198
2947.00,0.0198
2946.00,0.0198
2945.00,0.0198
2944.00,0.0198
2943.00,0.0198
2942.00,0.0198
2941.00,0.0198
2940.00,0.0197
2939.00,0.0197
2938.00,0.0197
2937.00,0.0197
2936.00,0.0197
2935.00,0.0197
2934.00,0.0197
2933.00,0.0196
2932.00,0.0196
2931.00,0.0195
2930.00,0.0195
2929.00,0.0194
2928.00,0.0194
2927.00,0.0194
2926.00,0.0194
2925.00,0.0193
2924.00,0.0193
2923.00,0.0193
2922.00,0.0193
2921.00,0.0193
2920.00,0.0193
2919.00,0.0192
2918.00,0.0192
2917.00,0.0191
2916.00,0.0191
2915.00,0.0191
2914.00,0.0191
2913.00,0.0192
2912.00,0.0192
2911.00,0.0192
2910.00,0.0192
2909.00,0.0192
2908.00,0.0192
2907.00,0.0192
2906.00,0.0192
2905.00,0.0192
2904.00,0.0192
2903.00,0.0193
2902.00,0.0193
2901.00,0.0193
2900.00,0.0193
2899.00,0.0193
2898.00,0.0192
2897.00,0.0192
2896.00,0.0192
2895.00,0.0192
2894.00,0.0192
2893.00,0.0192
2892.00,0.0192
2891.00,0.0191
2890.00,0.0191
2889.00,0.0191
2888.00,0.0191
2887.00,0.0191
2886.00,0.0191
2885.00,0.0191
2884.00,0.0191
2883.00,0.0191
2882.00,0.0191
2881.00,0.0190
2880.00,0.0190
2879.00,0.0190
2878.00,0.0190
2877.00,0.0190
2876.00,0.0190
2875.00,0.0190
2874.00,0.0190
2873.00,0.0189
2872.00,0.0189
2871.00,0.0189
2870.00,0.0188
2869.00,0.0188
2868.00,0.0188
2867.00,0.0187
2866.00,0.0187
2865.00,0.0187
2864.00,0.0187
2863.00,0.0187
2862.00,0.0187
2861.00,0.0187
2860.00,0.0187
2859.00,0.0187
2858.00,0.0186
2857.00,0.0186
2856.00,0.0186
2855.00,0.0185
2854.00,0.0185
2853.00,0.0185
2852.00,0.0185
2851.00,0.0185
2850.00,0.0184
2849.00,0.0184
2848.00,0.0184
2847.00,0.0185
2846.00,0.0185
2845.00,0.0185
2844.00,0.0186
2843.00,0.0186
2842.00,0.0186
2841.00,0.0186
2840.00,0.0186
2839.00,0.0186
2838.00,0.0185
2837.00,0.0185
2836.00,0.0185
2835.00,0.0184
2834.00,0.0184
2833.00,0.0184
2832.00,0.0184
2831.00,0.0184
2830.00,0.0184
2829.00,0.0184
2828.00,0.0184
2827.00,0.0183
2826.00,0.0183
2825.00,0.0183
2824.00,0.0183
2823.00,0.0183
2822.00,0.0183
2821.00,0.0183
2820.00,0.0183
2819.00,0.0183
2818.00,0.0183
2817.00,0.0183
2816.00,0.0183
2815.00,0.0183
2814.00,0.0183
2813.00,0.0183
2812.00,0.0183
2811.00,0.0183
2810.00,0.0182
2809.00,0.0182
2808.00,0.0182
2807.00,0.0181
2806.00,0.0181
2805.00,0.0181
2804.00,0.0181
2803.00,0.0181
2802.00,0.0181
2801.00,0.0181
2800.00,0.0181
2799.00,0.0181
2798.00,0.0180
2797.00,0.0180
2796.00,0.0180
2795.00,0.0179
2794.00,0.0179
2793.00,0.0179
2792.00,0.0178
2791.00,0.0178
2790.00,0.0179
2789.00,0.0179
2788.00,0.0179
2787.00,0.0179
2786.00,0.0179
2785.00,0.0179
2784.00,0.0178
2783.00,0.0178
2782.00,0.0177
2781.00,0.0177
2780.00,0.0177
2779.00,0.0177
2778.00,0.0177
2777.00,0.0177
2776.00,0.0177
2775.00,0.0176
2774.00,0.0176
2773.00,0.0176
2772.00,0.0177
2771.00,0.0177
2770.00,0.0177
2769.00,0.0177
2768.00,0.0177
2767.00,0.0177
2766.00,0.0176
2765.00,0.0176
2764.00,0.0176
2763.00,0.0176
2762.00,0.0175
2761.00,0.0175
2760.00,0.0175
2759.00,0.0175
2758.00,0.0175
2757.00,0.0175
2756.00,0.0175
2755.00,0.0175
2754.00,0.0175
2753.00,0.0175
2752.00,0.0175
2751.00,0.0175
2750.00,0.0174
2749.00,0.0174
2748.00,0.0174
2747.00,0.0174
2746.00,0.0174
2745.00,0.0173
2744.00,0.0173
2743.00,0.0173
2742.00,0.0173
2741.00,0.0173
2740.00,0.0173
2739.00,0.0173
2738.00,0.0172
2737.00,0.0172
2736.00,0.0172
2735.00,0.0172
2734.00,0.0172
2733.00,0.0172
2732.00,0.0171
2731.00,0.0171
2730.00,0.0171
2729.00,0.0171
2728.00,0.0171
2727.00,0.0171
2726.00,0.0171
2725.00,0.0171
2724.00,0.0171
2723.00,0.0171
2722.00,0.0170
2721.00,0.0170
2720.00,0.0171
2719.00,0.0171
2718.00,0.0171
2717.00,0.0171
2716.00,0.0171
2715.00,0.0170
2714.00,0.0170
2713.00,0.0170
2712.00,0.0170
2711.00,0.0170
2710.00,0.0170
2709.00,0.0169
2708.00,0.0169
2707.00,0.0169
2706.00,0.0169
2705.00,0.0169
2704.00,0.0169
2703.00,0.0168
2702.00,0.0168
2701.00,0.0168
2700.00,0.0168
2699.00,0.0168
2698.00,0.0168
2697.00,0.0168
2696.00,0.0168
2695.00,0.0168
2694.00,0.0168
2693.00,0.0168
2692.00,0.0168
2691.00,0.0168
2690.00,0.0167
2689.00,0.0167
2688.00,0.0167
2687.00,0.0167
2686.00,0.0167
2685.00,0.0167
2684.00,0.0167
2683.00,0.0167
2682.00,0.0167
2681.00,0.0167
2680.00,0.0166
2679.00,0.0166
2678.00,0.0166
2677.00,0.0166
2676.00,0.0166
2675.00,0.0166
2674.00,0.0166
2673.00,0.0166
2672.00,0.0166
2671.00,0.0166
2670.00,0.0166
2669.00,0.0166
2668.00,0.0166
2667.00,0.0166
2666.00,0.0167
2665.00,0.0167
2664.00,0.0167
2663.00,0.0167
2662.00,0.0167
2661.00,0.0167
2660.00,0.0167
2659.00,0.0167
2658.00,0.0168
2657.00,0.0168
2656.00,0.0168
2655.00,0.0169
2654.00,0.0169
2653.00,0.0169
2652.00,0.0169
2651.00,0.0168
2650.00,0.0168
2649.00,0.0168
2648.00,0.0167
2647.00,0.0167
2646.00,0.0167
2645.00,0.0167
2644.00,0.0168
2643.00,0.0168
2642.00,0.0168
2641.00,0.0168
2640.00,0.0168
2639.00,0.0168
2638.00,0.0168
2637.00,0.0168
2636.00,0.0168
2635.00,0.0168
2634.00,0.0168
2633.00,0.0168
2632.00,0.0168
2631.00,0.0168
2630.00,0.0168
2629.00,0.0168
2628.00,0.0169
2627.00,0.0169
2626.00,0.0168
2625.00,0.0168
2624.00,0.0168
2623.00,0.0168
2622.00,0.0168
2621.00,0.0168
2620.00,0.0168
2619.00,0.0168
2618.00,0.0168
2617.00,0.0168
2616.00,0.0168
2615.00,0.0168
2614.00,0.0168
2613.00,0.0168
2612.00,0.0168
2611.00,0.0168
2610.00,0.0167
2609.00,0.0167
2608.00,0.0168
2607.00,0.0168
2606.00,0.0168
2605.00,0.0168
2604.00,0.0168
2603.00,0.0168
2602.00,0.0168
2601.00,0.0168
2600.00,0.0167
2599.00,0.0167
2598.00,0.0167
2597.00,0.0167
2596.00,0.0167
2595.00,0.0167
2594.00,0.0167
2593.00,0.0166
2592.00,0.0166
2591.00,0.0166
2590.00,0.0167
2589.00,0.0167
2588.00,0.0167
2587.00,0.0167
2586.00,0.0167
2585.00,0.0167
2584.00,0.0167
2583.00,0.0167
2582.00,0.0167
2581.00,0.0167
2580.00,0.0167
2579.00,0.0167
2578.00,0.0167
2577.00,0.0166
2576.00,0.0166
2575.00,0.0166
2574.00,0.0166
2573.00,0.0166
2572.00,0.0166
2571.00,0.0166
2570.00,0.0166
2569.00,0.0166
2568.00,0.0167
2567.00,0.0167
2566.00,0.0167
2565.00,0.0167
2564.00,0.0167
2563.00,0.0166
2562.00,0.0166
2561.00,0.0166
2560.00,0.0166
2559.00,0.0166
2558.00,0.0166
2557.00,0.0166
2556.00,0.0165
2555.00,0.0165
2554.00,0.0165
2553.00,0.0166
2552.00,0.0166
2551.00,0.0165
2550.00,0.0165
2549.00,0.0165
2548.00,0.0165
2547.00,0.0165
2546.00,0.0165
2545.00,0.0165
2544.00,0.0165
2543.00,0.0164
2542.00,0.0164
2541.00,0.0164
2540.00,0.0164
2539.00,0.0164
2538.00,0.0165
2537.00,0.0164
2536.00,0.0164
2535.00,0.0163
2534.00,0.0163
2533.00,0.0163
2532.00,0.0163
2531.00,0.0163
2530.00,0.0163
2529.00,0.0163
2528.00,0.0163
2527.00,0.0164
2526.00,0.0164
2525.00,0.0164
2524.00,0.0164
2523.00,0.0164
2522.00,0.0163
2521.00,0.0163
2520.00,0.0163
2519.00,0.0163
2518.00,0.0163
2517.00,0.0162
2516.00,0.0162
2515.00,0.0162
2514.00,0.0163
2513.00,0.0163
2512.00,0.0164
2511.00,0.0164
2510.00,0.0163
2509.00,0.0163
2508.00,0.0162
2507.00,0.0162
2506.00,0.0162
2505.00,0.0162
2504.00,0.0162
2503.00,0.0163
2502.00,0.0163
2501.00,0.0163
2500.00,0.0163
2499.00,0.0163
2498.00,0.0163
2497.00,0.0163
2496.00,0.0163
2495.00,0.0163
2494.00,0.0163
2493.00,0.0163
2492.00,0.0164
2491.00,0.0164
2490.00,0.0163
2489.00,0.0163
2488.00,0.0162
2487.00,0.0162
2486.00,0.0161
2485.00,0.0161
2484.00,0.0161
2483.00,0.0161
2482.00,0.0161
2481.00,0.0161
2480.00,0.0161
2479.00,0.0161
2478.00,0.0161
2477.00,0.0161
2476.00,0.0161
2475.00,0.0161
2474.00,0.0161
2473.00,0.0160
2472.00,0.0160
2471.00,0.0160
2470.00,0.0159
2469.00,0.0159
2468.00,0.0159
2467.00,0.0160
2466.00,0.0160
2465.00,0.0160
2464.00,0.0161
2463.00,0.0161
2462.00,0.0161
2461.00,0.0160
2460.00,0.0160
2459.00,0.0160
2458.00,0.0160
2457.00,0.0160
2456.00,0.0159
2455.00,0.0159
2454.00,0.0160
2453.00,0.0160
2452.00,0.0161
2451.00,0.0161
2450.00,0.0160
2449.00,0.0160
2448.00,0.0160
2447.00,0.0160
2446.00,0.0160
2445.00,0.0160
2444.00,0.0159
2443.00,0.0159
2442.00,0.0159
2441.00,0.0159
2440.00,0.0159
2439.00,0.0159
2438.00,0.0158
2437.00,0.0158
2436.00,0.0158
2435.00,0.0158
2434.00,0.0158
2433.00,0.0158
2432.00,0.0158
2431.00,0.0158
2430.00,0.0157
2429.00,0.0157
2428.00,0.0157
2427.00,0.0157
2426.00,0.0158
2425.00,0.0158
2424.00,0.0158
2423.00,0.0157
2422.00,0.0157
2421.00,0.0157
2420.00,0.0157
2419.00,0.0156
2418.00,0.0156
2417.00,0.0156
2416.00,0.0156
2415.00,0.0156
2414.00,0.0156
2413.00,0.0156
2412.00,0.0156
2411.00,0.0155
2410.00,0.0155
2409.00,0.0155
2408.00,0.0154
2407.00,0.0154
2406.00,0.0154
2405.00,0.0154
2404.00,0.0154
2403.00,0.0154
2402.00,0.0153
2401.00,0.0153
2400.00,0.0153
2399.00,0.0152
2398.00,0.0152
2397.00,0.0152
2396.00,0.0152
2395.00,0.0152
2394.00,0.0152
2393.00,0.0152
2392.00,0.0152
2391.00,0.0152
2390.00,0.0151
2389.00,0.0150
2388.00,0.0150
2387.00,0.0149
2386.00,0.0148
2385.00,0.0147
2384.00,0.0146
2383.00,0.0146
2382.00,0.0145
2381.00,0.0144
2380.00,0.0144
2379.00,0.0144
2378.00,0.0145
2377.00,0.0146
2376.00,0.0147
2375.00,0.0148
2374.00,0.0148
2373.00,0.0148
2372.00,0.0147
2371.00,0.0146
2370.00,0.0146
2369.00,0.0146
2368.00,0.0146
2367.00,0.0147
2366.00,0.0147
2365.00,0.0148
2364.00,0.0148
2363.00,0.0147
2362.00,0.0148
2361.00,0.0150
2360.00,0.0153
2359.00,0.0155
2358.00,0.0156
2357.00,0.0156
2356.00,0.0156
2355.00,0.0154
2354.00,0.0151
2353.00,0.0148
2352.00,0.0148
2351.00,0.0149
2350.00,0.0151
2349.00,0.0151
2348.00,0.0148
2347.00,0.0144
2346.00,0.0143
2345.00,0.0145
2344.00,0.0148
2343.00,0.0149
2342.00,0.0150
2341.00,0.0150
2340.00,0.0150
2339.00,0.0149
2338.00,0.0149
2337.00,0.0149
2336.00,0.0150
2335.00,0.0150
2334.00,0.0150
2333.00,0.0149
2332.00,0.0149
2331.00,0.0149
2330.00,0.0150
2329.00,0.0151
2328.00,0.0153
2327.00,0.0154
2326.00,0.0155
2325.00,0.0155
2324.00,0.0155
2323.00,0.0155
2322.00,0.0155
2321.00,0.0155
2320.00,0.0155
2319.00,0.0155
2318.00,0.0154
2317.00,0.0153
2316.00,0.0152
2315.00,0.0150
2314.00,0.0149
2313.00,0.0149
2312.00,0.0149
2311.00,0.0149
2310.00,0.0150
2309.00,0.0150
2308.00,0.0150
2307.00,0.0150
2306.00,0.0151
2305.00,0.0150
2304.00,0.0150
2303.00,0.0149
2302.00,0.0149
2301.00,0.0148
2300.00,0.0148
2299.00,0.0148
2298.00,0.0148
2297.00,0.0148
2296.00,0.0149
2295.00,0.0149
2294.00,0.0150
2293.00,0.0151
2292.00,0.0151
2291.00,0.0152
2290.00,0.0153
2289.00,0.0153
2288.00,0.0153
2287.00,0.0153
2286.00,0.0152
2285.00,0.0152
2284.00,0.0151
2283.00,0.0151
2282.00,0.0150
2281.00,0.0150
2280.00,0.0150
2279.00,0.0150
2278.00,0.0150
2277.00,0.0149
2276.00,0.0148
2275.00,0.0148
2274.00,0.0148
2273.00,0.0148
2272.00,0.0148
2271.00,0.0148
2270.00,0.0148
2269.00,0.0149
2268.00,0.0149
2267.00,0.0149
2266.00,0.0149
2265.00,0.0149
2264.00,0.0149
2263.00,0.0149
2262.00,0.0150
2261.00,0.0150
2260.00,0.0150
2259.00,0.0150
2258.00,0.0149
2257.00,0.0148
2256.00,0.0147
2255.00,0.0147
2254.00,0.0147
2253.00,0.0147
2252.00,0.0147
2251.00,0.0147
2250.00,0.0148
2249.00,0.0148
2248.00,0.0148
2247.00,0.0147
2246.00,0.0147
2245.00,0.0147
2244.00,0.0147
2243.00,0.0148
2242.00,0.0148
2241.00,0.0148
2240.00,0.0149
2239.00,0.0149
2238.00,0.0149
2237.00,0.0149
2236.00,0.0149
2235.00,0.0148
2234.00,0.0148
2233.00,0.0149
2232.00,0.0149
2231.00,0.0150
2230.00,0.0149
2229.00,0.0149
2228.00,0.0149
2227.00,0.0148
2226.00,0.0148
2225.00,0.0148
2224.00,0.0147
2223.00,0.0147
2222.00,0.0148
2221.00,0.0149
2220.00,0.0150
2219.00,0.0150
2218.00,0.0149
2217.00,0.0149
2216.00,0.0148
2215.00,0.0148
2214.00,0.0149
2213.00,0.0149
2212.00,0.0148
2211.00,0.0148
2210.00,0.0147
2209.00,0.0147
2208.00,0.0147
2207.00,0.0146
2206.00,0.0145
2205.00,0.0144
2204.00,0.0144
2203.00,0.0145
2202.00,0.0146
2201.00,0.0148
2200.00,0.0149
2199.00,0.0151
2198.00,0.0152
2197.00,0.0151
2196.00,0.0151
2195.00,0.0150
2194.00,0.0150
2193.00,0.0149
2192.00,0.0148
2191.00,0.0147
2190.00,0.0147
2189.00,0.0148
2188.00,0.0150
2187.00,0.0151
2186.00,0.0151
2185.00,0.0150
2184.00,0.0148
2183.00,0.0146
2182.00,0.0145
2181.00,0.0146
2180.00,0.0148
2179.00,0.0149
2178.00,0.0149
2177.00,0.0147
2176.00,0.0145
2175.00,0.0144
2174.00,0.0145
2173.00,0.0147
2172.00,0.0148
2171.00,0.0149
2170.00,0.0150
2169.00,0.0152
2168.00,0.0153
2167.00,0.0153
2166.00,0.0153
2165.00,0.0153
2164.00,0.0154
2163.00,0.0153
2162.00,0.0151
2161.00,0.0147
2160.00,0.0141
2159.00,0.0135
2158.00,0.0133
2157.00,0.0133
2156.00,0.0134
2155.00,0.0134
2154.00,0.0134
2153.00,0.0135
2152.00,0.0136
2151.00,0.0136
2150.00,0.0136
2149.00,0.0136
2148.00,0.0136
2147.00,0.0136
2146.00,0.0136
2145.00,0.0136
2144.00,0.0135
2143.00,0.0135
2142.00,0.0134
2141.00,0.0134
2140.00,0.0134
2139.00,0.0135
2138.00,0.0135
2137.00,0.0134
2136.00,0.0132
2135.00,0.0131
2134.00,0.0129
2133.00,0.0129
2132.00,0.0129
2131.00,0.0129
2130.00,0.0129
2129.00,0.0130
2128.00,0.0131
2127.00,0.0132
2126.00,0.0132
2125.00,0.0133
2124.00,0.0133
2123.00,0.0133
2122.00,0.0133
2121.00,0.0134
2120.00,0.0134
2119.00,0.0135
2118.00,0.0136
2117.00,0.0136
2116.00,0.0137
2115.00,0.0137
2114.00,0.0137
2113.00,0.0138
2112.00,0.0138
2111.00,0.0138
2110.00,0.0138
2109.00,0.0137
2108.00,0.0137
2107.00,0.0137
2106.00,0.0136
2105.00,0.0136
2104.00,0.0135
2103.00,0.0135
2102.00,0.0135
2101.00,0.0136
2100.00,0.0136
2099.00,0.0135
2098.00,0.0133
2097.00,0.0132
2096.00,0.0131
2095.00,0.0131
2094.00,0.0131
2093.00,0.0132
2092.00,0.0132
2091.00,0.0133
2090.00,0.0134
2089.00,0.0134
2088.00,0.0134
2087.00,0.0134
2086.00,0.0133
2085.00,0.0133
2084.00,0.0133
2083.00,0.0133
2082.00,0.0134
2081.00,0.0134
2080.00,0.0134
2079.00,0.0134
2078.00,0.0135
2077.00,0.0135
2076.00,0.0135
2075.00,0.0134
2074.00,0.0133
2073.00,0.0132
2072.00,0.0132
2071.00,0.0132
2070.00,0.0132
2069.00,0.0132
2068.00,0.0131
2067.00,0.0131
2066.00,0.0131
2065.00,0.0131
2064.00,0.0131
2063.00,0.0130
2062.00,0.0129
2061.00,0.0129
2060.00,0.0129
2059.00,0.0130
2058.00,0.0130
2057.00,0.0131
2056.00,0.0131
2055.00,0.0131
2054.00,0.0132
2053.00,0.0134
2052.00,0.0135
2051.00,0.0136
2050.00,0.0135
2049.00,0.0134
2048.00,0.0133
2047.00,0.0134
2046.00,0.0135
2045.00,0.0136
2044.00,0.0137
2043.00,0.0136
2042.00,0.0136
2041.00,0.0135
2040.00,0.0135
2039.00,0.0136
2038.00,0.0138
2037.00,0.0141
2036.00,0.0142
2035.00,0.0142
2034.00,0.0141
2033.00,0.0140
2032.00,0.0138
2031.00,0.0137
2030.00,0.0137
2029.00,0.0136
2028.00,0.0135
2027.00,0.0134
2026.00,0.0133
2025.00,0.0133
2024.00,0.0133
2023.00,0.0132
2022.00,0.0132
2021.00,0.0132
2020.00,0.0132
2019.00,0.0133
2018.00,0.0133
2017.00,0.0133
2016.00,0.0133
2015.00,0.0133
2014.00,0.0134
2013.00,0.0135
2012.00,0.0134
2011.00,0.0133
2010.00,0.0132
2009.00,0.0130
2008.00,0.0128
2007.00,0.0126
2006.00,0.0125
2005.00,0.0125
2004.00,0.0126
2003.00,0.0126
2002.00,0.0126
2001.00,0.0126
2000.00,0.0126
1999.00,0.0127
1998.00,0.0129
1997.00,0.0130
1996.00,0.0130
1995.00,0.0129
1994.00,0.0129
1993.00,0.0128
1992.00,0.0129
1991.00,0.0130
1990.00,0.0131
1989.00,0.0132
1988.00,0.0132
1987.00,0.0131
1986.00,0.0130
1985.00,0.0131
1984.00,0.0132
1983.00,0.0133
1982.00,0.0135
1981.00,0.0137
1980.00,0.0138
1979.00,0.0137
1978.00,0.0134
1977.00,0.0131
1976.00,0.0128
1975.00,0.0126
1974.00,0.0125
1973.00,0.0125
1972.00,0.0126
1971.00,0.0127
1970.00,0.0127
1969.00,0.0126
1968.00,0.0125
1967.00,0.0124
1966.00,0.0123
1965.00,0.0124
1964.00,0.0124
1963.00,0.0124
1962.00,0.0124
1961.00,0.0123
1960.00,0.0122
1959.00,0.0121
1958.00,0.0121
1957.00,0.0121
1956.00,0.0121
1955.00,0.0120
1954.00,0.0119
1953.00,0.0118
1952.00,0.0117
1951.00,0.0116
1950.00,0.0117
1949.00,0.0117
1948.00,0.0118
1947.00,0.0119
1946.00,0.0119
1945.00,0.0119
1944.00,0.0118
1943.00,0.0117
1942.00,0.0116
1941.00,0.0114
1940.00,0.0113
1939.00,0.0112
1938.00,0.0112
1937.00,0.0112
1936.00,0.0113
1935.00,0.0114
1934.00,0.0115
1933.00,0.0116
1932.00,0.0115
1931.00,0.0115
1930.00,0.0113
1929.00,0.0112
1928.00,0.0111
1927.00,0.0111
1926.00,0.0111
1925.00,0.0111
1924.00,0.0111
1923.00,0.0110
1922.00,0.0110
1921.00,0.0111
1920.00,0.0113
1919.00,0.0113
1918.00,0.0112
1917.00,0.0111
1916.00,0.0110
1915.00,0.0110
1914.00,0.0110
1913.00,0.0110
1912.00,0.0109
1911.00,0.0109
1910.00,0.0108
1909.00,0.0108
1908.00,0.0107
1907.00,0.0107
1906.00,0.0107
1905.00,0.0107
1904.00,0.0107
1903.00,0.0106
1902.00,0.0106
1901.00,0.0106
1900.00,0.0106
1899.00,0.0107
1898.00,0.0107
1897.00,0.0106
1896.00,0.0106
1895.00,0.0104
1894.00,0.0104
1893.00,0.0104
1892.00,0.0105
1891.00,0.0104
1890.00,0.0103
1889.00,0.0102
1888.00,0.0101
1887.00,0.0101
1886.00,0.0101
1885.00,0.0101
1884.00,0.0100
1883.00,0.0100
1882.00,0.0100
1881.00,0.0101
1880.00,0.0101
1879.00,0.0100
1878.00,0.0100
1877.00,0.0100
1876.00,0.0099
1875.00,0.0099
1874.00,0.0099
1873.00,0.0099
1872.00,0.0100
1871.00,0.0100
1870.00,0.0100
1869.00,0.0098
1868.00,0.0095
1867.00,0.0094
1866.00,0.0094
1865.00,0.0096
1864.00,0.0097
1863.00,0.0097
1862.00,0.0097
1861.00,0.0096
1860.00,0.0095
1859.00,0.0095
1858.00,0.0094
1857.00,0.0094
1856.00,0.0094
1855.00,0.0093
1854.00,0.0093
1853.00,0.0093
1852.00,0.0093
1851.00,0.0093
1850.00,0.0094
1849.00,0.0094
1848.00,0.0095
1847.00,0.0095
1846.00,0.0095
1845.00,0.0094
1844.00,0.0091
1843.00,0.0089
1842.00,0.0089
1841.00,0.0090
1840.00,0.0090
1839.00,0.0090
1838.00,0.0090
1837.00,0.0089
1836.00,0.0088
1835.00,0.0088
1834.00,0.0089
1833.00,0.0090
1832.00,0.0090
1831.00,0.0089
1830.00,0.0086
1829.00,0.0084
1828.00,0.0084
1827.00,0.0084
1826.00,0.0084
1825.00,0.0083
1824.00,0.0083
1823.00,0.0083
1822.00,0.0084
1821.00,0.0085
1820.00,0.0085
1819.00,0.0084
1818.00,0.0084
1817.00,0.0083
1816.00,0.0082
1815.00,0.0082
1814.00,0.0083
1813.00,0.0083
1812.00,0.0082
1811.00,0.0080
1810.00,0.0080
1809.00,0.0080
1808.00,0.0081
1807.00,0.0081
1806.00,0.0082
1805.00,0.0083
1804.00,0.0083
1803.00,0.0084
1802.00,0.0083
1801.00,0.0082
1800.00,0.0082
1799.00,0.0082
1798.00,0.0083
1797.00,0.0084
1796.00,0.0085
1795.00,0.0086
1794.00,0.0087
1793.00,0.0086
1792.00,0.0083
1791.00,0.0081
1790.00,0.0081
1789.00,0.0083
1788.00,0.0085
1787.00,0.0087
1786.00,0.0088
1785.00,0.0088
1784.00,0.0089
1783.00,0.0089
1782.00,0.0089
1781.00,0.0089
1780.00,0.0089
1779.00,0.0090
1778.00,0.0091
1777.00,0.0093
1776.00,0.0095
1775.00,0.0097
1774.00,0.0098
1773.00,0.0097
1772.00,0.0096
1771.00,0.0095
1770.00,0.0096
1769.00,0.0098
1768.00,0.0099
1767.00,0.0099
1766.00,0.0100
1765.00,0.0102
1764.00,0.0103
1763.00,0.0104
1762.00,0.0103
1761.00,0.0102
1760.00,0.0104
1759.00,0.0105
1758.00,0.0106
1757.00,0.0106
1756.00,0.0106
1755.00,0.0108
1754.00,0.0111
1753.00,0.0113
1752.00,0.0116
1751.00,0.0116
1750.00,0.0115
1749.00,0.0114
1748.00,0.0113
1747.00,0.0114
1746.00,0.0115
1745.00,0.0117
1744.00,0.0118
1743.00,0.0118
1742.00,0.0120
1741.00,0.0122
1740.00,0.0123
1739.00,0.0124
1738.00,0.0126
1737.00,0.0130
1736.00,0.0133
1735.00,0.0136
1734.00,0.0137
1733.00,0.0136
1732.00,0.0136
1731.00,0.0137
1730.00,0.0137
1729.00,0.0138
1728.00,0.0141
1727.00,0.0143
1726.00,0.0146
1725.00,0.0148
1724.00,0.0149
1723.00,0.0151
1722.00,0.0153
1721.00,0.0154
1720.00,0.0156
1719.00,0.0157
1718.00,0.0159
1717.00,0.0161
1716.00,0.0162
1715.00,0.0161
1714.00,0.0162
1713.00,0.0164
1712.00,0.0166
1711.00,0.0167
1710.00,0.0168
1709.00,0.0169
1708.00,0.0171
1707.00,0.0171
1706.00,0.0171
1705.00,0.0172
1704.00,0.0173
1703.00,0.0175
1702.00,0.0177
1701.00,0.0179
1700.00,0.0180
1699.00,0.0180
1698.00,0.0181
1697.00,0.0182
1696.00,0.0181
1695.00,0.0180
1694.00,0.0180
1693.00,0.0181
1692.00,0.0181
1691.00,0.0182
1690.00,0.0183
1689.00,0.0184
1688.00,0.0184
1687.00,0.0185
1686.00,0.0185
1685.00,0.0184
1684.00,0.0182
1683.00,0.0181
1682.00,0.0183
1681.00,0.0185
1680.00,0.0186
1679.00,0.0188
1678.00,0.0188
1677.00,0.0189
1676.00,0.0190
1675.00,0.0191
1674.00,0.0192
1673.00,0.0192
1672.00,0.0193
1671.00,0.0194
1670.00,0.0195
1669.00,0.0195
1668.00,0.0195
1667.00,0.0196
1666.00,0.0198
1665.00,0.0198
1664.00,0.0199
1663.00,0.0199
1662.00,0.0200
1661.00,0.0201
1660.00,0.0203
1659.00,0.0204
1658.00,0.0205
1657.00,0.0206
1656.00,0.0206
1655.00,0.0206
1654.00,0.0208
1653.00,0.0210
1652.00,0.0210
1651.00,0.0212
1650.00,0.0213
1649.00,0.0213
1648.00,0.0215
1647.00,0.0217
1646.00,0.0218
1645.00,0.0219
1644.00,0.0221
1643.00,0.0222
1642.00,0.0223
1641.00,0.0223
1640.00,0.0224
1639.00,0.0224
1638.00,0.0225
1637.00,0.0227
1636.00,0.0228
1635.00,0.0228
1634.00,0.0229
1633.00,0.0231
1632.00,0.0232
1631.00,0.0233
1630.00,0.0234
1629.00,0.0235
1628.00,0.0236
1627.00,0.0237
1626.00,0.0238
1625.00,0.0240
1624.00,0.0241
1623.00,0.0243
1622.00,0.0244
1621.00,0.0245
1620.00,0.0246
1619.00,0.0247
1618.00,0.0249
1617.00,0.0252
1616.00,0.0253
1615.00,0.0254
1614.00,0.0254
1613.00,0.0254
1612.00,0.0255
1611.00,0.0256
1610.00,0.0258
1609.00,0.0259
1608.00,0.0260
1607.00,0.0261
1606.00,0.0262
1605.00,0.0263
1604.00,0.0263
1603.00,0.0265
1602.00,0.0265
1601.00,0.0266
1600.00,0.0266
1599.00,0.0267
1598.00,0.0268
1597.00,0.0268
1596.00,0.0268
1595.00,0.0269
1594.00,0.0270
1593.00,0.0270
1592.00,0.0271
1591.00,0.0272
1590.00,0.0273
1589.00,0.0273
1588.00,0.0273
1587.00,0.0274
1586.00,0.0274
1585.00,0.0274
1584.00,0.0274
1583.00,0.0275
1582.00,0.0275
1581.00,0.0275
1580.00,0.0275
1579.00,0.0276
1578.00,0.0276
1577.00,0.0277
1576.00,0.0278
1575.00,0.0279
1574.00,0.0278
1573.00,0.0277
1572.00,0.0276
1571.00,0.0276
1570.00,0.0278
1569.00,0.0278
1568.00,0.0278
1567.00,0.0279
1566.00,0.0278
1565.00,0.0278
1564.00,0.0278
1563.00,0.0278
1562.00,0.0277
1561.00,0.0273
1560.00,0.0273
1559.00,0.0279
1558.00,0.0280
1557.00,0.0280
1556.00,0.0281
1555.00,0.0280
1554.00,0.0280
1553.00,0.0278
1552.00,0.0277
1551.00,0.0276
1550.00,0.0275
1549.00,0.0274
1548.00,0.0274
1547.00,0.0273
1546.00,0.0272
1545.00,0.0272
1544.00,0.0272
1543.00,0.0271
1542.00,0.0270
1541.00,0.0270
1540.00,0.0268
1539.00,0.0265
1538.00,0.0265
1537.00,0.0265
1536.00,0.0264
1535.00,0.0262
1534.00,0.0261
1533.00,0.0260
1532.00,0.0260
1531.00,0.0260
1530.00,0.0260
1529.00,0.0259
1528.00,0.0258
1527.00,0.0258
1526.00,0.0257
1525.00,0.0257
1524.00,0.0256
1523.00,0.0255
1522.00,0.0254
1521.00,0.0253
1520.00,0.0251
1519.00,0.0249
1518.00,0.0247
1517.00,0.0246
1516.00,0.0245
1515.00,0.0245
1514.00,0.0245
1513.00,0.0246
1512.00,0.0246
1511.00,0.0245
1510.00,0.0244
1509.00,0.0243
1508.00,0.0244
1507.00,0.0241
1506.00,0.0237
1505.00,0.0237
1504.00,0.0238
1503.00,0.0238
1502.00,0.0237
1501.00,0.0235
1500.00,0.0234
1499.00,0.0233
1498.00,0.0232
1497.00,0.0233
1496.00,0.0234
1495.00,0.0234
1494.00,0.0235
1493.00,0.0235
1492.00,0.0236
1491.00,0.0236
1490.00,0.0235
1489.00,0.0234
1488.00,0.0232
1487.00,0.0231
1486.00,0.0231
1485.00,0.0231
1484.00,0.0231
1483.00,0.0231
1482.00,0.0231
1481.00,0.0232
1480.00,0.0232
1479.00,0.0231
1478.00,0.0231
1477.00,0.0231
1476.00,0.0232
1475.00,0.0233
1474.00,0.0235
1473.00,0.0236
1472.00,0.0235
1471.00,0.0234
1470.00,0.0234
1469.00,0.0234
1468.00,0.0234
1467.00,0.0234
1466.00,0.0234
1465.00,0.0235
1464.00,0.0236
1463.00,0.0236
1462.00,0.0236
1461.00,0.0236
1460.00,0.0236
1459.00,0.0237
1458.00,0.0240
1457.00,0.0242
1456.00,0.0242
1455.00,0.0241
1454.00,0.0240
1453.00,0.0239
1452.00,0.0240
1451.00,0.0241
1450.00,0.0242
1449.00,0.0243
1448.00,0.0244
1447.00,0.0244
1446.00,0.0244
1445.00,0.0244
1444.00,0.0244
1443.00,0.0245
1442.00,0.0245
1441.00,0.0245
1440.00,0.0246
1439.00,0.0246
1438.00,0.0247
1437.00,0.0249
1436.00,0.0250
1435.00,0.0250
1434.00,0.0249
1433.00,0.0249
1432.00,0.0249
1431.00,0.0249
1430.00,0.0249
1429.00,0.0250
1428.00,0.0250
1427.00,0.0250
1426.00,0.0250
1425.00,0.0250
1424.00,0.0250
1423.00,0.0251
1422.00,0.0251
1421.00,0.0251
1420.00,0.0252
1419.00,0.0252
1418.00,0.0252
1417.00,0.0252
1416.00,0.0253
1415.00,0.0253
1414.00,0.0254
1413.00,0.0254
1412.00,0.0255
1411.00,0.0255
1410.00,0.0255
1409.00,0.0255
1408.00,0.0255
1407.00,0.0255
1406.00,0.0255
1405.00,0.0256
1404.00,0.0257
1403.00,0.0258
1402.00,0.0258
1401.00,0.0259
1400.00,0.0260
1399.00,0.0261
1398.00,0.0262
1397.00,0.0262
1396.00,0.0263
1395.00,0.0263
1394.00,0.0263
1393.00,0.0263
1392.00,0.0263
1391.00,0.0264
1390.00,0.0264
1389.00,0.0265
1388.00,0.0266
1387.00,0.0267
1386.00,0.0268
1385.00,0.0268
1384.00,0.0268
1383.00,0.0268
1382.00,0.0269
1381.00,0.0269
1380.00,0.0270
1379.00,0.0270
1378.00,0.0270
1377.00,0.0270
1376.00,0.0270
1375.00,0.0270
1374.00,0.0271
1373.00,0.0271
1372.00,0.0272
1371.00,0.0272
1370.00,0.0272
1369.00,0.0272
1368.00,0.0272
1367.00,0.0272
1366.00,0.0272
1365.00,0.0272
1364.00,0.0272
1363.00,0.0272
1362.00,0.0272
1361.00,0.0272
1360.00,0.0271
1359.00,0.0271
1358.00,0.0271
1357.00,0.0271
1356.00,0.0271
1355.00,0.0271
1354.00,0.0271
1353.00,0.0270
1352.00,0.0270
1351.00,0.0270
1350.00,0.0270
1349.00,0.0269
1348.00,0.0269
1347.00,0.0269
1346.00,0.0269
1345.00,0.0268
1344.00,0.0268
1343.00,0.0269
1342.00,0.0269
1341.00,0.0269
1340.00,0.0270
1339.00,0.0269
1338.00,0.0269
1337.00,0.0268
1336.00,0.0267
1335.00,0.0267
1334.00,0.0267
1333.00,0.0267
1332.00,0.0267
1331.00,0.0267
1330.00,0.0267
1329.00,0.0266
1328.00,0.0266
1327.00,0.0266
1326.00,0.0266
1325.00,0.0265
1324.00,0.0265
1323.00,0.0266
1322.00,0.0266
1321.00,0.0266
1320.00,0.0267
1319.00,0.0267
1318.00,0.0267
1317.00,0.0266
1316.00,0.0266
1315.00,0.0266
1314.00,0.0266
1313.00,0.0266
1312.00,0.0266
1311.00,0.0266
1310.00,0.0266
1309.00,0.0266
1308.00,0.0266
1307.00,0.0266
1306.00,0.0267
1305.00,0.0267
1304.00,0.0267
1303.00,0.0267
1302.00,0.0267
1301.00,0.0268
1300.00,0.0268
1299.00,0.0268
1298.00,0.0269
1297.00,0.0269
1296.00,0.0269
1295.00,0.0269
1294.00,0.0270
1293.00,0.0270
1292.00,0.0270
1291.00,0.0270
1290.00,0.0270
1289.00,0.0270
1288.00,0.0270
1287.00,0.0270
1286.00,0.0270
1285.00,0.0270
1284.00,0.0270
1283.00,0.0271
1282.00,0.0271
1281.00,0.0272
1280.00,0.0272
1279.00,0.0272
1278.00,0.0273
1277.00,0.0273
1276.00,0.0274
1275.00,0.0274
1274.00,0.0274
1273.00,0.0274
1272.00,0.0274
1271.00,0.0274
1270.00,0.0274
1269.00,0.0274
1268.00,0.0274
1267.00,0.0275
1266.00,0.0275
1265.00,0.0275
1264.00,0.0275
1263.00,0.0276
1262.00,0.0276
1261.00,0.0276
1260.00,0.0276
1259.00,0.0277
1258.00,0.0277
1257.00,0.0277
1256.00,0.0277
1255.00,0.0277
1254.00,0.0277
1253.00,0.0277
1252.00,0.0277
1251.00,0.0277
1250.00,0.0277
1249.00,0.0278
1248.00,0.0278
1247.00,0.0279
1246.00,0.0279
1245.00,0.0279
1244.00,0.0279
1243.00,0.0279
1242.00,0.0279
1241.00,0.0279
1240.00,0.0279
1239.00,0.0279
1238.00,0.0279
1237.00,0.0279
1236.00,0.0279
1235.00,0.0280
1234.00,0.0281
1233.00,0.0281
1232.00,0.0281
1231.00,0.0281
1230.00,0.0281
1229.00,0.0281
1228.00,0.0281
1227.00,0.0281
1226.00,0.0281
1225.00,0.0280
1224.00,0.0280
1223.00,0.0280
1222.00,0.0280
1221.00,0.0279
1220.00,0.0279
1219.00,0.0279
1218.00,0.0278
1217.00,0.0277
1216.00,0.0277
1215.00,0.0277
1214.00,0.0277
1213.00,0.0277
1212.00,0.0277
1211.00,0.0277
1210.00,0.0277
1209.00,0.0277
1208.00,0.0277
1207.00,0.0277
1206.00,0.0276
1205.00,0.0277
1204.00,0.0277
1203.00,0.0277
1202.00,0.0277
1201.00,0.0276
1200.00,0.0276
1199.00,0.0276
1198.00,0.0276
1197.00,0.0276
1196.00,0.0277
1195.00,0.0276
1194.00,0.0276
1193.00,0.0275
1192.00,0.0275
1191.00,0.0275
1190.00,0.0274
1189.00,0.0274
1188.00,0.0274
1187.00,0.0274
1186.00,0.0274
1185.00,0.0275
1184.00,0.0275
1183.00,0.0275
1182.00,0.0275
1181.00,0.0275
1180.00,0.0276
1179.00,0.0276
1178.00,0.0276
1177.00,0.0276
1176.00,0.0276
1175.00,0.0276
1174.00,0.0275
1173.00,0.0275
1172.00,0.0274
1171.00,0.0274
1170.00,0.0274
1169.00,0.0274
1168.00,0.0274
1167.00,0.0274
1166.00,0.0274
1165.00,0.0274
1164.00,0.0274
1163.00,0.0274
1162.00,0.0274
1161.00,0.0273
1160.00,0.0272
1159.00,0.0271
1158.00,0.0271
1157.00,0.0271
1156.00,0.0271
1155.00,0.0271
1154.00,0.0271
1153.00,0.0271
1152.00,0.0271
1151.00,0.0271
1150.00,0.0270
1149.00,0.0270
1148.00,0.0270
1147.00,0.0269
1146.00,0.0269
1145.00,0.0269
1144.00,0.0269
1143.00,0.0269
1142.00,0.0269
1141.00,0.0269
1140.00,0.0268
1139.00,0.0268
1138.00,0.0268
1137.00,0.0267
1136.00,0.0268
1135.00,0.0268
1134.00,0.0268
1133.00,0.0268
1132.00,0.0268
1131.00,0.0267
1130.00,0.0267
1129.00,0.0267
1128.00,0.0267
1127.00,0.0267
1126.00,0.0267
1125.00,0.0267
1124.00,0.0268
1123.00,0.0268
1122.00,0.0268
1121.00,0.0268
1120.00,0.0267
1119.00,0.0267
1118.00,0.0267
1117.00,0.0267
1116.00,0.0267
1115.00,0.0267
1114.00,0.0267
1113.00,0.0266
1112.00,0.0266
1111.00,0.0266
1110.00,0.0266
1109.00,0.0266
1108.00,0.0266
1107.00,0.0267
1106.00,0.0267
1105.00,0.0267
1104.00,0.0267
1103.00,0.0267
1102.00,0.0267
1101.00,0.0267
1100.00,0.0267
1099.00,0.0266
1098.00,0.0266
1097.00,0.0265
1096.00,0.0265
1095.00,0.0265
1094.00,0.0265
1093.00,0.0265
1092.00,0.0265
1091.00,0.0265
1090.00,0.0265
1089.00,0.0265
1088.00,0.0265
1087.00,0.0265
1086.00,0.0264
1085.00,0.0264
1084.00,0.0264
1083.00,0.0265
1082.00,0.0265
1081.00,0.0265
1080.00,0.0264
1079.00,0.0264
1078.00,0.0264
1077.00,0.0264
1076.00,0.0265
1075.00,0.0266
1074.00,0.0267
1073.00,0.0266
1072.00,0.0266
1071.00,0.0265
1070.00,0.0265
1069.00,0.0266
1068.00,0.0267
1067.00,0.0267
1066.00,0.0267
1065.00,0.0267
1064.00,0.0267
1063.00,0.0266
1062.00,0.0265
1061.00,0.0265
1060.00,0.0265
1059.00,0.0264
1058.00,0.0264
1057.00,0.0264
1056.00,0.0264
1055.00,0.0265
1054.00,0.0265
1053.00,0.0265
1052.00,0.0266
1051.00,0.0267
1050.00,0.0269
1049.00,0.0270
1048.00,0.0270
1047.00,0.0269
1046.00,0.0268
1045.00,0.0267
1044.00,0.0266
1043.00,0.0265
1042.00,0.0265
1041.00,0.0265
1040.00,0.0265
1039.00,0.0266
1038.00,0.0266
1037.00,0.0266
1036.00,0.0266
1035.00,0.0266
1034.00,0.0266
1033.00,0.0266
1032.00,0.0266
1031.00,0.0266
1030.00,0.0266
1029.00,0.0266
1028.00,0.0266
1027.00,0.0265
1026.00,0.0264
1025.00,0.0263
1024.00,0.0262
1023.00,0.0262
1022.00,0.0263
1021.00,0.0263
1020.00,0.0263
1019.00,0.0262
1018.00,0.0261
1017.00,0.0260
1016.00,0.0259
1015.00,0.0259
1014.00,0.0260
1013.00,0.0260
1012.00,0.0260
1011.00,0.0261
1010.00,0.0260
1009.00,0.0260
1008.00,0.0259
1007.00,0.0258
1006.00,0.0257
1005.00,0.0257
1004.00,0.0256
1003.00,0.0256
1002.00,0.0256
1001.00,0.0256
1000.00,0.0255
999.00,0.0255
998.00,0.0254
997.00,0.0254
996.00,0.0253
995.00,0.0253
994.00,0.0252
993.00,0.0252
992.00,0.0252
991.00,0.0252
990.00,0.0252
989.00,0.0251
988.00,0.0251
987.00,0.0251
986.00,0.0251
985.00,0.0251
984.00,0.0252
983.00,0.0252
982.00,0.0252
981.00,0.0252
980.00,0.0252
979.00,0.0252
978.00,0.0251
977.00,0.0251
976.00,0.0251
975.00,0.0250
974.00,0.0250
973.00,0.0250
972.00,0.0250
971.00,0.0250
970.00,0.0249
969.00,0.0249
968.00,0.0249
967.00,0.0249
966.00,0.0249
965.00,0.0249
964.00,0.0249
963.00,0.0248
962.00,0.0248
961.00,0.0248
960.00,0.0249
959.00,0.0249
958.00,0.0249
957.00,0.0249
956.00,0.0249
955.00,0.0249
954.00,0.0249
953.00,0.0249
952.00,0.0248
951.00,0.0248
950.00,0.0247
949.00,0.0247
948.00,0.0248
947.00,0.0249
946.00,0.0249
945.00,0.0249
944.00,0.0250
943.00,0.0250
942.00,0.0250
941.00,0.0251
940.00,0.0251
939.00,0.0251
938.00,0.0251
937.00,0.0251
936.00,0.0251
935.00,0.0252
934.00,0.0252
933.00,0.0252
932.00,0.0252
931.00,0.0251
930.00,0.0251
929.00,0.0250
928.00,0.0250
927.00,0.0251
926.00,0.0252
925.00,0.0253
924.00,0.0253
923.00,0.0253
922.00,0.0252
921.00,0.0253
920.00,0.0254
919.00,0.0256
918.00,0.0257
917.00,0.0258
916.00,0.0259
915.00,0.0258
914.00,0.0257
913.00,0.0256
912.00,0.0256
911.00,0.0256
910.00,0.0257
909.00,0.0257
908.00,0.0258
907.00,0.0258
906.00,0.0259
905.00,0.0259
904.00,0.0259
903.00,0.0259
902.00,0.0259
901.00,0.0259
900.00,0.0260
899.00,0.0262
898.00,0.0263
897.00,0.0263
896.00,0.0263
895.00,0.0262
894.00,0.0262
893.00,0.0262
892.00,0.0263
891.00,0.0263
890.00,0.0263
889.00,0.0262
888.00,0.0262
887.00,0.0262
886.00,0.0262
885.00,0.0263
884.00,0.0264
883.00,0.0264
882.00,0.0264
881.00,0.0264
880.00,0.0264
879.00,0.0265
878.00,0.0265
877.00,0.0265
876.00,0.0264
875.00,0.0264
874.00,0.0263
873.00,0.0263
872.00,0.0263
871.00,0.0263
870.00,0.0264
869.00,0.0265
868.00,0.0266
867.00,0.0267
866.00,0.0266
865.00,0.0266
864.00,0.0267
863.00,0.0268
862.00,0.0268
861.00,0.0268
860.00,0.0268
859.00,0.0268
858.00,0.0269
857.00,0.0269
856.00,0.0270
855.00,0.0270
854.00,0.0269
853.00,0.0269
852.00,0.0268
851.00,0.0268
850.00,0.0268
849.00,0.0269
848.00,0.0268
847.00,0.0268
846.00,0.0268
845.00,0.0270
844.00,0.0272
843.00,0.0274
842.00,0.0274
841.00,0.0274
840.00,0.0274
839.00,0.0275
838.00,0.0275
837.00,0.0275
836.00,0.0275
835.00,0.0274
834.00,0.0274
833.00,0.0274
832.00,0.0275
831.00,0.0277
830.00,0.0279
829.00,0.0281
828.00,0.0282
827.00,0.0282
826.00,0.0283
825.00,0.0283
824.00,0.0284
823.00,0.0285
822.00,0.0286
821.00,0.0286
820.00,0.0286
819.00,0.0286
818.00,0.0286
817.00,0.0287
816.00,0.0287
815.00,0.0287
814.00,0.0287
813.00,0.0287
812.00,0.0287
811.00,0.0287
810.00,0.0287
809.00,0.0288
808.00,0.0288
807.00,0.0289
806.00,0.0290
805.00,0.0290
804.00,0.0291
803.00,0.0291
802.00,0.0290
801.00,0.0290
800.00,0.0290
799.00,0.0290
798.00,0.0290
797.00,0.0291
796.00,0.0292
795.00,0.0292
794.00,0.0293
793.00,0.0294
792.00,0.0295
791.00,0.0296
790.00,0.0296
789.00,0.0296
788.00,0.0297
787.00,0.0297
786.00,0.0296
785.00,0.0296
784.00,0.0296
783.00,0.0297
782.00,0.0298
781.00,0.0300
780.00,0.0302
779.00,0.0303
778.00,0.0303
777.00,0.0303
776.00,0.0303
775.00,0.0303
774.00,0.0304
773.00,0.0305
772.00,0.0305
771.00,0.0304
770.00,0.0303
769.00,0.0303
768.00,0.0305
767.00,0.0307
766.00,0.0309
765.00,0.0310
764.00,0.0311
763.00,0.0310
762.00,0.0310
761.00,0.0310
760.00,0.0311
759.00,0.0312
758.00,0.0312
757.00,0.0313
756.00,0.0313
755.00,0.0312
754.00,0.0311
753.00,0.0310
752.00,0.0310
751.00,0.0310
750.00,0.0310
749.00,0.0312
748.00,0.0313
747.00,0.0314
746.00,0.0314
745.00,0.0314
744.00,0.0315
743.00,0.0316
742.00,0.0317
741.00,0.0317
740.00,0.0316
739.00,0.0315
738.00,0.0315
737.00,0.0316
736.00,0.0316
735.00,0.0316
734.00,0.0315
733.00,0.0316
732.00,0.0318
731.00,0.0320
730.00,0.0322
729.00,0.0322
728.00,0.0322
727.00,0.0321
726.00,0.0320
725.00,0.0319
724.00,0.0319
723.00,0.0319
722.00,0.0320
721.00,0.0322
720.00,0.0324
719.00,0.0325
718.00,0.0324
717.00,0.0324
716.00,0.0324
715.00,0.0324
714.00,0.0325
713.00,0.0326
712.00,0.0327
711.00,0.0328
710.00,0.0328
709.00,0.0327
708.00,0.0328
707.00,0.0328
706.00,0.0329
705.00,0.0329
704.00,0.0330
703.00,0.0330
702.00,0.0331
701.00,0.0331
700.00,0.0331
699.00,0.0331
698.00,0.0330
697.00,0.0330
696.00,0.0331
695.00,0.0333
694.00,0.0335
693.00,0.0337
692.00,0.0337
691.00,0.0336
690.00,0.0336
689.00,0.0336
688.00,0.0336
687.00,0.0338
686.00,0.0341
685.00,0.0345
684.00,0.0347
683.00,0.0347
682.00,0.0347
681.00,0.0348
680.00,0.0349
679.00,0.0350
678.00,0.0349
677.00,0.0347
676.00,0.0347
675.00,0.0348
674.00,0.0350
673.00,0.0351
672.00,0.0351
671.00,0.0353
670.00,0.0357
669.00,0.0364
668.00,0.0371
667.00,0.0371
666.00,0.0365
665.00,0.0358
664.00,0.0354
663.00,0.0352
662.00,0.0352
661.00,0.0354
660.00,0.0358
659.00,0.0360
658.00,0.0360
657.00,0.0358
656.00,0.0356
655.00,0.0355
654.00,0.0355
653.00,0.0358
652.00,0.0362
651.00,0.0363
650.00,0.0361
