Created as New Dataset,Monday, April 03 2023
cm-1,A
4000.00,0.0021
3999.00,0.0022
3998.00,0.0022
3997.00,0.0022
3996.00,0.0022
3995.00,0.0021
3994.00,0.0021
3993.00,0.0021
3992.00,0.0021
3991.00,0.0021
3990.00,0.0021
3989.00,0.0021
3988.00,0.0021
3987.00,0.0021
3986.00,0.0021
3985.00,0.0021
3984.00,0.0021
3983.00,0.0021
3982.00,0.0021
3981.00,0.0021
3980.00,0.0021
3979.00,0.0021
3978.00,0.0021
3977.00,0.0021
3976.00,0.0020
3975.00,0.0020
3974.00,0.0020
3973.00,0.0020
3972.00,0.0021
3971.00,0.0021
3970.00,0.0021
3969.00,0.0021
3968.00,0.0021
3967.00,0.0020
3966.00,0.0020
3965.00,0.0019
3964.00,0.0020
3963.00,0.0021
3962.00,0.0021
3961.00,0.0021
3960.00,0.0020
3959.00,0.0020
3958.00,0.0020
3957.00,0.0020
3956.00,0.0020
3955.00,0.0020
3954.00,0.0020
3953.00,0.0020
3952.00,0.0021
3951.00,0.0022
3950.00,0.0022
3949.00,0.0022
3948.00,0.0023
3947.00,0.0023
3946.00,0.0023
3945.00,0.0022
3944.00,0.0021
3943.00,0.0020
3942.00,0.0019
3941.00,0.0018
3940.00,0.0019
3939.00,0.0019
3938.00,0.0019
3937.00,0.0020
3936.00,0.0020
3935.00,0.0020
3934.00,0.0020
3933.00,0.0020
3932.00,0.0020
3931.00,0.0019
3930.00,0.0019
3929.00,0.0020
3928.00,0.0020
3927.00,0.0021
3926.00,0.0021
3925.00,0.0021
3924.00,0.0021
3923.00,0.0021
3922.00,0.0021
3921.00,0.0021
3920.00,0.0021
3919.00,0.0021
3918.00,0.0021
3917.00,0.0021
3916.00,0.0020
3915.00,0.0020
3914.00,0.0020
3913.00,0.0020
3912.00,0.0020
3911.00,0.0020
3910.00,0.0020
3909.00,0.0020
3908.00,0.0020
3907.00,0.0020
3906.00,0.0020
3905.00,0.0020
3904.00,0.0020
3903.00,0.0021
3902.00,0.0021
3901.00,0.0021
3900.00,0.0021
3899.00,0.0020
3898.00,0.0020
3897.00,0.0020
3896.00,0.0021
3895.00,0.0021
3894.00,0.0020
3893.00,0.0020
3892.00,0.0019
3891.00,0.0018
3890.00,0.0018
3889.00,0.0018
3888.00,0.0018
3887.00,0.0018
3886.00,0.0018
3885.00,0.0019
3884.00,0.0019
3883.00,0.0019
3882.00,0.0018
3881.00,0.0017
3880.00,0.0016
3879.00,0.0016
3878.00,0.0018
3877.00,0.0020
3876.00,0.0021
3875.00,0.0021
3874.00,0.0020
3873.00,0.0019
3872.00,0.0019
3871.00,0.0019
3870.00,0.0019
3869.00,0.0019
3868.00,0.0020
3867.00,0.0021
3866.00,0.0021
3865.00,0.0022
3864.00,0.0022
3863.00,0.0021
3862.00,0.0021
3861.00,0.0021
3860.00,0.0021
3859.00,0.0021
3858.00,0.0019
3857.00,0.0017
3856.00,0.0015
3855.00,0.0015
3854.00,0.0016
3853.00,0.0018
3852.00,0.0019
3851.00,0.0019
3850.00,0.0019
3849.00,0.0018
3848.00,0.0018
3847.00,0.0018
3846.00,0.0019
3845.00,0.0019
3844.00,0.0020
3843.00,0.0020
3842.00,0.0020
3841.00,0.0021
3840.00,0.0021
3839.00,0.0021
3838.00,0.0020
3837.00,0.0019
3836.00,0.0019
3835.00,0.0019
3834.00,0.0019
3833.00,0.0019
3832.00,0.0019
3831.00,0.0019
3830.00,0.0020
3829.00,0.0020
3828.00,0.0019
3827.00,0.0019
3826.00,0.0018
3825.00,0.0018
3824.00,0.0019
3823.00,0.0021
3822.00,0.0021
3821.00,0.0021
3820.00,0.0020
3819.00,0.0019
3818.00,0.0019
3817.00,0.0019
3816.00,0.0019
3815.00,0.0019
3814.00,0.0019
3813.00,0.0019
3812.00,0.0019
3811.00,0.0018
3810.00,0.0017
3809.00,0.0017
3808.00,0.0017
3807.00,0.0019
3806.00,0.0020
3805.00,0.0021
3804.00,0.0022
3803.00,0.0022
3802.00,0.0022
3801.00,0.0022
3800.00,0.0021
3799.00,0.0020
3798.00,0.0019
3797.00,0.0017
3796.00,0.0016
3795.00,0.0016
3794.00,0.0017
3793.00,0.0017
3792.00,0.0018
3791.00,0.0018
3790.00,0.0018
3789.00,0.0018
3788.00,0.0019
3787.00,0.0020
3786.00,0.0020
3785.00,0.0020
3784.00,0.0020
3783.00,0.0019
3782.00,0.0019
3781.00,0.0018
3780.00,0.0018
3779.00,0.0017
3778.00,0.0017
3777.00,0.0017
3776.00,0.0017
3775.00,0.0018
3774.00,0.0018
3773.00,0.0018
3772.00,0.0018
3771.00,0.0018
3770.00,0.0018
3769.00,0.0017
3768.00,0.0017
3767.00,0.0017
3766.00,0.0017
3765.00,0.0018
3764.00,0.0018
3763.00,0.0019
3762.00,0.0019
3761.00,0.0020
3760.00,0.0020
3759.00,0.0019
3758.00,0.0018
3757.00,0.0018
3756.00,0.0018
3755.00,0.0017
3754.00,0.0017
3753.00,0.0018
3752.00,0.0019
3751.00,0.0020
3750.00,0.0020
3749.00,0.0020
3748.00,0.0020
3747.00,0.0019
3746.00,0.0018
3745.00,0.0017
3744.00,0.0017
3743.00,0.0018
3742.00,0.0019
3741.00,0.0020
3740.00,0.0022
3739.00,0.0022
3738.00,0.0023
3737.00,0.0023
3736.00,0.0022
3735.00,0.0020
3734.00,0.0018
3733.00,0.0017
3732.00,0.0017
3731.00,0.0018
3730.00,0.0019
3729.00,0.0020
3728.00,0.0020
3727.00,0.0021
3726.00,0.0021
3725.00,0.0020
3724.00,0.0020
3723.00,0.0019
3722.00,0.0019
3721.00,0.0018
3720.00,0.0018
3719.00,0.0018
3718.00,0.0018
3717.00,0.0017
3716.00,0.0016
3715.00,0.0017
3714.00,0.0018
3713.00,0.0020
3712.00,0.0021
3711.00,0.0020
3710.00,0.0018
3709.00,0.0017
3708.00,0.0018
3707.00,0.0019
3706.00,0.0021
3705.00,0.0022
3704.00,0.0022
3703.00,0.0021
3702.00,0.0020
3701.00,0.0020
3700.00,0.0020
3699.00,0.0021
3698.00,0.0021
3697.00,0.0021
3696.00,0.0021
3695.00,0.0020
3694.00,0.0020
3693.00,0.0020
3692.00,0.0021
3691.00,0.0022
3690.00,0.0022
3689.00,0.0022
3688.00,0.0021
3687.00,0.0021
3686.00,0.0020
3685.00,0.0020
3684.00,0.0020
3683.00,0.0019
3682.00,0.0019
3681.00,0.0018
3680.00,0.0017
3679.00,0.0016
3678.00,0.0015
3677.00,0.0014
3676.00,0.0014
3675.00,0.0013
3674.00,0.0013
3673.00,0.0014
3672.00,0.0015
3671.00,0.0016
3670.00,0.0017
3669.00,0.0016
3668.00,0.0016
3667.00,0.0016
3666.00,0.0016
3665.00,0.0017
3664.00,0.0017
3663.00,0.0017
3662.00,0.0017
3661.00,0.0018
3660.00,0.0019
3659.00,0.0019
3658.00,0.0020
3657.00,0.0021
3656.00,0.0022
3655.00,0.0022
3654.00,0.0023
3653.00,0.0023
3652.00,0.0024
3651.00,0.0025
3650.00,0.0025
3649.00,0.0024
3648.00,0.0022
3647.00,0.0021
3646.00,0.0021
3645.00,0.0023
3644.00,0.0024
3643.00,0.0025
3642.00,0.0025
3641.00,0.0025
3640.00,0.0025
3639.00,0.0025
3638.00,0.0025
3637.00,0.0026
3636.00,0.0027
3635.00,0.0027
3634.00,0.0028
3633.00,0.0028
3632.00,0.0028
3631.00,0.0028
3630.00,0.0029
3629.00,0.0031
3628.00,0.0032
3627.00,0.0032
3626.00,0.0033
3625.00,0.0033
3624.00,0.0033
3623.00,0.0033
3622.00,0.0034
3621.00,0.0035
3620.00,0.0036
3619.00,0.0037
3618.00,0.0038
3617.00,0.0038
3616.00,0.0038
3615.00,0.0037
3614.00,0.0037
3613.00,0.0036
3612.00,0.0036
3611.00,0.0037
3610.00,0.0038
3609.00,0.0040
3608.00,0.0040
3607.00,0.0040
3606.00,0.0039
3605.00,0.0039
3604.00,0.0039
3603.00,0.0040
3602.00,0.0042
3601.00,0.0043
3600.00,0.0044
3599.00,0.0043
3598.00,0.0042
3597.00,0.0042
3596.00,0.0041
3595.00,0.0041
3594.00,0.0041
3593.00,0.0041
3592.00,0.0041
3591.00,0.0041
3590.00,0.0042
3589.00,0.0043
3588.00,0.0044
3587.00,0.0044
3586.00,0.0044
3585.00,0.0045
3584.00,0.0045
3583.00,0.0046
3582.00,0.0045
3581.00,0.0045
3580.00,0.0045
3579.00,0.0046
3578.00,0.0046
3577.00,0.0047
3576.00,0.0047
3575.00,0.0047
3574.00,0.0048
3573.00,0.0048
3572.00,0.0048
3571.00,0.0048
3570.00,0.0048
3569.00,0.0049
3568.00,0.0050
3567.00,0.0051
3566.00,0.0051
3565.00,0.0050
3564.00,0.0050
3563.00,0.0050
3562.00,0.0050
3561.00,0.0050
3560.00,0.0051
3559.00,0.0051
3558.00,0.0052
3557.00,0.0053
3556.00,0.0054
3555.00,0.0055
3554.00,0.0055
3553.00,0.0055
3552.00,0.0055
3551.00,0.0056
3550.00,0.0056
3549.00,0.0057
3548.00,0.0057
3547.00,0.0058
3546.00,0.0058
3545.00,0.0059
3544.00,0.0059
3543.00,0.0059
3542.00,0.0059
3541.00,0.0058
3540.00,0.0058
3539.00,0.0057
3538.00,0.0056
3537.00,0.0056
3536.00,0.0056
3535.00,0.0057
3534.00,0.0058
3533.00,0.0059
3532.00,0.0060
3531.00,0.0061
3530.00,0.0061
3529.00,0.0061
3528.00,0.0060
3527.00,0.0060
3526.00,0.0061
3525.00,0.0062
3524.00,0.0064
3523.00,0.0064
3522.00,0.0064
3521.00,0.0063
3520.00,0.0062
3519.00,0.0061
3518.00,0.0060
3517.00,0.0059
3516.00,0.0060
3515.00,0.0060
3514.00,0.0061
3513.00,0.0063
3512.00,0.0064
3511.00,0.0064
3510.00,0.0065
3509.00,0.0064
3508.00,0.0064
3507.00,0.0065
3506.00,0.0065
3505.00,0.0066
3504.00,0.0067
3503.00,0.0068
3502.00,0.0068
3501.00,0.0068
3500.00,0.0067
3499.00,0.0068
3498.00,0.0069
3497.00,0.0070
3496.00,0.0070
3495.00,0.0070
3494.00,0.0069
3493.00,0.0068
3492.00,0.0068
3491.00,0.0068
3490.00,0.0068
3489.00,0.0068
3488.00,0.0068
3487.00,0.0068
3486.00,0.0069
3485.00,0.0069
3484.00,0.0070
3483.00,0.0071
3482.00,0.0071
3481.00,0.0071
3480.00,0.0071
3479.00,0.0071
3478.00,0.0071
3477.00,0.0072
3476.00,0.0073
3475.00,0.0073
3474.00,0.0073
3473.00,0.0073
3472.00,0.0074
3471.00,0.0074
3470.00,0.0075
3469.00,0.0076
3468.00,0.0076
3467.00,0.0076
3466.00,0.0076
3465.00,0.0077
3464.00,0.0077
3463.00,0.0076
3462.00,0.0075
3461.00,0.0075
3460.00,0.0075
3459.00,0.0076
3458.00,0.0077
3457.00,0.0077
3456.00,0.0077
3455.00,0.0076
3454.00,0.0076
3453.00,0.0077
3452.00,0.0078
3451.00,0.0079
3450.00,0.0079
3449.00,0.0080
3448.00,0.0079
3447.00,0.0080
3446.00,0.0080
3445.00,0.0081
3444.00,0.0081
3443.00,0.0081
3442.00,0.0080
3441.00,0.0079
3440.00,0.0078
3439.00,0.0077
3438.00,0.0078
3437.00,0.0078
3436.00,0.0079
3435.00,0.0079
3434.00,0.0079
3433.00,0.0079
3432.00,0.0080
3431.00,0.0081
3430.00,0.0081
3429.00,0.0081
3428.00,0.0080
3427.00,0.0080
3426.00,0.0081
3425.00,0.0082
3424.00,0.0083
3423.00,0.0084
3422.00,0.0084
3421.00,0.0085
3420.00,0.0085
3419.00,0.0085
3418.00,0.0085
3417.00,0.0084
3416.00,0.0083
3415.00,0.0083
3414.00,0.0082
3413.00,0.0083
3412.00,0.0083
3411.00,0.0084
3410.00,0.0084
3409.00,0.0084
3408.00,0.0085
3407.00,0.0085
3406.00,0.0085
3405.00,0.0085
3404.00,0.0084
3403.00,0.0084
3402.00,0.0084
3401.00,0.0084
3400.00,0.0085
3399.00,0.0085
3398.00,0.0085
3397.00,0.0084
3396.00,0.0084
3395.00,0.0084
3394.00,0.0084
3393.00,0.0085
3392.00,0.0086
3391.00,0.0087
3390.00,0.0087
3389.00,0.0087
3388.00,0.0087
3387.00,0.0087
3386.00,0.0086
3385.00,0.0086
3384.00,0.0087
3383.00,0.0088
3382.00,0.0088
3381.00,0.0088
3380.00,0.0088
3379.00,0.0088
3378.00,0.0088
3377.00,0.0088
3376.00,0.0088
3375.00,0.0089
3374.00,0.0089
3373.00,0.0088
3372.00,0.0088
3371.00,0.0088
3370.00,0.0088
3369.00,0.0089
3368.00,0.0089
3367.00,0.0089
3366.00,0.0088
3365.00,0.0088
3364.00,0.0087
3363.00,0.0088
3362.00,0.0089
3361.00,0.0090
3360.00,0.0091
3359.00,0.0092
3358.00,0.0092
3357.00,0.0091
3356.00,0.0091
3355.00,0.0091
3354.00,0.0091
3353.00,0.0091
3352.00,0.0091
3351.00,0.0091
3350.00,0.0091
3349.00,0.0092
3348.00,0.0092
3347.00,0.0092
3346.00,0.0092
3345.00,0.0091
3344.00,0.0091
3343.00,0.0091
3342.00,0.0092
3341.00,0.0092
3340.00,0.0093
3339.00,0.0094
3338.00,0.0093
3337.00,0.0093
3336.00,0.0092
3335.00,0.0092
3334.00,0.0093
3333.00,0.0093
3332.00,0.0093
3331.00,0.0092
3330.00,0.0092
3329.00,0.0092
3328.00,0.0092
3327.00,0.0093
3326.00,0.0094
3325.00,0.0095
3324.00,0.0095
3323.00,0.0095
3322.00,0.0095
3321.00,0.0095
3320.00,0.0094
3319.00,0.0094
3318.00,0.0095
3317.00,0.0095
3316.00,0.0095
3315.00,0.0095
3314.00,0.0096
3313.00,0.0096
3312.00,0.0096
3311.00,0.0096
3310.00,0.0097
3309.00,0.0097
3308.00,0.0098
3307.00,0.0098
3306.00,0.0097
3305.00,0.0097
3304.00,0.0097
3303.00,0.0097
3302.00,0.0097
3301.00,0.0098
3300.00,0.0098
3299.00,0.0098
3298.00,0.0098
3297.00,0.0099
3296.00,0.0099
3295.00,0.0100
3294.00,0.0100
3293.00,0.0100
3292.00,0.0100
3291.00,0.0099
3290.00,0.0099
3289.00,0.0100
3288.00,0.0100
3287.00,0.0100
3286.00,0.0100
3285.00,0.0100
3284.00,0.0101
3283.00,0.0101
3282.00,0.0102
3281.00,0.0101
3280.00,0.0101
3279.00,0.0101
3278.00,0.0101
3277.00,0.0102
3276.00,0.0102
3275.00,0.0102
3274.00,0.0102
3273.00,0.0103
3272.00,0.0103
3271.00,0.0103
3270.00,0.0103
3269.00,0.0104
3268.00,0.0104
3267.00,0.0104
3266.00,0.0104
3265.00,0.0103
3264.00,0.0102
3263.00,0.0102
3262.00,0.0102
3261.00,0.0102
3260.00,0.0102
3259.00,0.0103
3258.00,0.0103
3257.00,0.0102
3256.00,0.0102
3255.00,0.0101
3254.00,0.0101
3253.00,0.0101
3252.00,0.0102
3251.00,0.0102
3250.00,0.0102
3249.00,0.0101
3248.00,0.0101
3247.00,0.0101
3246.00,0.0101
3245.00,0.0101
3244.00,0.0101
3243.00,0.0100
3242.00,0.0100
3241.00,0.0100
3240.00,0.0100
3239.00,0.0100
3238.00,0.0100
3237.00,0.0100
3236.00,0.0101
3235.00,0.0101
3234.00,0.0101
3233.00,0.0101
3232.00,0.0101
3231.00,0.0100
3230.00,0.0099
3229.00,0.0098
3228.00,0.0098
3227.00,0.0098
3226.00,0.0098
3225.00,0.0098
3224.00,0.0097
3223.00,0.0098
3222.00,0.0098
3221.00,0.0098
3220.00,0.0097
3219.00,0.0096
3218.00,0.0096
3217.00,0.0096
3216.00,0.0097
3215.00,0.0097
3214.00,0.0097
3213.00,0.0097
3212.00,0.0096
3211.00,0.0095
3210.00,0.0095
3209.00,0.0095
3208.00,0.0095
3207.00,0.0095
3206.00,0.0095
3205.00,0.0095
3204.00,0.0096
3203.00,0.0096
3202.00,0.0096
3201.00,0.0096
3200.00,0.0096
3199.00,0.0096
3198.00,0.0095
3197.00,0.0094
3196.00,0.0093
3195.00,0.0093
3194.00,0.0093
3193.00,0.0092
3192.00,0.0092
3191.00,0.0092
3190.00,0.0091
3189.00,0.0091
3188.00,0.0090
3187.00,0.0089
3186.00,0.0089
3185.00,0.0089
3184.00,0.0089
3183.00,0.0090
3182.00,0.0090
3181.00,0.0090
3180.00,0.0090
3179.00,0.0089
3178.00,0.0088
3177.00,0.0087
3176.00,0.0087
3175.00,0.0087
3174.00,0.0087
3173.00,0.0087
3172.00,0.0087
3171.00,0.0087
3170.00,0.0086
3169.00,0.0086
3168.00,0.0086
3167.00,0.0086
3166.00,0.0086
3165.00,0.0087
3164.00,0.0087
3163.00,0.0087
3162.00,0.0086
3161.00,0.0085
3160.00,0.0084
3159.00,0.0083
3158.00,0.0082
3157.00,0.0082
3156.00,0.0082
3155.00,0.0083
3154.00,0.0083
3153.00,0.0084
3152.00,0.0084
3151.00,0.0083
3150.00,0.0083
3149.00,0.0082
3148.00,0.0082
3147.00,0.0082
3146.00,0.0082
3145.00,0.0082
3144.00,0.0082
3143.00,0.0082
3142.00,0.0082
3141.00,0.0082
3140.00,0.0081
3139.00,0.0081
3138.00,0.0081
3137.00,0.0082
3136.00,0.0082
3135.00,0.0082
3134.00,0.0081
3133.00,0.0081
3132.00,0.0081
3131.00,0.0081
3130.00,0.0081
3129.00,0.0081
3128.00,0.0081
3127.00,0.0081
3126.00,0.0081
3125.00,0.0081
3124.00,0.0081
3123.00,0.0080
3122.00,0.0080
3121.00,0.0080
3120.00,0.0080
3119.00,0.0081
3118.00,0.0081
3117.00,0.0081
3116.00,0.0081
3115.00,0.0081
3114.00,0.0080
3113.00,0.0080
3112.00,0.0080
3111.00,0.0080
3110.00,0.0080
3109.00,0.0080
3108.00,0.0080
3107.00,0.0080
3106.00,0.0081
3105.00,0.0081
3104.00,0.0081
3103.00,0.0081
3102.00,0.0080
3101.00,0.0080
3100.00,0.0079
3099.00,0.0079
3098.00,0.0079
3097.00,0.0079
3096.00,0.0080
3095.00,0.0081
3094.00,0.0081
3093.00,0.0081
3092.00,0.0081
3091.00,0.0081
3090.00,0.0080
3089.00,0.0079
3088.00,0.0078
3087.00,0.0078
3086.00,0.0078
3085.00,0.0079
3084.00,0.0079
3083.00,0.0079
3082.00,0.0080
3081.00,0.0080
3080.00,0.0080
3079.00,0.0079
3078.00,0.0079
3077.00,0.0078
3076.00,0.0078
3075.00,0.0078
3074.00,0.0079
3073.00,0.0079
3072.00,0.0079
3071.00,0.0079
3070.00,0.0079
3069.00,0.0079
3068.00,0.0079
3067.00,0.0079
3066.00,0.0078
3065.00,0.0077
3064.00,0.0076
3063.00,0.0076
3062.00,0.0076
3061.00,0.0076
3060.00,0.0076
3059.00,0.0076
3058.00,0.0076
3057.00,0.0076
3056.00,0.0076
3055.00,0.0076
3054.00,0.0076
3053.00,0.0075
3052.00,0.0075
3051.00,0.0075
3050.00,0.0076
3049.00,0.0076
3048.00,0.0076
3047.00,0.0076
3046.00,0.0075
3045.00,0.0075
3044.00,0.0074
3043.00,0.0073
3042.00,0.0072
3041.00,0.0072
3040.00,0.0071
3039.00,0.0072
3038.00,0.0072
3037.00,0.0072
3036.00,0.0072
3035.00,0.0073
3034.00,0.0073
3033.00,0.0073
3032.00,0.0072
3031.00,0.0072
3030.00,0.0071
3029.00,0.0070
3028.00,0.0069
3027.00,0.0069
3026.00,0.0069
3025.00,0.0069
3024.00,0.0069
3023.00,0.0069
3022.00,0.0068
3021.00,0.0068
3020.00,0.0068
3019.00,0.0067
3018.00,0.0066
3017.00,0.0066
3016.00,0.0065
3015.00,0.0065
3014.00,0.0064
3013.00,0.0063
3012.00,0.0062
3011.00,0.0061
3010.00,0.0060
3009.00,0.0059
3008.00,0.0057
3007.00,0.0055
3006.00,0.0054
3005.00,0.0052
3004.00,0.0051
3003.00,0.0050
3002.00,0.0048
3001.00,0.0046
3000.00,0.0045
2999.00,0.0043
2998.00,0.0042
2997.00,0.0040
2996.00,0.0040
2995.00,0.0040
2994.00,0.0039
2993.00,0.0039
2992.00,0.0038
2991.00,0.0037
2990.00,0.0036
2989.00,0.0035
2988.00,0.0034
2987.00,0.0033
2986.00,0.0030
2985.00,0.0026
2984.00,0.0021
2983.00,0.0018
2982.00,0.0016
2981.00,0.0016
2980.00,0.0018
2979.00,0.0020
2978.00,0.0023
2977.00,0.0025
2976.00,0.0027
2975.00,0.0028
2974.00,0.0028
2973.00,0.0027
2972.00,0.0026
2971.00,0.0026
2970.00,0.0028
2969.00,0.0030
2968.00,0.0033
2967.00,0.0034
2966.00,0.0035
2965.00,0.0036
2964.00,0.0037
2963.00,0.0038
2962.00,0.0039
2961.00,0.0040
2960.00,0.0041
2959.00,0.0041
2958.00,0.0041
2957.00,0.0041
2956.00,0.0042
2955.00,0.0044
2954.00,0.0045
2953.00,0.0046
2952.00,0.0047
2951.00,0.0048
2950.00,0.0048
2949.00,0.0049
2948.00,0.0049
2947.00,0.0050
2946.00,0.0050
2945.00,0.0051
2944.00,0.0052
2943.00,0.0053
2942.00,0.0054
2941.00,0.0054
2940.00,0.0054
2939.00,0.0054
2938.00,0.0054
2937.00,0.0054
2936.00,0.0054
2935.00,0.0054
2934.00,0.0054
2933.00,0.0053
2932.00,0.0053
2931.00,0.0053
2930.00,0.0053
2929.00,0.0053
2928.00,0.0053
2927.00,0.0053
2926.00,0.0052
2925.00,0.0052
2924.00,0.0051
2923.00,0.0051
2922.00,0.0051
2921.00,0.0050
2920.00,0.0050
2919.00,0.0049
2918.00,0.0048
2917.00,0.0047
2916.00,0.0047
2915.00,0.0048
2914.00,0.0048
2913.00,0.0049
2912.00,0.0050
2911.00,0.0050
2910.00,0.0050
2909.00,0.0050
2908.00,0.0050
2907.00,0.0050
2906.00,0.0050
2905.00,0.0050
2904.00,0.0050
2903.00,0.0049
2902.00,0.0049
2901.00,0.0049
2900.00,0.0049
2899.00,0.0049
2898.00,0.0048
2897.00,0.0048
2896.00,0.0048
2895.00,0.0049
2894.00,0.0049
2893.00,0.0048
2892.00,0.0048
2891.00,0.0048
2890.00,0.0048
2889.00,0.0048
2888.00,0.0048
2887.00,0.0049
2886.00,0.0049
2885.00,0.0049
2884.00,0.0048
2883.00,0.0049
2882.00,0.0049
2881.00,0.0050
2880.00,0.0051
2879.00,0.0051
2878.00,0.0052
2877.00,0.0053
2876.00,0.0053
2875.00,0.0052
2874.00,0.0052
2873.00,0.0052
2872.00,0.0052
2871.00,0.0051
2870.00,0.0052
2869.00,0.0052
2868.00,0.0051
2867.00,0.0051
2866.00,0.0051
2865.00,0.0052
2864.00,0.0052
2863.00,0.0052
2862.00,0.0052
2861.00,0.0052
2860.00,0.0053
2859.00,0.0054
2858.00,0.0054
2857.00,0.0054
2856.00,0.0054
2855.00,0.0053
2854.00,0.0053
2853.00,0.0052
2852.00,0.0053
2851.00,0.0053
2850.00,0.0054
2849.00,0.0054
2848.00,0.0053
2847.00,0.0053
2846.00,0.0054
2845.00,0.0054
2844.00,0.0054
2843.00,0.0054
2842.00,0.0054
2841.00,0.0053
2840.00,0.0053
2839.00,0.0052
2838.00,0.0052
2837.00,0.0053
2836.00,0.0053
2835.00,0.0054
2834.00,0.0054
2833.00,0.0054
2832.00,0.0053
2831.00,0.0053
2830.00,0.0052
2829.00,0.0052
2828.00,0.0053
2827.00,0.0053
2826.00,0.0053
2825.00,0.0053
2824.00,0.0053
2823.00,0.0053
2822.00,0.0052
2821.00,0.0052
2820.00,0.0051
2819.00,0.0051
2818.00,0.0051
2817.00,0.0051
2816.00,0.0050
2815.00,0.0050
2814.00,0.0050
2813.00,0.0050
2812.00,0.0050
2811.00,0.0050
2810.00,0.0050
2809.00,0.0050
2808.00,0.0050
2807.00,0.0050
2806.00,0.0050
2805.00,0.0051
2804.00,0.0051
2803.00,0.0050
2802.00,0.0050
2801.00,0.0050
2800.00,0.0050
2799.00,0.0050
2798.00,0.0050
2797.00,0.0050
2796.00,0.0049
2795.00,0.0049
2794.00,0.0049
2793.00,0.0049
2792.00,0.0049
2791.00,0.0049
2790.00,0.0050
2789.00,0.0050
2788.00,0.0049
2787.00,0.0049
2786.00,0.0049
2785.00,0.0048
2784.00,0.0048
2783.00,0.0048
2782.00,0.0047
2781.00,0.0046
2780.00,0.0046
2779.00,0.0046
2778.00,0.0047
2777.00,0.0047
2776.00,0.0047
2775.00,0.0047
2774.00,0.0047
2773.00,0.0048
2772.00,0.0047
2771.00,0.0047
2770.00,0.0046
2769.00,0.0045
2768.00,0.0045
2767.00,0.0045
2766.00,0.0045
2765.00,0.0045
2764.00,0.0046
2763.00,0.0046
2762.00,0.0046
2761.00,0.0046
2760.00,0.0046
2759.00,0.0046
2758.00,0.0046
2757.00,0.0045
2756.00,0.0045
2755.00,0.0045
2754.00,0.0045
2753.00,0.0045
2752.00,0.0045
2751.00,0.0045
2750.00,0.0045
2749.00,0.0046
2748.00,0.0045
2747.00,0.0045
2746.00,0.0046
2745.00,0.0046
2744.00,0.0046
2743.00,0.0045
2742.00,0.0045
2741.00,0.0045
2740.00,0.0045
2739.00,0.0044
2738.00,0.0044
2737.00,0.0043
2736.00,0.0043
2735.00,0.0043
2734.00,0.0044
2733.00,0.0044
2732.00,0.0045
2731.00,0.0044
2730.00,0.0044
2729.00,0.0043
2728.00,0.0043
2727.00,0.0043
2726.00,0.0043
2725.00,0.0043
2724.00,0.0043
2723.00,0.0043
2722.00,0.0043
2721.00,0.0042
2720.00,0.0042
2719.00,0.0042
2718.00,0.0043
2717.00,0.0043
2716.00,0.0043
2715.00,0.0043
2714.00,0.0043
2713.00,0.0043
2712.00,0.0043
2711.00,0.0043
2710.00,0.0043
2709.00,0.0042
2708.00,0.0042
2707.00,0.0042
2706.00,0.0042
2705.00,0.0042
2704.00,0.0042
2703.00,0.0041
2702.00,0.0041
2701.00,0.0041
2700.00,0.0041
2699.00,0.0042
2698.00,0.0042
2697.00,0.0042
2696.00,0.0041
2695.00,0.0041
2694.00,0.0041
2693.00,0.0042
2692.00,0.0042
2691.00,0.0042
2690.00,0.0041
2689.00,0.0041
2688.00,0.0041
2687.00,0.0041
2686.00,0.0041
2685.00,0.0041
2684.00,0.0041
2683.00,0.0041
2682.00,0.0041
2681.00,0.0041
2680.00,0.0041
2679.00,0.0040
2678.00,0.0040
2677.00,0.0039
2676.00,0.0039
2675.00,0.0039
2674.00,0.0039
2673.00,0.0039
2672.00,0.0039
2671.00,0.0039
2670.00,0.0039
2669.00,0.0039
2668.00,0.0039
2667.00,0.0039
2666.00,0.0039
2665.00,0.0039
2664.00,0.0040
2663.00,0.0040
2662.00,0.0040
2661.00,0.0040
2660.00,0.0040
2659.00,0.0040
2658.00,0.0040
2657.00,0.0040
2656.00,0.0040
2655.00,0.0040
2654.00,0.0040
2653.00,0.0040
2652.00,0.0040
2651.00,0.0040
2650.00,0.0041
2649.00,0.0040
2648.00,0.0040
2647.00,0.0039
2646.00,0.0039
2645.00,0.0039
2644.00,0.0039
2643.00,0.0039
2642.00,0.0040
2641.00,0.0040
2640.00,0.0040
2639.00,0.0041
2638.00,0.0041
2637.00,0.0040
2636.00,0.0039
2635.00,0.0039
2634.00,0.0040
2633.00,0.0040
2632.00,0.0040
2631.00,0.0040
2630.00,0.0039
2629.00,0.0039
2628.00,0.0038
2627.00,0.0037
2626.00,0.0038
2625.00,0.0039
2624.00,0.0039
2623.00,0.0040
2622.00,0.0040
2621.00,0.0040
2620.00,0.0041
2619.00,0.0041
2618.00,0.0040
2617.00,0.0040
2616.00,0.0040
2615.00,0.0039
2614.00,0.0038
2613.00,0.0039
2612.00,0.0039
2611.00,0.0040
2610.00,0.0040
2609.00,0.0039
2608.00,0.0039
2607.00,0.0039
2606.00,0.0039
2605.00,0.0040
2604.00,0.0041
2603.00,0.0041
2602.00,0.0040
2601.00,0.0040
2600.00,0.0039
2599.00,0.0039
2598.00,0.0039
2597.00,0.0038
2596.00,0.0037
2595.00,0.0037
2594.00,0.0037
2593.00,0.0038
2592.00,0.0038
2591.00,0.0038
2590.00,0.0038
2589.00,0.0038
2588.00,0.0038
2587.00,0.0038
2586.00,0.0038
2585.00,0.0038
2584.00,0.0037
2583.00,0.0037
2582.00,0.0037
2581.00,0.0038
2580.00,0.0039
2579.00,0.0039
2578.00,0.0039
2577.00,0.0038
2576.00,0.0037
2575.00,0.0036
2574.00,0.0036
2573.00,0.0037
2572.00,0.0038
2571.00,0.0038
2570.00,0.0037
2569.00,0.0036
2568.00,0.0037
2567.00,0.0038
2566.00,0.0039
2565.00,0.0040
2564.00,0.0039
2563.00,0.0039
2562.00,0.0039
2561.00,0.0039
2560.00,0.0039
2559.00,0.0039
2558.00,0.0039
2557.00,0.0039
2556.00,0.0039
2555.00,0.0039
2554.00,0.0039
2553.00,0.0039
2552.00,0.0038
2551.00,0.0036
2550.00,0.0035
2549.00,0.0034
2548.00,0.0033
2547.00,0.0033
2546.00,0.0034
2545.00,0.0035
2544.00,0.0036
2543.00,0.0035
2542.00,0.0034
2541.00,0.0033
2540.00,0.0032
2539.00,0.0032
2538.00,0.0032
2537.00,0.0031
2536.00,0.0032
2535.00,0.0032
2534.00,0.0033
2533.00,0.0034
2532.00,0.0035
2531.00,0.0035
2530.00,0.0035
2529.00,0.0034
2528.00,0.0034
2527.00,0.0033
2526.00,0.0033
2525.00,0.0032
2524.00,0.0032
2523.00,0.0032
2522.00,0.0032
2521.00,0.0032
2520.00,0.0033
2519.00,0.0034
2518.00,0.0035
2517.00,0.0036
2516.00,0.0036
2515.00,0.0036
2514.00,0.0034
2513.00,0.0033
2512.00,0.0032
2511.00,0.0032
2510.00,0.0033
2509.00,0.0034
2508.00,0.0035
2507.00,0.0035
2506.00,0.0035
2505.00,0.0035
2504.00,0.0034
2503.00,0.0034
2502.00,0.0034
2501.00,0.0034
2500.00,0.0035
2499.00,0.0035
2498.00,0.0035
2497.00,0.0035
2496.00,0.0035
2495.00,0.0035
2494.00,0.0035
2493.00,0.0036
2492.00,0.0036
2491.00,0.0036
2490.00,0.0036
2489.00,0.0035
2488.00,0.0035
2487.00,0.0035
2486.00,0.0034
2485.00,0.0034
2484.00,0.0033
2483.00,0.0032
2482.00,0.0033
2481.00,0.0034
2480.00,0.0034
2479.00,0.0034
2478.00,0.0034
2477.00,0.0034
2476.00,0.0033
2475.00,0.0033
2474.00,0.0034
2473.00,0.0034
2472.00,0.0034
2471.00,0.0034
2470.00,0.0034
2469.00,0.0033
2468.00,0.0033
2467.00,0.0032
2466.00,0.0032
2465.00,0.0032
2464.00,0.0031
2463.00,0.0031
2462.00,0.0032
2461.00,0.0032
2460.00,0.0033
2459.00,0.0033
2458.00,0.0033
2457.00,0.0033
2456.00,0.0033
2455.00,0.0033
2454.00,0.0033
2453.00,0.0034
2452.00,0.0035
2451.00,0.0035
2450.00,0.0034
2449.00,0.0034
2448.00,0.0033
2447.00,0.0033
2446.00,0.0032
2445.00,0.0032
2444.00,0.0031
2443.00,0.0031
2442.00,0.0031
2441.00,0.0031
2440.00,0.0032
2439.00,0.0032
2438.00,0.0032
2437.00,0.0032
2436.00,0.0031
2435.00,0.0031
2434.00,0.0031
2433.00,0.0031
2432.00,0.0031
2431.00,0.0031
2430.00,0.0031
2429.00,0.0031
2428.00,0.0031
2427.00,0.0031
2426.00,0.0031
2425.00,0.0031
2424.00,0.0031
2423.00,0.0032
2422.00,0.0032
2421.00,0.0032
2420.00,0.0031
2419.00,0.0031
2418.00,0.0030
2417.00,0.0030
2416.00,0.0030
2415.00,0.0029
2414.00,0.0030
2413.00,0.0030
2412.00,0.0030
2411.00,0.0031
2410.00,0.0031
2409.00,0.0031
2408.00,0.0031
2407.00,0.0031
2406.00,0.0030
2405.00,0.0030
2404.00,0.0030
2403.00,0.0029
2402.00,0.0029
2401.00,0.0028
2400.00,0.0028
2399.00,0.0028
2398.00,0.0029
2397.00,0.0028
2396.00,0.0028
2395.00,0.0028
2394.00,0.0028
2393.00,0.0028
2392.00,0.0028
2391.00,0.0028
2390.00,0.0027
2389.00,0.0027
2388.00,0.0027
2387.00,0.0027
2386.00,0.0026
2385.00,0.0026
2384.00,0.0025
2383.00,0.0024
2382.00,0.0024
2381.00,0.0024
2380.00,0.0026
2379.00,0.0027
2378.00,0.0026
2377.00,0.0025
2376.00,0.0023
2375.00,0.0022
2374.00,0.0021
2373.00,0.0021
2372.00,0.0022
2371.00,0.0022
2370.00,0.0020
2369.00,0.0017
2368.00,0.0016
2367.00,0.0018
2366.00,0.0023
2365.00,0.0028
2364.00,0.0031
2363.00,0.0031
2362.00,0.0030
2361.00,0.0031
2360.00,0.0032
2359.00,0.0033
2358.00,0.0033
2357.00,0.0033
2356.00,0.0032
2355.00,0.0031
2354.00,0.0030
2353.00,0.0031
2352.00,0.0031
2351.00,0.0030
2350.00,0.0029
2349.00,0.0028
2348.00,0.0028
2347.00,0.0027
2346.00,0.0026
2345.00,0.0026
2344.00,0.0027
2343.00,0.0028
2342.00,0.0030
2341.00,0.0031
2340.00,0.0030
2339.00,0.0029
2338.00,0.0027
2337.00,0.0025
2336.00,0.0024
2335.00,0.0024
2334.00,0.0025
2333.00,0.0026
2332.00,0.0027
2331.00,0.0026
2330.00,0.0024
2329.00,0.0022
2328.00,0.0021
2327.00,0.0021
2326.00,0.0022
2325.00,0.0022
2324.00,0.0022
2323.00,0.0021
2322.00,0.0020
2321.00,0.0020
2320.00,0.0019
2319.00,0.0018
2318.00,0.0018
2317.00,0.0018
2316.00,0.0018
2315.00,0.0019
2314.00,0.0019
2313.00,0.0019
2312.00,0.0019
2311.00,0.0020
2310.00,0.0022
2309.00,0.0023
2308.00,0.0024
2307.00,0.0024
2306.00,0.0024
2305.00,0.0023
2304.00,0.0023
2303.00,0.0022
2302.00,0.0021
2301.00,0.0021
2300.00,0.0021
2299.00,0.0022
2298.00,0.0022
2297.00,0.0023
2296.00,0.0023
2295.00,0.0024
2294.00,0.0024
2293.00,0.0026
2292.00,0.0028
2291.00,0.0029
2290.00,0.0029
2289.00,0.0028
2288.00,0.0028
2287.00,0.0028
2286.00,0.0029
2285.00,0.0030
2284.00,0.0031
2283.00,0.0032
2282.00,0.0032
2281.00,0.0031
2280.00,0.0030
2279.00,0.0030
2278.00,0.0031
2277.00,0.0031
2276.00,0.0030
2275.00,0.0029
2274.00,0.0027
2273.00,0.0026
2272.00,0.0026
2271.00,0.0026
2270.00,0.0026
2269.00,0.0026
2268.00,0.0026
2267.00,0.0026
2266.00,0.0026
2265.00,0.0027
2264.00,0.0028
2263.00,0.0029
2262.00,0.0029
2261.00,0.0028
2260.00,0.0028
2259.00,0.0028
2258.00,0.0026
2257.00,0.0024
2256.00,0.0023
2255.00,0.0022
2254.00,0.0023
2253.00,0.0024
2252.00,0.0025
2251.00,0.0026
2250.00,0.0026
2249.00,0.0026
2248.00,0.0026
2247.00,0.0026
2246.00,0.0026
2245.00,0.0027
2244.00,0.0027
2243.00,0.0027
2242.00,0.0026
2241.00,0.0025
2240.00,0.0025
2239.00,0.0025
2238.00,0.0025
2237.00,0.0025
2236.00,0.0025
2235.00,0.0025
2234.00,0.0026
2233.00,0.0026
2232.00,0.0025
2231.00,0.0023
2230.00,0.0023
2229.00,0.0022
2228.00,0.0023
2227.00,0.0023
2226.00,0.0024
2225.00,0.0024
2224.00,0.0023
2223.00,0.0023
2222.00,0.0022
2221.00,0.0023
2220.00,0.0023
2219.00,0.0023
2218.00,0.0023
2217.00,0.0024
2216.00,0.0024
2215.00,0.0025
2214.00,0.0026
2213.00,0.0026
2212.00,0.0025
2211.00,0.0024
2210.00,0.0024
2209.00,0.0025
2208.00,0.0026
2207.00,0.0026
2206.00,0.0026
2205.00,0.0025
2204.00,0.0024
2203.00,0.0023
2202.00,0.0023
2201.00,0.0022
2200.00,0.0021
2199.00,0.0021
2198.00,0.0021
2197.00,0.0021
2196.00,0.0021
2195.00,0.0021
2194.00,0.0021
2193.00,0.0021
2192.00,0.0021
2191.00,0.0020
2190.00,0.0017
2189.00,0.0015
2188.00,0.0016
2187.00,0.0018
2186.00,0.0022
2185.00,0.0024
2184.00,0.0024
2183.00,0.0021
2182.00,0.0019
2181.00,0.0018
2180.00,0.0018
2179.00,0.0019
2178.00,0.0021
2177.00,0.0023
2176.00,0.0023
2175.00,0.0022
2174.00,0.0020
2173.00,0.0019
2172.00,0.0019
2171.00,0.0020
2170.00,0.0023
2169.00,0.0026
2168.00,0.0027
2167.00,0.0027
2166.00,0.0027
2165.00,0.0028
2164.00,0.0029
2163.00,0.0030
2162.00,0.0030
2161.00,0.0027
2160.00,0.0021
2159.00,0.0016
2158.00,0.0013
2157.00,0.0013
2156.00,0.0014
2155.00,0.0016
2154.00,0.0019
2153.00,0.0021
2152.00,0.0022
2151.00,0.0019
2150.00,0.0016
2149.00,0.0014
2148.00,0.0014
2147.00,0.0016
2146.00,0.0019
2145.00,0.0021
2144.00,0.0023
2143.00,0.0023
2142.00,0.0024
2141.00,0.0024
2140.00,0.0023
2139.00,0.0022
2138.00,0.0021
2137.00,0.0019
2136.00,0.0018
2135.00,0.0018
2134.00,0.0018
2133.00,0.0019
2132.00,0.0019
2131.00,0.0019
2130.00,0.0019
2129.00,0.0020
2128.00,0.0022
2127.00,0.0022
2126.00,0.0022
2125.00,0.0021
2124.00,0.0021
2123.00,0.0021
2122.00,0.0020
2121.00,0.0020
2120.00,0.0019
2119.00,0.0020
2118.00,0.0020
2117.00,0.0020
2116.00,0.0019
2115.00,0.0017
2114.00,0.0015
2113.00,0.0014
2112.00,0.0016
2111.00,0.0018
2110.00,0.0021
2109.00,0.0022
2108.00,0.0023
2107.00,0.0023
2106.00,0.0023
2105.00,0.0023
2104.00,0.0023
2103.00,0.0023
2102.00,0.0023
2101.00,0.0023
2100.00,0.0021
2099.00,0.0019
2098.00,0.0017
2097.00,0.0016
2096.00,0.0017
2095.00,0.0018
2094.00,0.0019
2093.00,0.0020
2092.00,0.0020
2091.00,0.0020
2090.00,0.0019
2089.00,0.0019
2088.00,0.0019
2087.00,0.0020
2086.00,0.0020
2085.00,0.0021
2084.00,0.0022
2083.00,0.0023
2082.00,0.0022
2081.00,0.0021
2080.00,0.0021
2079.00,0.0021
2078.00,0.0021
2077.00,0.0021
2076.00,0.0021
2075.00,0.0022
2074.00,0.0021
2073.00,0.0021
2072.00,0.0021
2071.00,0.0022
2070.00,0.0023
2069.00,0.0022
2068.00,0.0019
2067.00,0.0017
2066.00,0.0017
2065.00,0.0019
2064.00,0.0020
2063.00,0.0021
2062.00,0.0021
2061.00,0.0020
2060.00,0.0019
2059.00,0.0018
2058.00,0.0017
2057.00,0.0018
2056.00,0.0019
2055.00,0.0020
2054.00,0.0021
2053.00,0.0023
2052.00,0.0025
2051.00,0.0024
2050.00,0.0022
2049.00,0.0019
2048.00,0.0018
2047.00,0.0019
2046.00,0.0020
2045.00,0.0023
2044.00,0.0025
2043.00,0.0026
2042.00,0.0026
2041.00,0.0024
2040.00,0.0021
2039.00,0.0019
2038.00,0.0019
2037.00,0.0021
2036.00,0.0023
2035.00,0.0023
2034.00,0.0021
2033.00,0.0019
2032.00,0.0020
2031.00,0.0024
2030.00,0.0026
2029.00,0.0025
2028.00,0.0023
2027.00,0.0020
2026.00,0.0018
2025.00,0.0016
2024.00,0.0014
2023.00,0.0012
2022.00,0.0012
2021.00,0.0012
2020.00,0.0013
2019.00,0.0012
2018.00,0.0010
2017.00,0.0009
2016.00,0.0010
2015.00,0.0012
2014.00,0.0015
2013.00,0.0015
2012.00,0.0015
2011.00,0.0015
2010.00,0.0016
2009.00,0.0018
2008.00,0.0018
2007.00,0.0017
2006.00,0.0015
2005.00,0.0014
2004.00,0.0014
2003.00,0.0016
2002.00,0.0019
2001.00,0.0021
2000.00,0.0020
1999.00,0.0018
1998.00,0.0016
1997.00,0.0016
1996.00,0.0019
1995.00,0.0022
1994.00,0.0025
1993.00,0.0026
1992.00,0.0025
1991.00,0.0022
1990.00,0.0019
1989.00,0.0017
1988.00,0.0016
1987.00,0.0015
1986.00,0.0016
1985.00,0.0018
1984.00,0.0019
1983.00,0.0019
1982.00,0.0017
1981.00,0.0015
1980.00,0.0012
1979.00,0.0009
1978.00,0.0007
1977.00,0.0006
1976.00,0.0007
1975.00,0.0011
1974.00,0.0016
1973.00,0.0018
1972.00,0.0017
1971.00,0.0014
1970.00,0.0013
1969.00,0.0013
1968.00,0.0014
1967.00,0.0012
1966.00,0.0010
1965.00,0.0009
1964.00,0.0010
1963.00,0.0012
1962.00,0.0013
1961.00,0.0013
1960.00,0.0013
1959.00,0.0013
1958.00,0.0014
1957.00,0.0013
1956.00,0.0013
1955.00,0.0012
1954.00,0.0011
1953.00,0.0012
1952.00,0.0012
1951.00,0.0011
1950.00,0.0010
1949.00,0.0010
1948.00,0.0010
1947.00,0.0011
1946.00,0.0012
1945.00,0.0011
1944.00,0.0009
1943.00,0.0007
1942.00,0.0006
1941.00,0.0006
1940.00,0.0006
1939.00,0.0005
1938.00,0.0005
1937.00,0.0006
1936.00,0.0006
1935.00,0.0005
1934.00,0.0004
1933.00,0.0003
1932.00,0.0004
1931.00,0.0007
1930.00,0.0010
1929.00,0.0012
1928.00,0.0014
1927.00,0.0014
1926.00,0.0014
1925.00,0.0013
1924.00,0.0012
1923.00,0.0011
1922.00,0.0010
1921.00,0.0010
1920.00,0.0009
1919.00,0.0008
1918.00,0.0006
1917.00,0.0005
1916.00,0.0006
1915.00,0.0007
1914.00,0.0008
1913.00,0.0008
1912.00,0.0009
1911.00,0.0009
1910.00,0.0009
1909.00,0.0007
1908.00,0.0006
1907.00,0.0005
1906.00,0.0005
1905.00,0.0006
1904.00,0.0007
1903.00,0.0007
1902.00,0.0007
1901.00,0.0006
1900.00,0.0006
1899.00,0.0007
1898.00,0.0008
1897.00,0.0008
1896.00,0.0006
1895.00,0.0004
1894.00,0.0004
1893.00,0.0005
1892.00,0.0006
1891.00,0.0007
1890.00,0.0006
1889.00,0.0005
1888.00,0.0004
1887.00,0.0004
1886.00,0.0004
1885.00,0.0004
1884.00,0.0004
1883.00,0.0005
1882.00,0.0005
1881.00,0.0005
1880.00,0.0005
1879.00,0.0004
1878.00,0.0003
1877.00,0.0002
1876.00,0.0003
1875.00,0.0004
1874.00,0.0005
1873.00,0.0006
1872.00,0.0007
1871.00,0.0007
1870.00,0.0007
1869.00,0.0006
1868.00,0.0004
1867.00,0.0003
1866.00,0.0003
1865.00,0.0003
1864.00,0.0002
1863.00,0.0002
1862.00,0.0001
1861.00,0.0001
1860.00,0.0000
1859.00,-0.0000
1858.00,0.0000
1857.00,0.0001
1856.00,0.0001
1855.00,0.0001
1854.00,0.0001
1853.00,0.0001
1852.00,0.0001
1851.00,0.0001
1850.00,0.0002
1849.00,0.0003
1848.00,0.0004
1847.00,0.0004
1846.00,0.0004
1845.00,0.0004
1844.00,0.0002
1843.00,0.0000
1842.00,0.0001
1841.00,0.0001
1840.00,0.0002
1839.00,0.0001
1838.00,0.0001
1837.00,0.0001
1836.00,0.0001
1835.00,0.0001
1834.00,0.0001
1833.00,0.0002
1832.00,0.0003
1831.00,0.0003
1830.00,0.0002
1829.00,0.0000
1828.00,0.0000
1827.00,0.0001
1826.00,0.0001
1825.00,-0.0000
1824.00,-0.0001
1823.00,-0.0002
1822.00,-0.0001
1821.00,-0.0001
1820.00,-0.0001
1819.00,-0.0002
1818.00,-0.0003
1817.00,-0.0003
1816.00,-0.0003
1815.00,-0.0002
1814.00,-0.0002
1813.00,-0.0001
1812.00,-0.0002
1811.00,-0.0002
1810.00,-0.0002
1809.00,-0.0002
1808.00,-0.0002
1807.00,-0.0001
1806.00,-0.0001
1805.00,-0.0001
1804.00,-0.0000
1803.00,-0.0000
1802.00,-0.0000
1801.00,-0.0001
1800.00,-0.0001
1799.00,-0.0001
1798.00,-0.0001
1797.00,0.0001
1796.00,0.0002
1795.00,0.0003
1794.00,0.0003
1793.00,0.0003
1792.00,0.0002
1791.00,0.0001
1790.00,0.0000
1789.00,0.0000
1788.00,0.0001
1787.00,0.0002
1786.00,0.0003
1785.00,0.0003
1784.00,0.0003
1783.00,0.0003
1782.00,0.0004
1781.00,0.0003
1780.00,0.0002
1779.00,0.0002
1778.00,0.0004
1777.00,0.0005
1776.00,0.0007
1775.00,0.0009
1774.00,0.0010
1773.00,0.0010
1772.00,0.0008
1771.00,0.0006
1770.00,0.0006
1769.00,0.0007
1768.00,0.0007
1767.00,0.0007
1766.00,0.0008
1765.00,0.0010
1764.00,0.0011
1763.00,0.0010
1762.00,0.0009
1761.00,0.0009
1760.00,0.0009
1759.00,0.0010
1758.00,0.0010
1757.00,0.0009
1756.00,0.0010
1755.00,0.0012
1754.00,0.0014
1753.00,0.0015
1752.00,0.0015
1751.00,0.0014
1750.00,0.0013
1749.00,0.0013
1748.00,0.0014
1747.00,0.0014
1746.00,0.0015
1745.00,0.0016
1744.00,0.0016
1743.00,0.0017
1742.00,0.0018
1741.00,0.0019
1740.00,0.0019
1739.00,0.0020
1738.00,0.0021
1737.00,0.0023
1736.00,0.0025
1735.00,0.0026
1734.00,0.0026
1733.00,0.0025
1732.00,0.0025
1731.00,0.0025
1730.00,0.0025
1729.00,0.0026
1728.00,0.0027
1727.00,0.0028
1726.00,0.0029
1725.00,0.0031
1724.00,0.0032
1723.00,0.0033
1722.00,0.0035
1721.00,0.0036
1720.00,0.0037
1719.00,0.0036
1718.00,0.0036
1717.00,0.0037
1716.00,0.0038
1715.00,0.0039
1714.00,0.0040
1713.00,0.0040
1712.00,0.0041
1711.00,0.0042
1710.00,0.0042
1709.00,0.0044
1708.00,0.0045
1707.00,0.0046
1706.00,0.0046
1705.00,0.0047
1704.00,0.0048
1703.00,0.0051
1702.00,0.0053
1701.00,0.0055
1700.00,0.0055
1699.00,0.0056
1698.00,0.0057
1697.00,0.0058
1696.00,0.0057
1695.00,0.0057
1694.00,0.0059
1693.00,0.0061
1692.00,0.0062
1691.00,0.0063
1690.00,0.0065
1689.00,0.0067
1688.00,0.0068
1687.00,0.0069
1686.00,0.0069
1685.00,0.0070
1684.00,0.0071
1683.00,0.0072
1682.00,0.0073
1681.00,0.0074
1680.00,0.0075
1679.00,0.0076
1678.00,0.0078
1677.00,0.0081
1676.00,0.0084
1675.00,0.0086
1674.00,0.0088
1673.00,0.0089
1672.00,0.0089
1671.00,0.0090
1670.00,0.0091
1669.00,0.0092
1668.00,0.0092
1667.00,0.0093
1666.00,0.0094
1665.00,0.0095
1664.00,0.0096
1663.00,0.0097
1662.00,0.0099
1661.00,0.0100
1660.00,0.0102
1659.00,0.0104
1658.00,0.0106
1657.00,0.0106
1656.00,0.0105
1655.00,0.0103
1654.00,0.0103
1653.00,0.0104
1652.00,0.0107
1651.00,0.0110
1650.00,0.0111
1649.00,0.0111
1648.00,0.0112
1647.00,0.0112
1646.00,0.0112
1645.00,0.0113
1644.00,0.0113
1643.00,0.0113
1642.00,0.0112
1641.00,0.0112
1640.00,0.0112
1639.00,0.0113
1638.00,0.0113
1637.00,0.0114
1636.00,0.0116
1635.00,0.0117
1634.00,0.0116
1633.00,0.0115
1632.00,0.0113
1631.00,0.0112
1630.00,0.0112
1629.00,0.0112
1628.00,0.0112
1627.00,0.0113
1626.00,0.0114
1625.00,0.0115
1624.00,0.0115
1623.00,0.0114
1622.00,0.0113
1621.00,0.0112
1620.00,0.0112
1619.00,0.0111
1618.00,0.0109
1617.00,0.0107
1616.00,0.0105
1615.00,0.0104
1614.00,0.0103
1613.00,0.0101
1612.00,0.0100
1611.00,0.0099
1610.00,0.0097
1609.00,0.0096
1608.00,0.0094
1607.00,0.0093
1606.00,0.0093
1605.00,0.0093
1604.00,0.0091
1603.00,0.0090
1602.00,0.0088
1601.00,0.0086
1600.00,0.0084
1599.00,0.0083
1598.00,0.0083
1597.00,0.0083
1596.00,0.0083
1595.00,0.0083
1594.00,0.0083
1593.00,0.0082
1592.00,0.0081
1591.00,0.0080
1590.00,0.0079
1589.00,0.0079
1588.00,0.0080
1587.00,0.0081
1586.00,0.0082
1585.00,0.0081
1584.00,0.0081
1583.00,0.0081
1582.00,0.0081
1581.00,0.0082
1580.00,0.0083
1579.00,0.0084
1578.00,0.0086
1577.00,0.0087
1576.00,0.0087
1575.00,0.0086
1574.00,0.0086
1573.00,0.0086
1572.00,0.0087
1571.00,0.0088
1570.00,0.0089
1569.00,0.0090
1568.00,0.0091
1567.00,0.0092
1566.00,0.0093
1565.00,0.0093
1564.00,0.0093
1563.00,0.0093
1562.00,0.0093
1561.00,0.0093
1560.00,0.0096
1559.00,0.0101
1558.00,0.0101
1557.00,0.0102
1556.00,0.0102
1555.00,0.0102
1554.00,0.0103
1553.00,0.0103
1552.00,0.0104
1551.00,0.0104
1550.00,0.0103
1549.00,0.0103
1548.00,0.0103
1547.00,0.0103
1546.00,0.0104
1545.00,0.0105
1544.00,0.0105
1543.00,0.0105
1542.00,0.0105
1541.00,0.0106
1540.00,0.0104
1539.00,0.0103
1538.00,0.0103
1537.00,0.0103
1536.00,0.0103
1535.00,0.0104
1534.00,0.0105
1533.00,0.0105
1532.00,0.0105
1531.00,0.0105
1530.00,0.0106
1529.00,0.0106
1528.00,0.0107
1527.00,0.0107
1526.00,0.0106
1525.00,0.0107
1524.00,0.0107
1523.00,0.0107
1522.00,0.0108
1521.00,0.0108
1520.00,0.0109
1519.00,0.0110
1518.00,0.0110
1517.00,0.0109
1516.00,0.0108
1515.00,0.0107
1514.00,0.0107
1513.00,0.0107
1512.00,0.0106
1511.00,0.0105
1510.00,0.0105
1509.00,0.0105
1508.00,0.0105
1507.00,0.0103
1506.00,0.0100
1505.00,0.0100
1504.00,0.0100
1503.00,0.0099
1502.00,0.0097
1501.00,0.0096
1500.00,0.0096
1499.00,0.0095
1498.00,0.0095
1497.00,0.0095
1496.00,0.0093
1495.00,0.0091
1494.00,0.0089
1493.00,0.0088
1492.00,0.0086
1491.00,0.0085
1490.00,0.0084
1489.00,0.0082
1488.00,0.0081
1487.00,0.0079
1486.00,0.0078
1485.00,0.0077
1484.00,0.0076
1483.00,0.0075
1482.00,0.0074
1481.00,0.0073
1480.00,0.0073
1479.00,0.0072
1478.00,0.0072
1477.00,0.0072
1476.00,0.0072
1475.00,0.0072
1474.00,0.0072
1473.00,0.0072
1472.00,0.0072
1471.00,0.0072
1470.00,0.0072
1469.00,0.0073
1468.00,0.0073
1467.00,0.0073
1466.00,0.0073
1465.00,0.0072
1464.00,0.0070
1463.00,0.0069
1462.00,0.0069
1461.00,0.0069
1460.00,0.0069
1459.00,0.0070
1458.00,0.0072
1457.00,0.0072
1456.00,0.0072
1455.00,0.0072
1454.00,0.0072
1453.00,0.0073
1452.00,0.0073
1451.00,0.0074
1450.00,0.0075
1449.00,0.0076
1448.00,0.0077
1447.00,0.0078
1446.00,0.0078
1445.00,0.0078
1444.00,0.0078
1443.00,0.0078
1442.00,0.0077
1441.00,0.0077
1440.00,0.0078
1439.00,0.0079
1438.00,0.0080
1437.00,0.0081
1436.00,0.0081
1435.00,0.0080
1434.00,0.0079
1433.00,0.0079
1432.00,0.0079
1431.00,0.0078
1430.00,0.0077
1429.00,0.0076
1428.00,0.0075
1427.00,0.0075
1426.00,0.0076
1425.00,0.0075
1424.00,0.0075
1423.00,0.0075
1422.00,0.0075
1421.00,0.0075
1420.00,0.0076
1419.00,0.0076
1418.00,0.0076
1417.00,0.0076
1416.00,0.0076
1415.00,0.0076
1414.00,0.0075
1413.00,0.0074
1412.00,0.0072
1411.00,0.0071
1410.00,0.0071
1409.00,0.0070
1408.00,0.0070
1407.00,0.0070
1406.00,0.0069
1405.00,0.0067
1404.00,0.0066
1403.00,0.0065
1402.00,0.0064
1401.00,0.0063
1400.00,0.0062
1399.00,0.0062
1398.00,0.0061
1397.00,0.0061
1396.00,0.0061
1395.00,0.0060
1394.00,0.0059
1393.00,0.0059
1392.00,0.0060
1391.00,0.0060
1390.00,0.0060
1389.00,0.0060
1388.00,0.0060
1387.00,0.0060
1386.00,0.0060
1385.00,0.0060
1384.00,0.0060
1383.00,0.0061
1382.00,0.0062
1381.00,0.0064
1380.00,0.0065
1379.00,0.0067
1378.00,0.0068
1377.00,0.0069
1376.00,0.0071
1375.00,0.0072
1374.00,0.0072
1373.00,0.0072
1372.00,0.0072
1371.00,0.0072
1370.00,0.0072
1369.00,0.0072
1368.00,0.0072
1367.00,0.0071
1366.00,0.0071
1365.00,0.0070
1364.00,0.0070
1363.00,0.0070
1362.00,0.0070
1361.00,0.0070
1360.00,0.0070
1359.00,0.0070
1358.00,0.0070
1357.00,0.0070
1356.00,0.0071
1355.00,0.0071
1354.00,0.0071
1353.00,0.0070
1352.00,0.0070
1351.00,0.0069
1350.00,0.0068
1349.00,0.0068
1348.00,0.0068
1347.00,0.0068
1346.00,0.0068
1345.00,0.0068
1344.00,0.0068
1343.00,0.0068
1342.00,0.0069
1341.00,0.0069
1340.00,0.0070
1339.00,0.0070
1338.00,0.0070
1337.00,0.0070
1336.00,0.0070
1335.00,0.0070
1334.00,0.0071
1333.00,0.0071
1332.00,0.0071
1331.00,0.0072
1330.00,0.0072
1329.00,0.0073
1328.00,0.0073
1327.00,0.0073
1326.00,0.0074
1325.00,0.0074
1324.00,0.0075
1323.00,0.0076
1322.00,0.0077
1321.00,0.0078
1320.00,0.0079
1319.00,0.0080
1318.00,0.0079
1317.00,0.0077
1316.00,0.0076
1315.00,0.0076
1314.00,0.0076
1313.00,0.0078
1312.00,0.0079
1311.00,0.0081
1310.00,0.0081
1309.00,0.0081
1308.00,0.0081
1307.00,0.0081
1306.00,0.0080
1305.00,0.0081
1304.00,0.0081
1303.00,0.0082
1302.00,0.0082
1301.00,0.0082
1300.00,0.0081
1299.00,0.0080
1298.00,0.0080
1297.00,0.0079
1296.00,0.0078
1295.00,0.0078
1294.00,0.0078
1293.00,0.0079
1292.00,0.0079
1291.00,0.0080
1290.00,0.0080
1289.00,0.0079
1288.00,0.0079
1287.00,0.0078
1286.00,0.0078
1285.00,0.0077
1284.00,0.0077
1283.00,0.0078
1282.00,0.0078
1281.00,0.0077
1280.00,0.0076
1279.00,0.0075
1278.00,0.0074
1277.00,0.0073
1276.00,0.0073
1275.00,0.0073
1274.00,0.0073
1273.00,0.0072
1272.00,0.0072
1271.00,0.0072
1270.00,0.0071
1269.00,0.0071
1268.00,0.0071
1267.00,0.0072
1266.00,0.0072
1265.00,0.0073
1264.00,0.0072
1263.00,0.0072
1262.00,0.0071
1261.00,0.0071
1260.00,0.0071
1259.00,0.0071
1258.00,0.0071
1257.00,0.0070
1256.00,0.0069
1255.00,0.0068
1254.00,0.0068
1253.00,0.0069
1252.00,0.0070
1251.00,0.0069
1250.00,0.0069
1249.00,0.0069
1248.00,0.0069
1247.00,0.0069
1246.00,0.0070
1245.00,0.0071
1244.00,0.0072
1243.00,0.0072
1242.00,0.0071
1241.00,0.0070
1240.00,0.0070
1239.00,0.0070
1238.00,0.0070
1237.00,0.0071
1236.00,0.0072
1235.00,0.0072
1234.00,0.0072
1233.00,0.0073
1232.00,0.0073
1231.00,0.0073
1230.00,0.0072
1229.00,0.0072
1228.00,0.0072
1227.00,0.0073
1226.00,0.0072
1225.00,0.0072
1224.00,0.0071
1223.00,0.0070
1222.00,0.0070
1221.00,0.0071
1220.00,0.0072
1219.00,0.0072
1218.00,0.0072
1217.00,0.0072
1216.00,0.0073
1215.00,0.0073
1214.00,0.0072
1213.00,0.0072
1212.00,0.0072
1211.00,0.0073
1210.00,0.0074
1209.00,0.0074
1208.00,0.0074
1207.00,0.0074
1206.00,0.0074
1205.00,0.0074
1204.00,0.0073
1203.00,0.0073
1202.00,0.0073
1201.00,0.0073
1200.00,0.0074
1199.00,0.0074
1198.00,0.0073
1197.00,0.0072
1196.00,0.0071
1195.00,0.0071
1194.00,0.0070
1193.00,0.0070
1192.00,0.0070
1191.00,0.0069
1190.00,0.0068
1189.00,0.0067
1188.00,0.0066
1187.00,0.0065
1186.00,0.0065
1185.00,0.0065
1184.00,0.0064
1183.00,0.0063
1182.00,0.0062
1181.00,0.0061
1180.00,0.0060
1179.00,0.0060
1178.00,0.0060
1177.00,0.0060
1176.00,0.0060
1175.00,0.0060
1174.00,0.0060
1173.00,0.0060
1172.00,0.0059
1171.00,0.0058
1170.00,0.0057
1169.00,0.0056
1168.00,0.0056
1167.00,0.0057
1166.00,0.0057
1165.00,0.0058
1164.00,0.0058
1163.00,0.0059
1162.00,0.0059
1161.00,0.0059
1160.00,0.0059
1159.00,0.0059
1158.00,0.0059
1157.00,0.0059
1156.00,0.0059
1155.00,0.0060
1154.00,0.0061
1153.00,0.0061
1152.00,0.0060
1151.00,0.0058
1150.00,0.0056
1149.00,0.0055
1148.00,0.0055
1147.00,0.0055
1146.00,0.0055
1145.00,0.0055
1144.00,0.0055
1143.00,0.0056
1142.00,0.0055
1141.00,0.0055
1140.00,0.0055
1139.00,0.0055
1138.00,0.0055
1137.00,0.0055
1136.00,0.0056
1135.00,0.0058
1134.00,0.0060
1133.00,0.0060
1132.00,0.0061
1131.00,0.0061
1130.00,0.0062
1129.00,0.0064
1128.00,0.0066
1127.00,0.0066
1126.00,0.0066
1125.00,0.0065
1124.00,0.0066
1123.00,0.0069
1122.00,0.0072
1121.00,0.0075
1120.00,0.0077
1119.00,0.0077
1118.00,0.0077
1117.00,0.0078
1116.00,0.0079
1115.00,0.0081
1114.00,0.0082
1113.00,0.0082
1112.00,0.0081
1111.00,0.0081
1110.00,0.0081
1109.00,0.0081
1108.00,0.0081
1107.00,0.0080
1106.00,0.0079
1105.00,0.0078
1104.00,0.0077
1103.00,0.0077
1102.00,0.0078
1101.00,0.0078
1100.00,0.0078
1099.00,0.0077
1098.00,0.0077
1097.00,0.0076
1096.00,0.0075
1095.00,0.0074
1094.00,0.0074
1093.00,0.0074
1092.00,0.0075
1091.00,0.0076
1090.00,0.0076
1089.00,0.0074
1088.00,0.0072
1087.00,0.0072
1086.00,0.0073
1085.00,0.0075
1084.00,0.0077
1083.00,0.0079
1082.00,0.0081
1081.00,0.0083
1080.00,0.0085
1079.00,0.0088
1078.00,0.0091
1077.00,0.0094
1076.00,0.0095
1075.00,0.0093
1074.00,0.0091
1073.00,0.0090
1072.00,0.0090
1071.00,0.0090
1070.00,0.0089
1069.00,0.0088
1068.00,0.0087
1067.00,0.0089
1066.00,0.0091
1065.00,0.0093
1064.00,0.0096
1063.00,0.0098
1062.00,0.0098
1061.00,0.0096
1060.00,0.0094
1059.00,0.0092
1058.00,0.0093
1057.00,0.0094
1056.00,0.0096
1055.00,0.0097
1054.00,0.0099
1053.00,0.0100
1052.00,0.0100
1051.00,0.0100
1050.00,0.0100
1049.00,0.0101
1048.00,0.0102
1047.00,0.0103
1046.00,0.0103
1045.00,0.0103
1044.00,0.0104
1043.00,0.0105
1042.00,0.0103
1041.00,0.0102
1040.00,0.0101
1039.00,0.0102
1038.00,0.0104
1037.00,0.0106
1036.00,0.0107
1035.00,0.0108
1034.00,0.0109
1033.00,0.0110
1032.00,0.0111
1031.00,0.0112
1030.00,0.0111
1029.00,0.0111
1028.00,0.0110
1027.00,0.0110
1026.00,0.0111
1025.00,0.0113
1024.00,0.0114
1023.00,0.0114
1022.00,0.0112
1021.00,0.0111
1020.00,0.0110
1019.00,0.0110
1018.00,0.0111
1017.00,0.0112
1016.00,0.0113
1015.00,0.0114
1014.00,0.0115
1013.00,0.0116
1012.00,0.0115
1011.00,0.0115
1010.00,0.0115
1009.00,0.0115
1008.00,0.0113
1007.00,0.0112
1006.00,0.0111
1005.00,0.0112
1004.00,0.0112
1003.00,0.0112
1002.00,0.0111
1001.00,0.0109
1000.00,0.0107
999.00,0.0104
998.00,0.0101
997.00,0.0101
996.00,0.0101
995.00,0.0102
994.00,0.0101
993.00,0.0099
992.00,0.0096
991.00,0.0094
990.00,0.0093
989.00,0.0092
988.00,0.0092
987.00,0.0092
986.00,0.0093
985.00,0.0092
984.00,0.0090
983.00,0.0088
982.00,0.0086
981.00,0.0084
980.00,0.0084
979.00,0.0084
978.00,0.0082
977.00,0.0080
976.00,0.0078
975.00,0.0076
974.00,0.0076
973.00,0.0077
972.00,0.0077
971.00,0.0076
970.00,0.0074
969.00,0.0071
968.00,0.0068
967.00,0.0066
966.00,0.0065
965.00,0.0065
964.00,0.0065
963.00,0.0066
962.00,0.0066
961.00,0.0067
960.00,0.0067
959.00,0.0066
958.00,0.0065
957.00,0.0065
956.00,0.0066
955.00,0.0065
954.00,0.0064
953.00,0.0064
952.00,0.0064
951.00,0.0065
950.00,0.0067
949.00,0.0067
948.00,0.0067
947.00,0.0065
946.00,0.0063
945.00,0.0062
944.00,0.0061
943.00,0.0060
942.00,0.0060
941.00,0.0059
940.00,0.0060
939.00,0.0061
938.00,0.0062
937.00,0.0062
936.00,0.0061
935.00,0.0059
934.00,0.0059
933.00,0.0060
932.00,0.0063
931.00,0.0067
930.00,0.0068
929.00,0.0069
928.00,0.0068
927.00,0.0068
926.00,0.0068
925.00,0.0069
924.00,0.0069
923.00,0.0070
922.00,0.0070
921.00,0.0070
920.00,0.0069
919.00,0.0068
918.00,0.0068
917.00,0.0068
916.00,0.0070
915.00,0.0071
914.00,0.0072
913.00,0.0071
912.00,0.0070
911.00,0.0069
910.00,0.0067
909.00,0.0065
908.00,0.0063
907.00,0.0063
906.00,0.0063
905.00,0.0066
904.00,0.0071
903.00,0.0076
902.00,0.0079
901.00,0.0079
900.00,0.0076
899.00,0.0075
898.00,0.0075
897.00,0.0076
896.00,0.0076
895.00,0.0076
894.00,0.0075
893.00,0.0073
892.00,0.0071
891.00,0.0070
890.00,0.0070
889.00,0.0071
888.00,0.0072
887.00,0.0072
886.00,0.0070
885.00,0.0068
884.00,0.0068
883.00,0.0070
882.00,0.0071
881.00,0.0071
880.00,0.0071
879.00,0.0070
878.00,0.0068
877.00,0.0065
876.00,0.0062
875.00,0.0061
874.00,0.0061
873.00,0.0061
872.00,0.0062
871.00,0.0062
870.00,0.0063
869.00,0.0063
868.00,0.0061
867.00,0.0059
866.00,0.0059
865.00,0.0060
864.00,0.0062
863.00,0.0064
862.00,0.0066
861.00,0.0066
860.00,0.0065
859.00,0.0063
858.00,0.0061
857.00,0.0059
856.00,0.0060
855.00,0.0062
854.00,0.0064
853.00,0.0064
852.00,0.0063
851.00,0.0063
850.00,0.0062
849.00,0.0063
848.00,0.0064
847.00,0.0066
846.00,0.0069
845.00,0.0071
844.00,0.0072
843.00,0.0071
842.00,0.0068
841.00,0.0066
840.00,0.0063
839.00,0.0061
838.00,0.0061
837.00,0.0061
836.00,0.0061
835.00,0.0061
834.00,0.0060
833.00,0.0060
832.00,0.0059
831.00,0.0059
830.00,0.0058
829.00,0.0057
828.00,0.0056
827.00,0.0057
826.00,0.0059
825.00,0.0062
824.00,0.0065
823.00,0.0067
822.00,0.0067
821.00,0.0067
820.00,0.0066
819.00,0.0066
818.00,0.0064
817.00,0.0062
816.00,0.0059
815.00,0.0057
814.00,0.0057
813.00,0.0060
812.00,0.0062
811.00,0.0064
810.00,0.0065
809.00,0.0066
808.00,0.0066
807.00,0.0065
806.00,0.0064
805.00,0.0062
804.00,0.0061
803.00,0.0061
802.00,0.0062
801.00,0.0064
800.00,0.0067
799.00,0.0069
798.00,0.0069
797.00,0.0068
796.00,0.0068
795.00,0.0068
794.00,0.0068
793.00,0.0067
792.00,0.0067
791.00,0.0068
790.00,0.0071
789.00,0.0072
788.00,0.0071
787.00,0.0070
786.00,0.0070
785.00,0.0072
784.00,0.0074
783.00,0.0076
782.00,0.0076
781.00,0.0075
780.00,0.0074
779.00,0.0073
778.00,0.0073
777.00,0.0075
776.00,0.0077
775.00,0.0076
774.00,0.0074
773.00,0.0072
772.00,0.0070
771.00,0.0071
770.00,0.0072
769.00,0.0073
768.00,0.0072
767.00,0.0070
766.00,0.0068
765.00,0.0067
764.00,0.0066
763.00,0.0067
762.00,0.0066
761.00,0.0065
760.00,0.0064
759.00,0.0065
758.00,0.0068
757.00,0.0071
756.00,0.0073
755.00,0.0073
754.00,0.0072
753.00,0.0070
752.00,0.0069
751.00,0.0070
750.00,0.0072
749.00,0.0075
748.00,0.0078
747.00,0.0079
746.00,0.0079
745.00,0.0077
744.00,0.0074
743.00,0.0074
742.00,0.0074
741.00,0.0074
740.00,0.0071
739.00,0.0068
738.00,0.0065
737.00,0.0066
736.00,0.0067
735.00,0.0067
734.00,0.0066
733.00,0.0065
732.00,0.0065
731.00,0.0066
730.00,0.0068
729.00,0.0071
728.00,0.0074
727.00,0.0075
726.00,0.0076
725.00,0.0074
724.00,0.0071
723.00,0.0069
722.00,0.0069
721.00,0.0070
720.00,0.0072
719.00,0.0073
718.00,0.0073
717.00,0.0073
716.00,0.0071
715.00,0.0069
714.00,0.0066
713.00,0.0066
712.00,0.0067
711.00,0.0070
710.00,0.0072
709.00,0.0072
708.00,0.0072
707.00,0.0070
706.00,0.0069
705.00,0.0070
704.00,0.0073
703.00,0.0077
702.00,0.0077
701.00,0.0075
700.00,0.0071
699.00,0.0069
698.00,0.0071
697.00,0.0073
696.00,0.0075
695.00,0.0077
694.00,0.0079
693.00,0.0080
692.00,0.0081
691.00,0.0082
690.00,0.0085
689.00,0.0089
688.00,0.0090
687.00,0.0089
686.00,0.0085
685.00,0.0082
684.00,0.0078
683.00,0.0075
682.00,0.0073
681.00,0.0073
680.00,0.0074
679.00,0.0075
678.00,0.0077
677.00,0.0078
676.00,0.0080
675.00,0.0082
674.00,0.0082
673.00,0.0080
672.00,0.0079
671.00,0.0078
670.00,0.0080
669.00,0.0086
668.00,0.0088
667.00,0.0085
666.00,0.0084
665.00,0.0087
664.00,0.0089
663.00,0.0088
662.00,0.0082
661.00,0.0074
660.00,0.0065
659.00,0.0061
658.00,0.0065
657.00,0.0076
656.00,0.0085
655.00,0.0088
654.00,0.0083
653.00,0.0073
652.00,0.0065
651.00,0.0062
650.00,0.0064
