Created as New Dataset,Monday, April 03 2023
cm-1,A
4000.00,0.0161
3999.00,0.0161
3998.00,0.0161
3997.00,0.0161
3996.00,0.0160
3995.00,0.0160
3994.00,0.0160
3993.00,0.0160
3992.00,0.0161
3991.00,0.0161
3990.00,0.0161
3989.00,0.0161
3988.00,0.0160
3987.00,0.0160
3986.00,0.0160
3985.00,0.0160
3984.00,0.0160
3983.00,0.0160
3982.00,0.0160
3981.00,0.0160
3980.00,0.0160
3979.00,0.0160
3978.00,0.0160
3977.00,0.0160
3976.00,0.0160
3975.00,0.0160
3974.00,0.0160
3973.00,0.0161
3972.00,0.0161
3971.00,0.0160
3970.00,0.0160
3969.00,0.0159
3968.00,0.0159
3967.00,0.0159
3966.00,0.0160
3965.00,0.0161
3964.00,0.0161
3963.00,0.0161
3962.00,0.0161
3961.00,0.0160
3960.00,0.0159
3959.00,0.0159
3958.00,0.0159
3957.00,0.0159
3956.00,0.0159
3955.00,0.0160
3954.00,0.0160
3953.00,0.0160
3952.00,0.0160
3951.00,0.0160
3950.00,0.0160
3949.00,0.0160
3948.00,0.0161
3947.00,0.0161
3946.00,0.0161
3945.00,0.0161
3944.00,0.0160
3943.00,0.0159
3942.00,0.0158
3941.00,0.0159
3940.00,0.0159
3939.00,0.0160
3938.00,0.0160
3937.00,0.0160
3936.00,0.0161
3935.00,0.0161
3934.00,0.0162
3933.00,0.0162
3932.00,0.0162
3931.00,0.0161
3930.00,0.0160
3929.00,0.0160
3928.00,0.0160
3927.00,0.0159
3926.00,0.0159
3925.00,0.0158
3924.00,0.0158
3923.00,0.0158
3922.00,0.0159
3921.00,0.0159
3920.00,0.0160
3919.00,0.0160
3918.00,0.0160
3917.00,0.0159
3916.00,0.0159
3915.00,0.0158
3914.00,0.0158
3913.00,0.0158
3912.00,0.0158
3911.00,0.0158
3910.00,0.0158
3909.00,0.0159
3908.00,0.0160
3907.00,0.0160
3906.00,0.0161
3905.00,0.0161
3904.00,0.0161
3903.00,0.0162
3902.00,0.0162
3901.00,0.0161
3900.00,0.0160
3899.00,0.0159
3898.00,0.0158
3897.00,0.0159
3896.00,0.0160
3895.00,0.0161
3894.00,0.0160
3893.00,0.0160
3892.00,0.0158
3891.00,0.0158
3890.00,0.0158
3889.00,0.0160
3888.00,0.0161
3887.00,0.0161
3886.00,0.0162
3885.00,0.0162
3884.00,0.0162
3883.00,0.0162
3882.00,0.0160
3881.00,0.0157
3880.00,0.0155
3879.00,0.0156
3878.00,0.0158
3877.00,0.0159
3876.00,0.0159
3875.00,0.0159
3874.00,0.0159
3873.00,0.0160
3872.00,0.0160
3871.00,0.0160
3870.00,0.0159
3869.00,0.0159
3868.00,0.0161
3867.00,0.0163
3866.00,0.0162
3865.00,0.0161
3864.00,0.0158
3863.00,0.0157
3862.00,0.0157
3861.00,0.0158
3860.00,0.0159
3859.00,0.0160
3858.00,0.0160
3857.00,0.0160
3856.00,0.0160
3855.00,0.0162
3854.00,0.0164
3853.00,0.0163
3852.00,0.0161
3851.00,0.0161
3850.00,0.0160
3849.00,0.0159
3848.00,0.0158
3847.00,0.0157
3846.00,0.0157
3845.00,0.0158
3844.00,0.0158
3843.00,0.0160
3842.00,0.0161
3841.00,0.0161
3840.00,0.0161
3839.00,0.0160
3838.00,0.0159
3837.00,0.0158
3836.00,0.0158
3835.00,0.0158
3834.00,0.0158
3833.00,0.0158
3832.00,0.0158
3831.00,0.0158
3830.00,0.0159
3829.00,0.0158
3828.00,0.0157
3827.00,0.0157
3826.00,0.0157
3825.00,0.0158
3824.00,0.0159
3823.00,0.0160
3822.00,0.0160
3821.00,0.0159
3820.00,0.0159
3819.00,0.0160
3818.00,0.0160
3817.00,0.0159
3816.00,0.0157
3815.00,0.0157
3814.00,0.0157
3813.00,0.0157
3812.00,0.0156
3811.00,0.0156
3810.00,0.0156
3809.00,0.0156
3808.00,0.0158
3807.00,0.0158
3806.00,0.0159
3805.00,0.0160
3804.00,0.0160
3803.00,0.0159
3802.00,0.0157
3801.00,0.0157
3800.00,0.0158
3799.00,0.0159
3798.00,0.0158
3797.00,0.0155
3796.00,0.0154
3795.00,0.0153
3794.00,0.0154
3793.00,0.0154
3792.00,0.0153
3791.00,0.0154
3790.00,0.0154
3789.00,0.0155
3788.00,0.0155
3787.00,0.0155
3786.00,0.0154
3785.00,0.0153
3784.00,0.0153
3783.00,0.0154
3782.00,0.0155
3781.00,0.0155
3780.00,0.0154
3779.00,0.0152
3778.00,0.0151
3777.00,0.0151
3776.00,0.0152
3775.00,0.0152
3774.00,0.0153
3773.00,0.0154
3772.00,0.0155
3771.00,0.0156
3770.00,0.0156
3769.00,0.0155
3768.00,0.0155
3767.00,0.0155
3766.00,0.0154
3765.00,0.0154
3764.00,0.0155
3763.00,0.0156
3762.00,0.0156
3761.00,0.0156
3760.00,0.0156
3759.00,0.0155
3758.00,0.0155
3757.00,0.0156
3756.00,0.0157
3755.00,0.0158
3754.00,0.0159
3753.00,0.0160
3752.00,0.0161
3751.00,0.0162
3750.00,0.0162
3749.00,0.0161
3748.00,0.0161
3747.00,0.0160
3746.00,0.0158
3745.00,0.0157
3744.00,0.0157
3743.00,0.0158
3742.00,0.0160
3741.00,0.0160
3740.00,0.0159
3739.00,0.0159
3738.00,0.0160
3737.00,0.0161
3736.00,0.0160
3735.00,0.0158
3734.00,0.0155
3733.00,0.0154
3732.00,0.0154
3731.00,0.0155
3730.00,0.0156
3729.00,0.0157
3728.00,0.0157
3727.00,0.0157
3726.00,0.0156
3725.00,0.0155
3724.00,0.0154
3723.00,0.0153
3722.00,0.0153
3721.00,0.0154
3720.00,0.0154
3719.00,0.0154
3718.00,0.0155
3717.00,0.0157
3716.00,0.0158
3715.00,0.0158
3714.00,0.0159
3713.00,0.0159
3712.00,0.0160
3711.00,0.0159
3710.00,0.0158
3709.00,0.0159
3708.00,0.0159
3707.00,0.0161
3706.00,0.0161
3705.00,0.0162
3704.00,0.0162
3703.00,0.0162
3702.00,0.0163
3701.00,0.0164
3700.00,0.0165
3699.00,0.0166
3698.00,0.0167
3697.00,0.0167
3696.00,0.0167
3695.00,0.0167
3694.00,0.0168
3693.00,0.0169
3692.00,0.0170
3691.00,0.0170
3690.00,0.0169
3689.00,0.0167
3688.00,0.0167
3687.00,0.0167
3686.00,0.0167
3685.00,0.0167
3684.00,0.0166
3683.00,0.0166
3682.00,0.0166
3681.00,0.0166
3680.00,0.0165
3679.00,0.0164
3678.00,0.0164
3677.00,0.0166
3676.00,0.0167
3675.00,0.0168
3674.00,0.0170
3673.00,0.0172
3672.00,0.0172
3671.00,0.0170
3670.00,0.0168
3669.00,0.0167
3668.00,0.0167
3667.00,0.0169
3666.00,0.0169
3665.00,0.0168
3664.00,0.0168
3663.00,0.0168
3662.00,0.0169
3661.00,0.0170
3660.00,0.0171
3659.00,0.0173
3658.00,0.0175
3657.00,0.0177
3656.00,0.0178
3655.00,0.0178
3654.00,0.0179
3653.00,0.0179
3652.00,0.0180
3651.00,0.0184
3650.00,0.0189
3649.00,0.0190
3648.00,0.0188
3647.00,0.0186
3646.00,0.0185
3645.00,0.0184
3644.00,0.0185
3643.00,0.0185
3642.00,0.0186
3641.00,0.0187
3640.00,0.0187
3639.00,0.0187
3638.00,0.0187
3637.00,0.0187
3636.00,0.0188
3635.00,0.0189
3634.00,0.0190
3633.00,0.0192
3632.00,0.0193
3631.00,0.0195
3630.00,0.0197
3629.00,0.0199
3628.00,0.0200
3627.00,0.0202
3626.00,0.0203
3625.00,0.0204
3624.00,0.0205
3623.00,0.0206
3622.00,0.0207
3621.00,0.0208
3620.00,0.0209
3619.00,0.0209
3618.00,0.0210
3617.00,0.0211
3616.00,0.0212
3615.00,0.0212
3614.00,0.0212
3613.00,0.0211
3612.00,0.0210
3611.00,0.0210
3610.00,0.0210
3609.00,0.0211
3608.00,0.0212
3607.00,0.0212
3606.00,0.0212
3605.00,0.0212
3604.00,0.0212
3603.00,0.0212
3602.00,0.0212
3601.00,0.0213
3600.00,0.0214
3599.00,0.0215
3598.00,0.0215
3597.00,0.0215
3596.00,0.0215
3595.00,0.0215
3594.00,0.0215
3593.00,0.0216
3592.00,0.0218
3591.00,0.0219
3590.00,0.0220
3589.00,0.0222
3588.00,0.0223
3587.00,0.0222
3586.00,0.0221
3585.00,0.0221
3584.00,0.0221
3583.00,0.0222
3582.00,0.0223
3581.00,0.0224
3580.00,0.0224
3579.00,0.0224
3578.00,0.0224
3577.00,0.0224
3576.00,0.0224
3575.00,0.0224
3574.00,0.0225
3573.00,0.0227
3572.00,0.0227
3571.00,0.0228
3570.00,0.0228
3569.00,0.0229
3568.00,0.0232
3567.00,0.0233
3566.00,0.0234
3565.00,0.0234
3564.00,0.0234
3563.00,0.0235
3562.00,0.0234
3561.00,0.0234
3560.00,0.0233
3559.00,0.0233
3558.00,0.0234
3557.00,0.0235
3556.00,0.0236
3555.00,0.0237
3554.00,0.0238
3553.00,0.0238
3552.00,0.0239
3551.00,0.0239
3550.00,0.0240
3549.00,0.0240
3548.00,0.0241
3547.00,0.0242
3546.00,0.0243
3545.00,0.0244
3544.00,0.0244
3543.00,0.0244
3542.00,0.0244
3541.00,0.0243
3540.00,0.0244
3539.00,0.0244
3538.00,0.0245
3537.00,0.0246
3536.00,0.0247
3535.00,0.0247
3534.00,0.0247
3533.00,0.0248
3532.00,0.0248
3531.00,0.0248
3530.00,0.0249
3529.00,0.0250
3528.00,0.0252
3527.00,0.0253
3526.00,0.0254
3525.00,0.0254
3524.00,0.0254
3523.00,0.0253
3522.00,0.0253
3521.00,0.0254
3520.00,0.0255
3519.00,0.0255
3518.00,0.0256
3517.00,0.0256
3516.00,0.0256
3515.00,0.0256
3514.00,0.0256
3513.00,0.0256
3512.00,0.0257
3511.00,0.0258
3510.00,0.0259
3509.00,0.0260
3508.00,0.0261
3507.00,0.0260
3506.00,0.0260
3505.00,0.0260
3504.00,0.0261
3503.00,0.0263
3502.00,0.0263
3501.00,0.0264
3500.00,0.0263
3499.00,0.0263
3498.00,0.0263
3497.00,0.0264
3496.00,0.0265
3495.00,0.0266
3494.00,0.0267
3493.00,0.0267
3492.00,0.0268
3491.00,0.0268
3490.00,0.0268
3489.00,0.0268
3488.00,0.0268
3487.00,0.0268
3486.00,0.0269
3485.00,0.0270
3484.00,0.0271
3483.00,0.0271
3482.00,0.0271
3481.00,0.0271
3480.00,0.0270
3479.00,0.0271
3478.00,0.0271
3477.00,0.0272
3476.00,0.0273
3475.00,0.0274
3474.00,0.0275
3473.00,0.0276
3472.00,0.0275
3471.00,0.0275
3470.00,0.0275
3469.00,0.0276
3468.00,0.0277
3467.00,0.0278
3466.00,0.0279
3465.00,0.0279
3464.00,0.0279
3463.00,0.0279
3462.00,0.0279
3461.00,0.0279
3460.00,0.0280
3459.00,0.0281
3458.00,0.0282
3457.00,0.0282
3456.00,0.0282
3455.00,0.0282
3454.00,0.0282
3453.00,0.0282
3452.00,0.0283
3451.00,0.0284
3450.00,0.0285
3449.00,0.0286
3448.00,0.0286
3447.00,0.0286
3446.00,0.0285
3445.00,0.0285
3444.00,0.0285
3443.00,0.0286
3442.00,0.0287
3441.00,0.0288
3440.00,0.0289
3439.00,0.0288
3438.00,0.0288
3437.00,0.0288
3436.00,0.0288
3435.00,0.0289
3434.00,0.0290
3433.00,0.0290
3432.00,0.0291
3431.00,0.0292
3430.00,0.0292
3429.00,0.0292
3428.00,0.0292
3427.00,0.0291
3426.00,0.0292
3425.00,0.0293
3424.00,0.0294
3423.00,0.0294
3422.00,0.0295
3421.00,0.0294
3420.00,0.0294
3419.00,0.0294
3418.00,0.0294
3417.00,0.0294
3416.00,0.0295
3415.00,0.0295
3414.00,0.0296
3413.00,0.0296
3412.00,0.0295
3411.00,0.0295
3410.00,0.0296
3409.00,0.0296
3408.00,0.0297
3407.00,0.0298
3406.00,0.0299
3405.00,0.0299
3404.00,0.0299
3403.00,0.0298
3402.00,0.0298
3401.00,0.0299
3400.00,0.0299
3399.00,0.0300
3398.00,0.0301
3397.00,0.0301
3396.00,0.0301
3395.00,0.0301
3394.00,0.0301
3393.00,0.0302
3392.00,0.0302
3391.00,0.0303
3390.00,0.0303
3389.00,0.0304
3388.00,0.0304
3387.00,0.0304
3386.00,0.0304
3385.00,0.0304
3384.00,0.0303
3383.00,0.0303
3382.00,0.0303
3381.00,0.0304
3380.00,0.0305
3379.00,0.0306
3378.00,0.0306
3377.00,0.0306
3376.00,0.0306
3375.00,0.0306
3374.00,0.0306
3373.00,0.0306
3372.00,0.0307
3371.00,0.0307
3370.00,0.0307
3369.00,0.0307
3368.00,0.0307
3367.00,0.0307
3366.00,0.0308
3365.00,0.0309
3364.00,0.0309
3363.00,0.0309
3362.00,0.0310
3361.00,0.0310
3360.00,0.0310
3359.00,0.0310
3358.00,0.0310
3357.00,0.0310
3356.00,0.0310
3355.00,0.0310
3354.00,0.0311
3353.00,0.0311
3352.00,0.0312
3351.00,0.0312
3350.00,0.0312
3349.00,0.0311
3348.00,0.0311
3347.00,0.0311
3346.00,0.0311
3345.00,0.0311
3344.00,0.0311
3343.00,0.0312
3342.00,0.0312
3341.00,0.0312
3340.00,0.0312
3339.00,0.0312
3338.00,0.0312
3337.00,0.0312
3336.00,0.0313
3335.00,0.0314
3334.00,0.0314
3333.00,0.0314
3332.00,0.0314
3331.00,0.0314
3330.00,0.0313
3329.00,0.0313
3328.00,0.0313
3327.00,0.0313
3326.00,0.0314
3325.00,0.0314
3324.00,0.0314
3323.00,0.0314
3322.00,0.0313
3321.00,0.0313
3320.00,0.0314
3319.00,0.0314
3318.00,0.0315
3317.00,0.0315
3316.00,0.0315
3315.00,0.0315
3314.00,0.0315
3313.00,0.0315
3312.00,0.0315
3311.00,0.0315
3310.00,0.0316
3309.00,0.0316
3308.00,0.0316
3307.00,0.0316
3306.00,0.0315
3305.00,0.0315
3304.00,0.0314
3303.00,0.0314
3302.00,0.0315
3301.00,0.0316
3300.00,0.0317
3299.00,0.0317
3298.00,0.0316
3297.00,0.0316
3296.00,0.0315
3295.00,0.0315
3294.00,0.0316
3293.00,0.0317
3292.00,0.0318
3291.00,0.0318
3290.00,0.0318
3289.00,0.0317
3288.00,0.0316
3287.00,0.0316
3286.00,0.0316
3285.00,0.0317
3284.00,0.0317
3283.00,0.0317
3282.00,0.0317
3281.00,0.0317
3280.00,0.0317
3279.00,0.0316
3278.00,0.0316
3277.00,0.0317
3276.00,0.0317
3275.00,0.0318
3274.00,0.0318
3273.00,0.0319
3272.00,0.0319
3271.00,0.0318
3270.00,0.0318
3269.00,0.0317
3268.00,0.0317
3267.00,0.0318
3266.00,0.0318
3265.00,0.0318
3264.00,0.0318
3263.00,0.0317
3262.00,0.0317
3261.00,0.0317
3260.00,0.0317
3259.00,0.0317
3258.00,0.0318
3257.00,0.0319
3256.00,0.0319
3255.00,0.0318
3254.00,0.0318
3253.00,0.0317
3252.00,0.0317
3251.00,0.0318
3250.00,0.0318
3249.00,0.0319
3248.00,0.0320
3247.00,0.0320
3246.00,0.0320
3245.00,0.0319
3244.00,0.0318
3243.00,0.0318
3242.00,0.0319
3241.00,0.0319
3240.00,0.0320
3239.00,0.0320
3238.00,0.0321
3237.00,0.0320
3236.00,0.0320
3235.00,0.0319
3234.00,0.0320
3233.00,0.0320
3232.00,0.0321
3231.00,0.0321
3230.00,0.0321
3229.00,0.0321
3228.00,0.0320
3227.00,0.0320
3226.00,0.0319
3225.00,0.0319
3224.00,0.0319
3223.00,0.0320
3222.00,0.0320
3221.00,0.0321
3220.00,0.0320
3219.00,0.0320
3218.00,0.0320
3217.00,0.0320
3216.00,0.0320
3215.00,0.0320
3214.00,0.0321
3213.00,0.0321
3212.00,0.0321
3211.00,0.0320
3210.00,0.0320
3209.00,0.0319
3208.00,0.0320
3207.00,0.0320
3206.00,0.0320
3205.00,0.0320
3204.00,0.0320
3203.00,0.0320
3202.00,0.0320
3201.00,0.0320
3200.00,0.0320
3199.00,0.0320
3198.00,0.0321
3197.00,0.0321
3196.00,0.0321
3195.00,0.0320
3194.00,0.0320
3193.00,0.0320
3192.00,0.0319
3191.00,0.0319
3190.00,0.0320
3189.00,0.0320
3188.00,0.0321
3187.00,0.0321
3186.00,0.0320
3185.00,0.0320
3184.00,0.0319
3183.00,0.0319
3182.00,0.0319
3181.00,0.0319
3180.00,0.0319
3179.00,0.0320
3178.00,0.0320
3177.00,0.0319
3176.00,0.0319
3175.00,0.0318
3174.00,0.0319
3173.00,0.0319
3172.00,0.0319
3171.00,0.0319
3170.00,0.0319
3169.00,0.0319
3168.00,0.0319
3167.00,0.0318
3166.00,0.0318
3165.00,0.0317
3164.00,0.0318
3163.00,0.0318
3162.00,0.0318
3161.00,0.0318
3160.00,0.0318
3159.00,0.0318
3158.00,0.0318
3157.00,0.0317
3156.00,0.0317
3155.00,0.0317
3154.00,0.0317
3153.00,0.0317
3152.00,0.0317
3151.00,0.0317
3150.00,0.0316
3149.00,0.0316
3148.00,0.0316
3147.00,0.0316
3146.00,0.0316
3145.00,0.0316
3144.00,0.0316
3143.00,0.0317
3142.00,0.0316
3141.00,0.0316
3140.00,0.0316
3139.00,0.0316
3138.00,0.0316
3137.00,0.0316
3136.00,0.0316
3135.00,0.0316
3134.00,0.0316
3133.00,0.0316
3132.00,0.0315
3131.00,0.0315
3130.00,0.0314
3129.00,0.0314
3128.00,0.0314
3127.00,0.0314
3126.00,0.0314
3125.00,0.0314
3124.00,0.0314
3123.00,0.0313
3122.00,0.0313
3121.00,0.0313
3120.00,0.0313
3119.00,0.0314
3118.00,0.0314
3117.00,0.0314
3116.00,0.0313
3115.00,0.0313
3114.00,0.0312
3113.00,0.0312
3112.00,0.0311
3111.00,0.0311
3110.00,0.0311
3109.00,0.0312
3108.00,0.0312
3107.00,0.0312
3106.00,0.0312
3105.00,0.0312
3104.00,0.0311
3103.00,0.0311
3102.00,0.0311
3101.00,0.0311
3100.00,0.0311
3099.00,0.0311
3098.00,0.0311
3097.00,0.0310
3096.00,0.0310
3095.00,0.0309
3094.00,0.0310
3093.00,0.0310
3092.00,0.0311
3091.00,0.0311
3090.00,0.0312
3089.00,0.0312
3088.00,0.0312
3087.00,0.0311
3086.00,0.0310
3085.00,0.0309
3084.00,0.0309
3083.00,0.0309
3082.00,0.0309
3081.00,0.0309
3080.00,0.0309
3079.00,0.0309
3078.00,0.0309
3077.00,0.0308
3076.00,0.0308
3075.00,0.0308
3074.00,0.0308
3073.00,0.0309
3072.00,0.0308
3071.00,0.0307
3070.00,0.0307
3069.00,0.0306
3068.00,0.0306
3067.00,0.0307
3066.00,0.0307
3065.00,0.0308
3064.00,0.0308
3063.00,0.0308
3062.00,0.0307
3061.00,0.0306
3060.00,0.0306
3059.00,0.0306
3058.00,0.0306
3057.00,0.0306
3056.00,0.0306
3055.00,0.0306
3054.00,0.0305
3053.00,0.0304
3052.00,0.0303
3051.00,0.0303
3050.00,0.0303
3049.00,0.0304
3048.00,0.0305
3047.00,0.0305
3046.00,0.0304
3045.00,0.0304
3044.00,0.0303
3043.00,0.0302
3042.00,0.0302
3041.00,0.0303
3040.00,0.0303
3039.00,0.0303
3038.00,0.0303
3037.00,0.0302
3036.00,0.0301
3035.00,0.0301
3034.00,0.0301
3033.00,0.0300
3032.00,0.0300
3031.00,0.0300
3030.00,0.0301
3029.00,0.0300
3028.00,0.0299
3027.00,0.0298
3026.00,0.0298
3025.00,0.0298
3024.00,0.0298
3023.00,0.0298
3022.00,0.0298
3021.00,0.0298
3020.00,0.0298
3019.00,0.0297
3018.00,0.0296
3017.00,0.0296
3016.00,0.0296
3015.00,0.0297
3014.00,0.0297
3013.00,0.0297
3012.00,0.0297
3011.00,0.0296
3010.00,0.0295
3009.00,0.0294
3008.00,0.0294
3007.00,0.0293
3006.00,0.0294
3005.00,0.0294
3004.00,0.0294
3003.00,0.0293
3002.00,0.0293
3001.00,0.0292
3000.00,0.0292
2999.00,0.0292
2998.00,0.0292
2997.00,0.0291
2996.00,0.0291
2995.00,0.0291
2994.00,0.0291
2993.00,0.0291
2992.00,0.0290
2991.00,0.0290
2990.00,0.0290
2989.00,0.0290
2988.00,0.0289
2987.00,0.0289
2986.00,0.0289
2985.00,0.0288
2984.00,0.0287
2983.00,0.0286
2982.00,0.0285
2981.00,0.0285
2980.00,0.0285
2979.00,0.0285
2978.00,0.0285
2977.00,0.0285
2976.00,0.0285
2975.00,0.0285
2974.00,0.0285
2973.00,0.0284
2972.00,0.0283
2971.00,0.0283
2970.00,0.0283
2969.00,0.0282
2968.00,0.0282
2967.00,0.0281
2966.00,0.0281
2965.00,0.0280
2964.00,0.0280
2963.00,0.0279
2962.00,0.0279
2961.00,0.0279
2960.00,0.0278
2959.00,0.0278
2958.00,0.0278
2957.00,0.0277
2956.00,0.0277
2955.00,0.0277
2954.00,0.0277
2953.00,0.0277
2952.00,0.0277
2951.00,0.0278
2950.00,0.0278
2949.00,0.0278
2948.00,0.0277
2947.00,0.0276
2946.00,0.0276
2945.00,0.0276
2944.00,0.0275
2943.00,0.0275
2942.00,0.0274
2941.00,0.0274
2940.00,0.0273
2939.00,0.0271
2938.00,0.0270
2937.00,0.0270
2936.00,0.0269
2935.00,0.0268
2934.00,0.0267
2933.00,0.0266
2932.00,0.0265
2931.00,0.0264
2930.00,0.0262
2929.00,0.0261
2928.00,0.0260
2927.00,0.0260
2926.00,0.0260
2925.00,0.0260
2924.00,0.0259
2923.00,0.0259
2922.00,0.0259
2921.00,0.0259
2920.00,0.0260
2919.00,0.0260
2918.00,0.0260
2917.00,0.0261
2916.00,0.0262
2915.00,0.0263
2914.00,0.0264
2913.00,0.0264
2912.00,0.0265
2911.00,0.0265
2910.00,0.0265
2909.00,0.0266
2908.00,0.0267
2907.00,0.0268
2906.00,0.0268
2905.00,0.0268
2904.00,0.0267
2903.00,0.0267
2902.00,0.0267
2901.00,0.0268
2900.00,0.0268
2899.00,0.0268
2898.00,0.0268
2897.00,0.0268
2896.00,0.0268
2895.00,0.0268
2894.00,0.0267
2893.00,0.0267
2892.00,0.0268
2891.00,0.0268
2890.00,0.0269
2889.00,0.0269
2888.00,0.0269
2887.00,0.0268
2886.00,0.0268
2885.00,0.0267
2884.00,0.0267
2883.00,0.0268
2882.00,0.0268
2881.00,0.0268
2880.00,0.0268
2879.00,0.0267
2878.00,0.0266
2877.00,0.0266
2876.00,0.0266
2875.00,0.0266
2874.00,0.0266
2873.00,0.0266
2872.00,0.0265
2871.00,0.0264
2870.00,0.0263
2869.00,0.0262
2868.00,0.0262
2867.00,0.0262
2866.00,0.0262
2865.00,0.0262
2864.00,0.0262
2863.00,0.0261
2862.00,0.0260
2861.00,0.0259
2860.00,0.0258
2859.00,0.0257
2858.00,0.0256
2857.00,0.0256
2856.00,0.0255
2855.00,0.0254
2854.00,0.0254
2853.00,0.0253
2852.00,0.0253
2851.00,0.0254
2850.00,0.0254
2849.00,0.0255
2848.00,0.0257
2847.00,0.0258
2846.00,0.0259
2845.00,0.0259
2844.00,0.0259
2843.00,0.0259
2842.00,0.0260
2841.00,0.0261
2840.00,0.0261
2839.00,0.0262
2838.00,0.0262
2837.00,0.0262
2836.00,0.0261
2835.00,0.0260
2834.00,0.0260
2833.00,0.0260
2832.00,0.0260
2831.00,0.0261
2830.00,0.0261
2829.00,0.0261
2828.00,0.0260
2827.00,0.0260
2826.00,0.0260
2825.00,0.0260
2824.00,0.0260
2823.00,0.0260
2822.00,0.0260
2821.00,0.0260
2820.00,0.0260
2819.00,0.0259
2818.00,0.0259
2817.00,0.0259
2816.00,0.0259
2815.00,0.0259
2814.00,0.0259
2813.00,0.0259
2812.00,0.0259
2811.00,0.0258
2810.00,0.0258
2809.00,0.0257
2808.00,0.0257
2807.00,0.0257
2806.00,0.0257
2805.00,0.0257
2804.00,0.0257
2803.00,0.0257
2802.00,0.0256
2801.00,0.0256
2800.00,0.0255
2799.00,0.0255
2798.00,0.0255
2797.00,0.0255
2796.00,0.0256
2795.00,0.0255
2794.00,0.0255
2793.00,0.0255
2792.00,0.0255
2791.00,0.0254
2790.00,0.0254
2789.00,0.0254
2788.00,0.0254
2787.00,0.0254
2786.00,0.0253
2785.00,0.0253
2784.00,0.0253
2783.00,0.0253
2782.00,0.0253
2781.00,0.0253
2780.00,0.0252
2779.00,0.0252
2778.00,0.0252
2777.00,0.0252
2776.00,0.0251
2775.00,0.0251
2774.00,0.0251
2773.00,0.0251
2772.00,0.0251
2771.00,0.0251
2770.00,0.0251
2769.00,0.0251
2768.00,0.0251
2767.00,0.0251
2766.00,0.0250
2765.00,0.0250
2764.00,0.0250
2763.00,0.0249
2762.00,0.0249
2761.00,0.0249
2760.00,0.0249
2759.00,0.0249
2758.00,0.0249
2757.00,0.0249
2756.00,0.0248
2755.00,0.0248
2754.00,0.0248
2753.00,0.0248
2752.00,0.0247
2751.00,0.0247
2750.00,0.0247
2749.00,0.0247
2748.00,0.0247
2747.00,0.0247
2746.00,0.0246
2745.00,0.0246
2744.00,0.0246
2743.00,0.0245
2742.00,0.0245
2741.00,0.0245
2740.00,0.0246
2739.00,0.0246
2738.00,0.0245
2737.00,0.0245
2736.00,0.0244
2735.00,0.0244
2734.00,0.0244
2733.00,0.0244
2732.00,0.0244
2731.00,0.0244
2730.00,0.0244
2729.00,0.0244
2728.00,0.0243
2727.00,0.0243
2726.00,0.0243
2725.00,0.0243
2724.00,0.0243
2723.00,0.0243
2722.00,0.0243
2721.00,0.0242
2720.00,0.0242
2719.00,0.0242
2718.00,0.0242
2717.00,0.0242
2716.00,0.0242
2715.00,0.0242
2714.00,0.0242
2713.00,0.0242
2712.00,0.0241
2711.00,0.0240
2710.00,0.0240
2709.00,0.0240
2708.00,0.0241
2707.00,0.0241
2706.00,0.0241
2705.00,0.0240
2704.00,0.0240
2703.00,0.0239
2702.00,0.0238
2701.00,0.0238
2700.00,0.0239
2699.00,0.0239
2698.00,0.0240
2697.00,0.0240
2696.00,0.0239
2695.00,0.0239
2694.00,0.0238
2693.00,0.0238
2692.00,0.0238
2691.00,0.0238
2690.00,0.0238
2689.00,0.0238
2688.00,0.0238
2687.00,0.0237
2686.00,0.0237
2685.00,0.0237
2684.00,0.0237
2683.00,0.0237
2682.00,0.0237
2681.00,0.0237
2680.00,0.0237
2679.00,0.0237
2678.00,0.0236
2677.00,0.0236
2676.00,0.0235
2675.00,0.0236
2674.00,0.0236
2673.00,0.0236
2672.00,0.0236
2671.00,0.0236
2670.00,0.0235
2669.00,0.0235
2668.00,0.0235
2667.00,0.0235
2666.00,0.0236
2665.00,0.0236
2664.00,0.0236
2663.00,0.0236
2662.00,0.0235
2661.00,0.0235
2660.00,0.0235
2659.00,0.0235
2658.00,0.0235
2657.00,0.0236
2656.00,0.0236
2655.00,0.0237
2654.00,0.0237
2653.00,0.0237
2652.00,0.0236
2651.00,0.0235
2650.00,0.0235
2649.00,0.0236
2648.00,0.0236
2647.00,0.0236
2646.00,0.0236
2645.00,0.0236
2644.00,0.0235
2643.00,0.0235
2642.00,0.0235
2641.00,0.0235
2640.00,0.0236
2639.00,0.0236
2638.00,0.0236
2637.00,0.0235
2636.00,0.0235
2635.00,0.0235
2634.00,0.0235
2633.00,0.0235
2632.00,0.0235
2631.00,0.0235
2630.00,0.0236
2629.00,0.0236
2628.00,0.0236
2627.00,0.0235
2626.00,0.0235
2625.00,0.0234
2624.00,0.0234
2623.00,0.0235
2622.00,0.0235
2621.00,0.0235
2620.00,0.0235
2619.00,0.0235
2618.00,0.0234
2617.00,0.0234
2616.00,0.0234
2615.00,0.0235
2614.00,0.0235
2613.00,0.0235
2612.00,0.0235
2611.00,0.0235
2610.00,0.0234
2609.00,0.0234
2608.00,0.0234
2607.00,0.0234
2606.00,0.0235
2605.00,0.0235
2604.00,0.0235
2603.00,0.0234
2602.00,0.0234
2601.00,0.0234
2600.00,0.0234
2599.00,0.0234
2598.00,0.0234
2597.00,0.0234
2596.00,0.0233
2595.00,0.0233
2594.00,0.0233
2593.00,0.0233
2592.00,0.0234
2591.00,0.0234
2590.00,0.0234
2589.00,0.0234
2588.00,0.0233
2587.00,0.0233
2586.00,0.0233
2585.00,0.0234
2584.00,0.0233
2583.00,0.0233
2582.00,0.0233
2581.00,0.0233
2580.00,0.0234
2579.00,0.0233
2578.00,0.0233
2577.00,0.0233
2576.00,0.0234
2575.00,0.0234
2574.00,0.0234
2573.00,0.0233
2572.00,0.0233
2571.00,0.0232
2570.00,0.0232
2569.00,0.0232
2568.00,0.0232
2567.00,0.0233
2566.00,0.0233
2565.00,0.0233
2564.00,0.0233
2563.00,0.0232
2562.00,0.0231
2561.00,0.0230
2560.00,0.0230
2559.00,0.0231
2558.00,0.0231
2557.00,0.0232
2556.00,0.0232
2555.00,0.0232
2554.00,0.0231
2553.00,0.0231
2552.00,0.0232
2551.00,0.0232
2550.00,0.0232
2549.00,0.0232
2548.00,0.0231
2547.00,0.0231
2546.00,0.0230
2545.00,0.0229
2544.00,0.0228
2543.00,0.0228
2542.00,0.0229
2541.00,0.0231
2540.00,0.0232
2539.00,0.0232
2538.00,0.0231
2537.00,0.0230
2536.00,0.0230
2535.00,0.0229
2534.00,0.0229
2533.00,0.0230
2532.00,0.0231
2531.00,0.0231
2530.00,0.0230
2529.00,0.0229
2528.00,0.0228
2527.00,0.0228
2526.00,0.0229
2525.00,0.0230
2524.00,0.0231
2523.00,0.0231
2522.00,0.0231
2521.00,0.0231
2520.00,0.0230
2519.00,0.0229
2518.00,0.0228
2517.00,0.0229
2516.00,0.0230
2515.00,0.0230
2514.00,0.0230
2513.00,0.0229
2512.00,0.0229
2511.00,0.0228
2510.00,0.0227
2509.00,0.0227
2508.00,0.0227
2507.00,0.0228
2506.00,0.0228
2505.00,0.0228
2504.00,0.0227
2503.00,0.0226
2502.00,0.0226
2501.00,0.0226
2500.00,0.0227
2499.00,0.0228
2498.00,0.0229
2497.00,0.0229
2496.00,0.0229
2495.00,0.0227
2494.00,0.0226
2493.00,0.0226
2492.00,0.0227
2491.00,0.0228
2490.00,0.0229
2489.00,0.0229
2488.00,0.0228
2487.00,0.0227
2486.00,0.0226
2485.00,0.0225
2484.00,0.0225
2483.00,0.0226
2482.00,0.0227
2481.00,0.0228
2480.00,0.0227
2479.00,0.0226
2478.00,0.0226
2477.00,0.0225
2476.00,0.0225
2475.00,0.0226
2474.00,0.0226
2473.00,0.0226
2472.00,0.0226
2471.00,0.0226
2470.00,0.0225
2469.00,0.0224
2468.00,0.0224
2467.00,0.0224
2466.00,0.0225
2465.00,0.0225
2464.00,0.0226
2463.00,0.0226
2462.00,0.0226
2461.00,0.0226
2460.00,0.0225
2459.00,0.0225
2458.00,0.0225
2457.00,0.0225
2456.00,0.0225
2455.00,0.0225
2454.00,0.0225
2453.00,0.0225
2452.00,0.0225
2451.00,0.0224
2450.00,0.0224
2449.00,0.0224
2448.00,0.0225
2447.00,0.0225
2446.00,0.0225
2445.00,0.0224
2444.00,0.0223
2443.00,0.0223
2442.00,0.0223
2441.00,0.0223
2440.00,0.0222
2439.00,0.0222
2438.00,0.0222
2437.00,0.0222
2436.00,0.0222
2435.00,0.0221
2434.00,0.0221
2433.00,0.0222
2432.00,0.0222
2431.00,0.0222
2430.00,0.0222
2429.00,0.0222
2428.00,0.0222
2427.00,0.0222
2426.00,0.0222
2425.00,0.0222
2424.00,0.0222
2423.00,0.0222
2422.00,0.0222
2421.00,0.0221
2420.00,0.0220
2419.00,0.0220
2418.00,0.0220
2417.00,0.0220
2416.00,0.0220
2415.00,0.0220
2414.00,0.0220
2413.00,0.0221
2412.00,0.0220
2411.00,0.0219
2410.00,0.0219
2409.00,0.0219
2408.00,0.0219
2407.00,0.0218
2406.00,0.0218
2405.00,0.0217
2404.00,0.0217
2403.00,0.0217
2402.00,0.0217
2401.00,0.0217
2400.00,0.0217
2399.00,0.0217
2398.00,0.0217
2397.00,0.0216
2396.00,0.0216
2395.00,0.0216
2394.00,0.0216
2393.00,0.0216
2392.00,0.0216
2391.00,0.0216
2390.00,0.0215
2389.00,0.0215
2388.00,0.0215
2387.00,0.0214
2386.00,0.0214
2385.00,0.0214
2384.00,0.0214
2383.00,0.0215
2382.00,0.0215
2381.00,0.0215
2380.00,0.0214
2379.00,0.0214
2378.00,0.0214
2377.00,0.0214
2376.00,0.0215
2375.00,0.0215
2374.00,0.0216
2373.00,0.0216
2372.00,0.0215
2371.00,0.0213
2370.00,0.0211
2369.00,0.0212
2368.00,0.0214
2367.00,0.0216
2366.00,0.0218
2365.00,0.0219
2364.00,0.0220
2363.00,0.0219
2362.00,0.0216
2361.00,0.0216
2360.00,0.0218
2359.00,0.0224
2358.00,0.0227
2357.00,0.0229
2356.00,0.0225
2355.00,0.0227
2354.00,0.0215
2353.00,0.0201
2352.00,0.0209
2351.00,0.0208
2350.00,0.0208
2349.00,0.0203
2348.00,0.0197
2347.00,0.0189
2346.00,0.0187
2345.00,0.0180
2344.00,0.0195
2343.00,0.0217
2342.00,0.0215
2341.00,0.0220
2340.00,0.0220
2339.00,0.0222
2338.00,0.0220
2337.00,0.0219
2336.00,0.0217
2335.00,0.0217
2334.00,0.0219
2333.00,0.0220
2332.00,0.0220
2331.00,0.0220
2330.00,0.0220
2329.00,0.0221
2328.00,0.0222
2327.00,0.0222
2326.00,0.0222
2325.00,0.0222
2324.00,0.0222
2323.00,0.0223
2322.00,0.0222
2321.00,0.0222
2320.00,0.0222
2319.00,0.0221
2318.00,0.0221
2317.00,0.0221
2316.00,0.0220
2315.00,0.0219
2314.00,0.0218
2313.00,0.0216
2312.00,0.0214
2311.00,0.0213
2310.00,0.0213
2309.00,0.0214
2308.00,0.0215
2307.00,0.0216
2306.00,0.0216
2305.00,0.0215
2304.00,0.0213
2303.00,0.0211
2302.00,0.0209
2301.00,0.0208
2300.00,0.0208
2299.00,0.0210
2298.00,0.0211
2297.00,0.0211
2296.00,0.0211
2295.00,0.0211
2294.00,0.0211
2293.00,0.0211
2292.00,0.0211
2291.00,0.0211
2290.00,0.0213
2289.00,0.0214
2288.00,0.0214
2287.00,0.0213
2286.00,0.0212
2285.00,0.0211
2284.00,0.0211
2283.00,0.0211
2282.00,0.0211
2281.00,0.0212
2280.00,0.0212
2279.00,0.0211
2278.00,0.0209
2277.00,0.0207
2276.00,0.0206
2275.00,0.0206
2274.00,0.0208
2273.00,0.0209
2272.00,0.0210
2271.00,0.0210
2270.00,0.0209
2269.00,0.0208
2268.00,0.0206
2267.00,0.0206
2266.00,0.0207
2265.00,0.0209
2264.00,0.0210
2263.00,0.0210
2262.00,0.0209
2261.00,0.0208
2260.00,0.0208
2259.00,0.0208
2258.00,0.0207
2257.00,0.0207
2256.00,0.0207
2255.00,0.0208
2254.00,0.0208
2253.00,0.0207
2252.00,0.0206
2251.00,0.0206
2250.00,0.0206
2249.00,0.0207
2248.00,0.0208
2247.00,0.0208
2246.00,0.0208
2245.00,0.0208
2244.00,0.0207
2243.00,0.0207
2242.00,0.0207
2241.00,0.0208
2240.00,0.0209
2239.00,0.0209
2238.00,0.0209
2237.00,0.0209
2236.00,0.0209
2235.00,0.0210
2234.00,0.0210
2233.00,0.0210
2232.00,0.0210
2231.00,0.0210
2230.00,0.0210
2229.00,0.0210
2228.00,0.0209
2227.00,0.0207
2226.00,0.0207
2225.00,0.0208
2224.00,0.0208
2223.00,0.0208
2222.00,0.0208
2221.00,0.0209
2220.00,0.0209
2219.00,0.0208
2218.00,0.0207
2217.00,0.0206
2216.00,0.0207
2215.00,0.0208
2214.00,0.0208
2213.00,0.0207
2212.00,0.0206
2211.00,0.0207
2210.00,0.0208
2209.00,0.0209
2208.00,0.0208
2207.00,0.0207
2206.00,0.0206
2205.00,0.0205
2204.00,0.0203
2203.00,0.0203
2202.00,0.0204
2201.00,0.0207
2200.00,0.0210
2199.00,0.0210
2198.00,0.0209
2197.00,0.0207
2196.00,0.0205
2195.00,0.0204
2194.00,0.0203
2193.00,0.0204
2192.00,0.0206
2191.00,0.0208
2190.00,0.0209
2189.00,0.0207
2188.00,0.0205
2187.00,0.0205
2186.00,0.0206
2185.00,0.0207
2184.00,0.0207
2183.00,0.0206
2182.00,0.0207
2181.00,0.0207
2180.00,0.0206
2179.00,0.0203
2178.00,0.0200
2177.00,0.0200
2176.00,0.0203
2175.00,0.0206
2174.00,0.0208
2173.00,0.0208
2172.00,0.0208
2171.00,0.0207
2170.00,0.0207
2169.00,0.0207
2168.00,0.0207
2167.00,0.0208
2166.00,0.0211
2165.00,0.0212
2164.00,0.0210
2163.00,0.0207
2162.00,0.0203
2161.00,0.0198
2160.00,0.0194
2159.00,0.0192
2158.00,0.0193
2157.00,0.0196
2156.00,0.0197
2155.00,0.0195
2154.00,0.0191
2153.00,0.0189
2152.00,0.0189
2151.00,0.0191
2150.00,0.0193
2149.00,0.0195
2148.00,0.0196
2147.00,0.0196
2146.00,0.0194
2145.00,0.0191
2144.00,0.0189
2143.00,0.0190
2142.00,0.0192
2141.00,0.0195
2140.00,0.0195
2139.00,0.0193
2138.00,0.0190
2137.00,0.0186
2136.00,0.0184
2135.00,0.0182
2134.00,0.0184
2133.00,0.0187
2132.00,0.0190
2131.00,0.0191
2130.00,0.0190
2129.00,0.0188
2128.00,0.0185
2127.00,0.0185
2126.00,0.0186
2125.00,0.0189
2124.00,0.0190
2123.00,0.0192
2122.00,0.0192
2121.00,0.0191
2120.00,0.0189
2119.00,0.0188
2118.00,0.0188
2117.00,0.0190
2116.00,0.0193
2115.00,0.0194
2114.00,0.0194
2113.00,0.0193
2112.00,0.0192
2111.00,0.0191
2110.00,0.0190
2109.00,0.0190
2108.00,0.0191
2107.00,0.0193
2106.00,0.0194
2105.00,0.0193
2104.00,0.0191
2103.00,0.0189
2102.00,0.0188
2101.00,0.0189
2100.00,0.0190
2099.00,0.0190
2098.00,0.0191
2097.00,0.0191
2096.00,0.0190
2095.00,0.0188
2094.00,0.0186
2093.00,0.0185
2092.00,0.0187
2091.00,0.0188
2090.00,0.0188
2089.00,0.0188
2088.00,0.0187
2087.00,0.0187
2086.00,0.0186
2085.00,0.0185
2084.00,0.0186
2083.00,0.0187
2082.00,0.0188
2081.00,0.0188
2080.00,0.0187
2079.00,0.0187
2078.00,0.0187
2077.00,0.0187
2076.00,0.0187
2075.00,0.0186
2074.00,0.0186
2073.00,0.0187
2072.00,0.0188
2071.00,0.0187
2070.00,0.0186
2069.00,0.0185
2068.00,0.0185
2067.00,0.0186
2066.00,0.0186
2065.00,0.0185
2064.00,0.0184
2063.00,0.0183
2062.00,0.0182
2061.00,0.0182
2060.00,0.0182
2059.00,0.0182
2058.00,0.0184
2057.00,0.0184
2056.00,0.0184
2055.00,0.0183
2054.00,0.0183
2053.00,0.0184
2052.00,0.0186
2051.00,0.0187
2050.00,0.0187
2049.00,0.0187
2048.00,0.0187
2047.00,0.0186
2046.00,0.0184
2045.00,0.0183
2044.00,0.0184
2043.00,0.0186
2042.00,0.0188
2041.00,0.0189
2040.00,0.0189
2039.00,0.0188
2038.00,0.0189
2037.00,0.0191
2036.00,0.0191
2035.00,0.0191
2034.00,0.0191
2033.00,0.0191
2032.00,0.0189
2031.00,0.0185
2030.00,0.0182
2029.00,0.0180
2028.00,0.0180
2027.00,0.0182
2026.00,0.0183
2025.00,0.0184
2024.00,0.0185
2023.00,0.0184
2022.00,0.0182
2021.00,0.0179
2020.00,0.0178
2019.00,0.0179
2018.00,0.0183
2017.00,0.0186
2016.00,0.0185
2015.00,0.0184
2014.00,0.0182
2013.00,0.0181
2012.00,0.0180
2011.00,0.0177
2010.00,0.0177
2009.00,0.0179
2008.00,0.0181
2007.00,0.0182
2006.00,0.0180
2005.00,0.0177
2004.00,0.0175
2003.00,0.0175
2002.00,0.0177
2001.00,0.0179
2000.00,0.0180
1999.00,0.0182
1998.00,0.0183
1997.00,0.0182
1996.00,0.0179
1995.00,0.0177
1994.00,0.0177
1993.00,0.0179
1992.00,0.0181
1991.00,0.0182
1990.00,0.0182
1989.00,0.0180
1988.00,0.0178
1987.00,0.0174
1986.00,0.0173
1985.00,0.0175
1984.00,0.0180
1983.00,0.0185
1982.00,0.0187
1981.00,0.0187
1980.00,0.0183
1979.00,0.0179
1978.00,0.0174
1977.00,0.0172
1976.00,0.0173
1975.00,0.0175
1974.00,0.0178
1973.00,0.0178
1972.00,0.0174
1971.00,0.0169
1970.00,0.0166
1969.00,0.0166
1968.00,0.0168
1967.00,0.0171
1966.00,0.0173
1965.00,0.0175
1964.00,0.0175
1963.00,0.0173
1962.00,0.0168
1961.00,0.0164
1960.00,0.0163
1959.00,0.0166
1958.00,0.0169
1957.00,0.0170
1956.00,0.0170
1955.00,0.0167
1954.00,0.0165
1953.00,0.0163
1952.00,0.0162
1951.00,0.0163
1950.00,0.0165
1949.00,0.0169
1948.00,0.0171
1947.00,0.0169
1946.00,0.0166
1945.00,0.0163
1944.00,0.0162
1943.00,0.0161
1942.00,0.0162
1941.00,0.0162
1940.00,0.0163
1939.00,0.0163
1938.00,0.0162
1937.00,0.0161
1936.00,0.0160
1935.00,0.0160
1934.00,0.0161
1933.00,0.0163
1932.00,0.0163
1931.00,0.0162
1930.00,0.0160
1929.00,0.0159
1928.00,0.0156
1927.00,0.0155
1926.00,0.0155
1925.00,0.0157
1924.00,0.0159
1923.00,0.0159
1922.00,0.0158
1921.00,0.0156
1920.00,0.0156
1919.00,0.0155
1918.00,0.0153
1917.00,0.0152
1916.00,0.0152
1915.00,0.0153
1914.00,0.0154
1913.00,0.0154
1912.00,0.0153
1911.00,0.0152
1910.00,0.0151
1909.00,0.0151
1908.00,0.0151
1907.00,0.0150
1906.00,0.0151
1905.00,0.0151
1904.00,0.0150
1903.00,0.0149
1902.00,0.0148
1901.00,0.0147
1900.00,0.0148
1899.00,0.0149
1898.00,0.0149
1897.00,0.0149
1896.00,0.0147
1895.00,0.0146
1894.00,0.0145
1893.00,0.0145
1892.00,0.0146
1891.00,0.0146
1890.00,0.0146
1889.00,0.0145
1888.00,0.0144
1887.00,0.0143
1886.00,0.0142
1885.00,0.0142
1884.00,0.0142
1883.00,0.0142
1882.00,0.0142
1881.00,0.0141
1880.00,0.0141
1879.00,0.0140
1878.00,0.0140
1877.00,0.0139
1876.00,0.0139
1875.00,0.0139
1874.00,0.0139
1873.00,0.0140
1872.00,0.0140
1871.00,0.0141
1870.00,0.0141
1869.00,0.0139
1868.00,0.0135
1867.00,0.0134
1866.00,0.0134
1865.00,0.0136
1864.00,0.0136
1863.00,0.0136
1862.00,0.0134
1861.00,0.0134
1860.00,0.0134
1859.00,0.0133
1858.00,0.0133
1857.00,0.0132
1856.00,0.0131
1855.00,0.0131
1854.00,0.0131
1853.00,0.0131
1852.00,0.0131
1851.00,0.0131
1850.00,0.0131
1849.00,0.0131
1848.00,0.0131
1847.00,0.0130
1846.00,0.0129
1845.00,0.0128
1844.00,0.0125
1843.00,0.0123
1842.00,0.0123
1841.00,0.0124
1840.00,0.0125
1839.00,0.0124
1838.00,0.0124
1837.00,0.0123
1836.00,0.0123
1835.00,0.0123
1834.00,0.0124
1833.00,0.0125
1832.00,0.0126
1831.00,0.0125
1830.00,0.0121
1829.00,0.0117
1828.00,0.0116
1827.00,0.0116
1826.00,0.0117
1825.00,0.0117
1824.00,0.0116
1823.00,0.0115
1822.00,0.0115
1821.00,0.0115
1820.00,0.0116
1819.00,0.0116
1818.00,0.0115
1817.00,0.0114
1816.00,0.0114
1815.00,0.0114
1814.00,0.0114
1813.00,0.0114
1812.00,0.0113
1811.00,0.0111
1810.00,0.0111
1809.00,0.0111
1808.00,0.0112
1807.00,0.0112
1806.00,0.0112
1805.00,0.0113
1804.00,0.0112
1803.00,0.0112
1802.00,0.0111
1801.00,0.0111
1800.00,0.0111
1799.00,0.0112
1798.00,0.0112
1797.00,0.0113
1796.00,0.0114
1795.00,0.0115
1794.00,0.0115
1793.00,0.0114
1792.00,0.0112
1791.00,0.0110
1790.00,0.0110
1789.00,0.0111
1788.00,0.0113
1787.00,0.0115
1786.00,0.0116
1785.00,0.0117
1784.00,0.0117
1783.00,0.0119
1782.00,0.0120
1781.00,0.0120
1780.00,0.0120
1779.00,0.0120
1778.00,0.0121
1777.00,0.0124
1776.00,0.0127
1775.00,0.0130
1774.00,0.0132
1773.00,0.0133
1772.00,0.0131
1771.00,0.0129
1770.00,0.0129
1769.00,0.0130
1768.00,0.0131
1767.00,0.0132
1766.00,0.0135
1765.00,0.0138
1764.00,0.0140
1763.00,0.0140
1762.00,0.0138
1761.00,0.0138
1760.00,0.0139
1759.00,0.0141
1758.00,0.0142
1757.00,0.0143
1756.00,0.0144
1755.00,0.0146
1754.00,0.0148
1753.00,0.0150
1752.00,0.0152
1751.00,0.0154
1750.00,0.0154
1749.00,0.0154
1748.00,0.0154
1747.00,0.0156
1746.00,0.0158
1745.00,0.0159
1744.00,0.0161
1743.00,0.0162
1742.00,0.0165
1741.00,0.0168
1740.00,0.0171
1739.00,0.0173
1738.00,0.0176
1737.00,0.0180
1736.00,0.0184
1735.00,0.0188
1734.00,0.0188
1733.00,0.0188
1732.00,0.0190
1731.00,0.0193
1730.00,0.0195
1729.00,0.0197
1728.00,0.0200
1727.00,0.0204
1726.00,0.0208
1725.00,0.0211
1724.00,0.0214
1723.00,0.0216
1722.00,0.0218
1721.00,0.0221
1720.00,0.0223
1719.00,0.0224
1718.00,0.0226
1717.00,0.0227
1716.00,0.0228
1715.00,0.0228
1714.00,0.0230
1713.00,0.0233
1712.00,0.0235
1711.00,0.0237
1710.00,0.0239
1709.00,0.0240
1708.00,0.0242
1707.00,0.0244
1706.00,0.0245
1705.00,0.0246
1704.00,0.0247
1703.00,0.0248
1702.00,0.0250
1701.00,0.0253
1700.00,0.0255
1699.00,0.0255
1698.00,0.0257
1697.00,0.0258
1696.00,0.0257
1695.00,0.0255
1694.00,0.0255
1693.00,0.0258
1692.00,0.0260
1691.00,0.0262
1690.00,0.0263
1689.00,0.0264
1688.00,0.0265
1687.00,0.0266
1686.00,0.0266
1685.00,0.0267
1684.00,0.0267
1683.00,0.0266
1682.00,0.0269
1681.00,0.0272
1680.00,0.0274
1679.00,0.0276
1678.00,0.0278
1677.00,0.0281
1676.00,0.0284
1675.00,0.0286
1674.00,0.0287
1673.00,0.0289
1672.00,0.0291
1671.00,0.0293
1670.00,0.0295
1669.00,0.0295
1668.00,0.0296
1667.00,0.0298
1666.00,0.0300
1665.00,0.0302
1664.00,0.0304
1663.00,0.0307
1662.00,0.0309
1661.00,0.0310
1660.00,0.0312
1659.00,0.0314
1658.00,0.0316
1657.00,0.0317
1656.00,0.0317
1655.00,0.0316
1654.00,0.0320
1653.00,0.0323
1652.00,0.0324
1651.00,0.0327
1650.00,0.0329
1649.00,0.0332
1648.00,0.0335
1647.00,0.0339
1646.00,0.0339
1645.00,0.0340
1644.00,0.0341
1643.00,0.0344
1642.00,0.0346
1641.00,0.0347
1640.00,0.0348
1639.00,0.0349
1638.00,0.0350
1637.00,0.0352
1636.00,0.0356
1635.00,0.0358
1634.00,0.0361
1633.00,0.0364
1632.00,0.0366
1631.00,0.0368
1630.00,0.0369
1629.00,0.0371
1628.00,0.0373
1627.00,0.0375
1626.00,0.0377
1625.00,0.0379
1624.00,0.0383
1623.00,0.0386
1622.00,0.0388
1621.00,0.0388
1620.00,0.0389
1619.00,0.0390
1618.00,0.0394
1617.00,0.0398
1616.00,0.0401
1615.00,0.0401
1614.00,0.0402
1613.00,0.0403
1612.00,0.0404
1611.00,0.0406
1610.00,0.0408
1609.00,0.0410
1608.00,0.0412
1607.00,0.0414
1606.00,0.0415
1605.00,0.0416
1604.00,0.0417
1603.00,0.0418
1602.00,0.0420
1601.00,0.0421
1600.00,0.0422
1599.00,0.0424
1598.00,0.0426
1597.00,0.0427
1596.00,0.0428
1595.00,0.0428
1594.00,0.0429
1593.00,0.0430
1592.00,0.0430
1591.00,0.0432
1590.00,0.0433
1589.00,0.0434
1588.00,0.0435
1587.00,0.0436
1586.00,0.0437
1585.00,0.0437
1584.00,0.0438
1583.00,0.0439
1582.00,0.0441
1581.00,0.0441
1580.00,0.0441
1579.00,0.0440
1578.00,0.0440
1577.00,0.0441
1576.00,0.0442
1575.00,0.0444
1574.00,0.0445
1573.00,0.0444
1572.00,0.0443
1571.00,0.0443
1570.00,0.0444
1569.00,0.0444
1568.00,0.0444
1567.00,0.0443
1566.00,0.0444
1565.00,0.0444
1564.00,0.0444
1563.00,0.0442
1562.00,0.0438
1561.00,0.0430
1560.00,0.0431
1559.00,0.0439
1558.00,0.0441
1557.00,0.0441
1556.00,0.0441
1555.00,0.0440
1554.00,0.0439
1553.00,0.0437
1552.00,0.0434
1551.00,0.0431
1550.00,0.0429
1549.00,0.0429
1548.00,0.0429
1547.00,0.0428
1546.00,0.0428
1545.00,0.0427
1544.00,0.0426
1543.00,0.0424
1542.00,0.0421
1541.00,0.0419
1540.00,0.0417
1539.00,0.0415
1538.00,0.0415
1537.00,0.0415
1536.00,0.0412
1535.00,0.0409
1534.00,0.0406
1533.00,0.0403
1532.00,0.0401
1531.00,0.0401
1530.00,0.0401
1529.00,0.0400
1528.00,0.0399
1527.00,0.0396
1526.00,0.0394
1525.00,0.0393
1524.00,0.0392
1523.00,0.0391
1522.00,0.0390
1521.00,0.0388
1520.00,0.0385
1519.00,0.0382
1518.00,0.0379
1517.00,0.0376
1516.00,0.0374
1515.00,0.0373
1514.00,0.0374
1513.00,0.0375
1512.00,0.0374
1511.00,0.0373
1510.00,0.0369
1509.00,0.0366
1508.00,0.0364
1507.00,0.0361
1506.00,0.0357
1505.00,0.0359
1504.00,0.0362
1503.00,0.0362
1502.00,0.0360
1501.00,0.0358
1500.00,0.0356
1499.00,0.0355
1498.00,0.0354
1497.00,0.0354
1496.00,0.0354
1495.00,0.0355
1494.00,0.0355
1493.00,0.0355
1492.00,0.0355
1491.00,0.0354
1490.00,0.0354
1489.00,0.0353
1488.00,0.0351
1487.00,0.0350
1486.00,0.0349
1485.00,0.0350
1484.00,0.0350
1483.00,0.0350
1482.00,0.0349
1481.00,0.0349
1480.00,0.0350
1479.00,0.0349
1478.00,0.0349
1477.00,0.0348
1476.00,0.0349
1475.00,0.0350
1474.00,0.0352
1473.00,0.0353
1472.00,0.0352
1471.00,0.0350
1470.00,0.0351
1469.00,0.0351
1468.00,0.0351
1467.00,0.0351
1466.00,0.0351
1465.00,0.0353
1464.00,0.0353
1463.00,0.0354
1462.00,0.0354
1461.00,0.0353
1460.00,0.0353
1459.00,0.0353
1458.00,0.0354
1457.00,0.0355
1456.00,0.0355
1455.00,0.0357
1454.00,0.0357
1453.00,0.0358
1452.00,0.0358
1451.00,0.0359
1450.00,0.0360
1449.00,0.0362
1448.00,0.0363
1447.00,0.0363
1446.00,0.0363
1445.00,0.0363
1444.00,0.0364
1443.00,0.0364
1442.00,0.0365
1441.00,0.0366
1440.00,0.0367
1439.00,0.0368
1438.00,0.0368
1437.00,0.0368
1436.00,0.0369
1435.00,0.0369
1434.00,0.0370
1433.00,0.0370
1432.00,0.0372
1431.00,0.0374
1430.00,0.0375
1429.00,0.0375
1428.00,0.0375
1427.00,0.0374
1426.00,0.0374
1425.00,0.0376
1424.00,0.0377
1423.00,0.0379
1422.00,0.0379
1421.00,0.0378
1420.00,0.0379
1419.00,0.0379
1418.00,0.0378
1417.00,0.0379
1416.00,0.0381
1415.00,0.0384
1414.00,0.0385
1413.00,0.0386
1412.00,0.0386
1411.00,0.0386
1410.00,0.0385
1409.00,0.0385
1408.00,0.0386
1407.00,0.0388
1406.00,0.0390
1405.00,0.0391
1404.00,0.0392
1403.00,0.0392
1402.00,0.0392
1401.00,0.0392
1400.00,0.0394
1399.00,0.0396
1398.00,0.0397
1397.00,0.0399
1396.00,0.0400
1395.00,0.0400
1394.00,0.0399
1393.00,0.0399
1392.00,0.0400
1391.00,0.0401
1390.00,0.0403
1389.00,0.0404
1388.00,0.0406
1387.00,0.0407
1386.00,0.0407
1385.00,0.0407
1384.00,0.0407
1383.00,0.0408
1382.00,0.0409
1381.00,0.0411
1380.00,0.0412
1379.00,0.0412
1378.00,0.0412
1377.00,0.0411
1376.00,0.0410
1375.00,0.0411
1374.00,0.0412
1373.00,0.0413
1372.00,0.0414
1371.00,0.0416
1370.00,0.0416
1369.00,0.0415
1368.00,0.0414
1367.00,0.0414
1366.00,0.0414
1365.00,0.0414
1364.00,0.0415
1363.00,0.0415
1362.00,0.0415
1361.00,0.0414
1360.00,0.0414
1359.00,0.0414
1358.00,0.0413
1357.00,0.0414
1356.00,0.0415
1355.00,0.0415
1354.00,0.0414
1353.00,0.0413
1352.00,0.0412
1351.00,0.0412
1350.00,0.0411
1349.00,0.0411
1348.00,0.0411
1347.00,0.0412
1346.00,0.0411
1345.00,0.0410
1344.00,0.0409
1343.00,0.0408
1342.00,0.0408
1341.00,0.0408
1340.00,0.0408
1339.00,0.0408
1338.00,0.0407
1337.00,0.0407
1336.00,0.0406
1335.00,0.0405
1334.00,0.0404
1333.00,0.0404
1332.00,0.0405
1331.00,0.0406
1330.00,0.0406
1329.00,0.0406
1328.00,0.0405
1327.00,0.0403
1326.00,0.0402
1325.00,0.0401
1324.00,0.0401
1323.00,0.0402
1322.00,0.0404
1321.00,0.0405
1320.00,0.0405
1319.00,0.0404
1318.00,0.0403
1317.00,0.0402
1316.00,0.0402
1315.00,0.0402
1314.00,0.0403
1313.00,0.0403
1312.00,0.0403
1311.00,0.0402
1310.00,0.0401
1309.00,0.0400
1308.00,0.0401
1307.00,0.0402
1306.00,0.0403
1305.00,0.0403
1304.00,0.0403
1303.00,0.0403
1302.00,0.0402
1301.00,0.0402
1300.00,0.0401
1299.00,0.0401
1298.00,0.0403
1297.00,0.0404
1296.00,0.0405
1295.00,0.0405
1294.00,0.0404
1293.00,0.0403
1292.00,0.0404
1291.00,0.0405
1290.00,0.0406
1289.00,0.0407
1288.00,0.0407
1287.00,0.0407
1286.00,0.0407
1285.00,0.0406
1284.00,0.0406
1283.00,0.0407
1282.00,0.0408
1281.00,0.0410
1280.00,0.0410
1279.00,0.0410
1278.00,0.0410
1277.00,0.0410
1276.00,0.0409
1275.00,0.0409
1274.00,0.0410
1273.00,0.0412
1272.00,0.0414
1271.00,0.0415
1270.00,0.0415
1269.00,0.0414
1268.00,0.0413
1267.00,0.0414
1266.00,0.0414
1265.00,0.0416
1264.00,0.0417
1263.00,0.0418
1262.00,0.0419
1261.00,0.0419
1260.00,0.0419
1259.00,0.0419
1258.00,0.0420
1257.00,0.0422
1256.00,0.0424
1255.00,0.0425
1254.00,0.0425
1253.00,0.0425
1252.00,0.0425
1251.00,0.0424
1250.00,0.0424
1249.00,0.0425
1248.00,0.0427
1247.00,0.0429
1246.00,0.0429
1245.00,0.0429
1244.00,0.0428
1243.00,0.0428
1242.00,0.0429
1241.00,0.0430
1240.00,0.0432
1239.00,0.0433
1238.00,0.0434
1237.00,0.0434
1236.00,0.0433
1235.00,0.0432
1234.00,0.0432
1233.00,0.0433
1232.00,0.0435
1231.00,0.0436
1230.00,0.0437
1229.00,0.0437
1228.00,0.0436
1227.00,0.0436
1226.00,0.0435
1225.00,0.0435
1224.00,0.0436
1223.00,0.0438
1222.00,0.0439
1221.00,0.0439
1220.00,0.0437
1219.00,0.0436
1218.00,0.0434
1217.00,0.0433
1216.00,0.0434
1215.00,0.0436
1214.00,0.0438
1213.00,0.0439
1212.00,0.0438
1211.00,0.0436
1210.00,0.0434
1209.00,0.0433
1208.00,0.0435
1207.00,0.0437
1206.00,0.0438
1205.00,0.0439
1204.00,0.0438
1203.00,0.0438
1202.00,0.0436
1201.00,0.0435
1200.00,0.0434
1199.00,0.0435
1198.00,0.0438
1197.00,0.0439
1196.00,0.0439
1195.00,0.0436
1194.00,0.0434
1193.00,0.0433
1192.00,0.0433
1191.00,0.0434
1190.00,0.0436
1189.00,0.0438
1188.00,0.0439
1187.00,0.0438
1186.00,0.0435
1185.00,0.0432
1184.00,0.0432
1183.00,0.0433
1182.00,0.0434
1181.00,0.0436
1180.00,0.0438
1179.00,0.0440
1178.00,0.0439
1177.00,0.0437
1176.00,0.0434
1175.00,0.0434
1174.00,0.0436
1173.00,0.0439
1172.00,0.0441
1171.00,0.0441
1170.00,0.0440
1169.00,0.0438
1168.00,0.0436
1167.00,0.0435
1166.00,0.0436
1165.00,0.0438
1164.00,0.0442
1163.00,0.0444
1162.00,0.0444
1161.00,0.0441
1160.00,0.0437
1159.00,0.0435
1158.00,0.0436
1157.00,0.0438
1156.00,0.0441
1155.00,0.0443
1154.00,0.0444
1153.00,0.0443
1152.00,0.0440
1151.00,0.0438
1150.00,0.0437
1149.00,0.0439
1148.00,0.0442
1147.00,0.0444
1146.00,0.0445
1145.00,0.0445
1144.00,0.0445
1143.00,0.0443
1142.00,0.0441
1141.00,0.0442
1140.00,0.0444
1139.00,0.0448
1138.00,0.0450
1137.00,0.0450
1136.00,0.0449
1135.00,0.0447
1134.00,0.0447
1133.00,0.0447
1132.00,0.0449
1131.00,0.0453
1130.00,0.0456
1129.00,0.0458
1128.00,0.0457
1127.00,0.0455
1126.00,0.0454
1125.00,0.0455
1124.00,0.0458
1123.00,0.0463
1122.00,0.0467
1121.00,0.0470
1120.00,0.0472
1119.00,0.0472
1118.00,0.0473
1117.00,0.0474
1116.00,0.0477
1115.00,0.0481
1114.00,0.0484
1113.00,0.0486
1112.00,0.0486
1111.00,0.0485
1110.00,0.0485
1109.00,0.0486
1108.00,0.0488
1107.00,0.0491
1106.00,0.0494
1105.00,0.0497
1104.00,0.0498
1103.00,0.0498
1102.00,0.0496
1101.00,0.0496
1100.00,0.0498
1099.00,0.0500
1098.00,0.0502
1097.00,0.0503
1096.00,0.0505
1095.00,0.0506
1094.00,0.0506
1093.00,0.0506
1092.00,0.0506
1091.00,0.0508
1090.00,0.0511
1089.00,0.0514
1088.00,0.0514
1087.00,0.0512
1086.00,0.0509
1085.00,0.0507
1084.00,0.0507
1083.00,0.0508
1082.00,0.0510
1081.00,0.0512
1080.00,0.0515
1079.00,0.0515
1078.00,0.0512
1077.00,0.0509
1076.00,0.0508
1075.00,0.0510
1074.00,0.0515
1073.00,0.0519
1072.00,0.0521
1071.00,0.0520
1070.00,0.0517
1069.00,0.0514
1068.00,0.0513
1067.00,0.0514
1066.00,0.0517
1065.00,0.0523
1064.00,0.0527
1063.00,0.0528
1062.00,0.0525
1061.00,0.0522
1060.00,0.0520
1059.00,0.0520
1058.00,0.0522
1057.00,0.0525
1056.00,0.0530
1055.00,0.0533
1054.00,0.0533
1053.00,0.0529
1052.00,0.0526
1051.00,0.0525
1050.00,0.0528
1049.00,0.0534
1048.00,0.0539
1047.00,0.0542
1046.00,0.0542
1045.00,0.0539
1044.00,0.0535
1043.00,0.0531
1042.00,0.0531
1041.00,0.0535
1040.00,0.0541
1039.00,0.0546
1038.00,0.0547
1037.00,0.0545
1036.00,0.0543
1035.00,0.0540
1034.00,0.0538
1033.00,0.0537
1032.00,0.0540
1031.00,0.0543
1030.00,0.0545
1029.00,0.0543
1028.00,0.0537
1027.00,0.0529
1026.00,0.0524
1025.00,0.0522
1024.00,0.0522
1023.00,0.0523
1022.00,0.0523
1021.00,0.0522
1020.00,0.0520
1019.00,0.0516
1018.00,0.0511
1017.00,0.0509
1016.00,0.0511
1015.00,0.0515
1014.00,0.0518
1013.00,0.0519
1012.00,0.0517
1011.00,0.0514
1010.00,0.0511
1009.00,0.0509
1008.00,0.0508
1007.00,0.0509
1006.00,0.0511
1005.00,0.0512
1004.00,0.0510
1003.00,0.0506
1002.00,0.0501
1001.00,0.0498
1000.00,0.0496
999.00,0.0496
998.00,0.0496
997.00,0.0496
996.00,0.0494
995.00,0.0489
994.00,0.0483
993.00,0.0477
992.00,0.0474
991.00,0.0473
990.00,0.0474
989.00,0.0473
988.00,0.0471
987.00,0.0469
986.00,0.0465
985.00,0.0462
984.00,0.0459
983.00,0.0457
982.00,0.0458
981.00,0.0460
980.00,0.0461
979.00,0.0459
978.00,0.0454
977.00,0.0449
976.00,0.0446
975.00,0.0446
974.00,0.0447
973.00,0.0449
972.00,0.0449
971.00,0.0448
970.00,0.0445
969.00,0.0440
968.00,0.0436
967.00,0.0434
966.00,0.0436
965.00,0.0439
964.00,0.0441
963.00,0.0441
962.00,0.0439
961.00,0.0436
960.00,0.0432
959.00,0.0429
958.00,0.0428
957.00,0.0430
956.00,0.0434
955.00,0.0436
954.00,0.0435
953.00,0.0431
952.00,0.0428
951.00,0.0426
950.00,0.0427
949.00,0.0429
948.00,0.0433
947.00,0.0436
946.00,0.0438
945.00,0.0436
944.00,0.0432
943.00,0.0428
942.00,0.0429
941.00,0.0432
940.00,0.0436
939.00,0.0439
938.00,0.0440
937.00,0.0440
936.00,0.0437
935.00,0.0434
934.00,0.0431
933.00,0.0431
932.00,0.0435
931.00,0.0439
930.00,0.0440
929.00,0.0438
928.00,0.0435
927.00,0.0432
926.00,0.0431
925.00,0.0432
924.00,0.0435
923.00,0.0439
922.00,0.0443
921.00,0.0444
920.00,0.0443
919.00,0.0442
918.00,0.0442
917.00,0.0444
916.00,0.0448
915.00,0.0452
914.00,0.0454
913.00,0.0454
912.00,0.0451
911.00,0.0447
910.00,0.0443
909.00,0.0440
908.00,0.0441
907.00,0.0445
906.00,0.0449
905.00,0.0450
904.00,0.0447
903.00,0.0443
902.00,0.0438
901.00,0.0435
900.00,0.0434
899.00,0.0435
898.00,0.0438
897.00,0.0440
896.00,0.0441
895.00,0.0437
894.00,0.0432
893.00,0.0427
892.00,0.0426
891.00,0.0428
890.00,0.0431
889.00,0.0433
888.00,0.0435
887.00,0.0435
886.00,0.0431
885.00,0.0427
884.00,0.0424
883.00,0.0425
882.00,0.0429
881.00,0.0432
880.00,0.0433
879.00,0.0431
878.00,0.0428
877.00,0.0426
876.00,0.0425
875.00,0.0425
874.00,0.0427
873.00,0.0430
872.00,0.0433
871.00,0.0432
870.00,0.0427
869.00,0.0422
868.00,0.0420
867.00,0.0422
866.00,0.0426
865.00,0.0429
864.00,0.0431
863.00,0.0432
862.00,0.0431
861.00,0.0426
860.00,0.0422
859.00,0.0421
858.00,0.0425
857.00,0.0431
856.00,0.0435
855.00,0.0435
854.00,0.0432
853.00,0.0428
852.00,0.0425
851.00,0.0423
850.00,0.0425
849.00,0.0430
848.00,0.0438
847.00,0.0443
846.00,0.0441
845.00,0.0436
844.00,0.0430
843.00,0.0428
842.00,0.0430
841.00,0.0436
840.00,0.0442
839.00,0.0448
838.00,0.0451
837.00,0.0449
836.00,0.0444
835.00,0.0438
834.00,0.0437
833.00,0.0441
832.00,0.0449
831.00,0.0457
830.00,0.0463
829.00,0.0463
828.00,0.0459
827.00,0.0454
826.00,0.0449
825.00,0.0450
824.00,0.0457
823.00,0.0468
822.00,0.0478
821.00,0.0480
820.00,0.0475
819.00,0.0466
818.00,0.0460
817.00,0.0458
816.00,0.0462
815.00,0.0470
814.00,0.0479
813.00,0.0487
812.00,0.0488
811.00,0.0481
810.00,0.0471
809.00,0.0466
808.00,0.0469
807.00,0.0478
806.00,0.0487
805.00,0.0494
804.00,0.0498
803.00,0.0499
802.00,0.0496
801.00,0.0489
800.00,0.0483
799.00,0.0485
798.00,0.0494
797.00,0.0504
796.00,0.0508
795.00,0.0507
794.00,0.0503
793.00,0.0497
792.00,0.0493
791.00,0.0492
790.00,0.0495
789.00,0.0502
788.00,0.0509
787.00,0.0510
786.00,0.0505
785.00,0.0498
784.00,0.0494
783.00,0.0495
782.00,0.0498
781.00,0.0503
780.00,0.0509
779.00,0.0515
778.00,0.0517
777.00,0.0513
776.00,0.0505
775.00,0.0500
774.00,0.0502
773.00,0.0508
772.00,0.0514
771.00,0.0516
770.00,0.0516
769.00,0.0515
768.00,0.0513
767.00,0.0510
766.00,0.0508
765.00,0.0510
764.00,0.0514
763.00,0.0517
762.00,0.0518
761.00,0.0516
760.00,0.0515
759.00,0.0516
758.00,0.0517
757.00,0.0519
756.00,0.0521
755.00,0.0523
754.00,0.0525
753.00,0.0524
752.00,0.0521
751.00,0.0517
750.00,0.0516
749.00,0.0520
748.00,0.0527
747.00,0.0533
746.00,0.0534
745.00,0.0532
744.00,0.0528
743.00,0.0525
742.00,0.0523
741.00,0.0523
740.00,0.0525
739.00,0.0528
738.00,0.0531
737.00,0.0531
736.00,0.0528
735.00,0.0523
734.00,0.0521
733.00,0.0524
732.00,0.0530
731.00,0.0536
730.00,0.0540
729.00,0.0542
728.00,0.0540
727.00,0.0533
726.00,0.0526
725.00,0.0525
724.00,0.0531
723.00,0.0541
722.00,0.0547
721.00,0.0546
720.00,0.0543
719.00,0.0540
718.00,0.0537
717.00,0.0534
716.00,0.0534
715.00,0.0541
714.00,0.0552
713.00,0.0557
712.00,0.0553
711.00,0.0542
710.00,0.0534
709.00,0.0534
708.00,0.0540
707.00,0.0550
706.00,0.0561
705.00,0.0572
704.00,0.0576
703.00,0.0571
702.00,0.0559
701.00,0.0550
700.00,0.0551
699.00,0.0562
698.00,0.0576
697.00,0.0589
696.00,0.0595
695.00,0.0593
694.00,0.0582
693.00,0.0568
692.00,0.0557
691.00,0.0558
690.00,0.0572
689.00,0.0590
688.00,0.0605
687.00,0.0611
686.00,0.0606
685.00,0.0592
684.00,0.0576
683.00,0.0567
682.00,0.0572
681.00,0.0591
680.00,0.0613
679.00,0.0624
678.00,0.0618
677.00,0.0598
676.00,0.0578
675.00,0.0567
674.00,0.0573
673.00,0.0593
672.00,0.0621
671.00,0.0644
670.00,0.0655
669.00,0.0646
668.00,0.0615
667.00,0.0588
666.00,0.0580
665.00,0.0587
664.00,0.0605
663.00,0.0626
662.00,0.0639
661.00,0.0636
660.00,0.0620
659.00,0.0598
658.00,0.0580
657.00,0.0574
656.00,0.0590
655.00,0.0626
654.00,0.0660
653.00,0.0669
652.00,0.0645
651.00,0.0607
650.00,0.0577
