Created as New Dataset,Monday, April 03 2023
cm-1,A
4000.00,0.0220
3999.00,0.0220
3998.00,0.0220
3997.00,0.0220
3996.00,0.0220
3995.00,0.0220
3994.00,0.0220
3993.00,0.0220
3992.00,0.0221
3991.00,0.0221
3990.00,0.0221
3989.00,0.0221
3988.00,0.0221
3987.00,0.0221
3986.00,0.0221
3985.00,0.0221
3984.00,0.0220
3983.00,0.0220
3982.00,0.0220
3981.00,0.0219
3980.00,0.0219
3979.00,0.0220
3978.00,0.0220
3977.00,0.0220
3976.00,0.0220
3975.00,0.0220
3974.00,0.0220
3973.00,0.0220
3972.00,0.0220
3971.00,0.0219
3970.00,0.0219
3969.00,0.0219
3968.00,0.0218
3967.00,0.0218
3966.00,0.0219
3965.00,0.0219
3964.00,0.0219
3963.00,0.0220
3962.00,0.0220
3961.00,0.0219
3960.00,0.0219
3959.00,0.0219
3958.00,0.0219
3957.00,0.0219
3956.00,0.0219
3955.00,0.0219
3954.00,0.0219
3953.00,0.0220
3952.00,0.0220
3951.00,0.0220
3950.00,0.0220
3949.00,0.0219
3948.00,0.0219
3947.00,0.0219
3946.00,0.0219
3945.00,0.0219
3944.00,0.0219
3943.00,0.0218
3942.00,0.0218
3941.00,0.0218
3940.00,0.0218
3939.00,0.0218
3938.00,0.0218
3937.00,0.0219
3936.00,0.0219
3935.00,0.0220
3934.00,0.0220
3933.00,0.0219
3932.00,0.0219
3931.00,0.0218
3930.00,0.0218
3929.00,0.0218
3928.00,0.0218
3927.00,0.0219
3926.00,0.0218
3925.00,0.0217
3924.00,0.0217
3923.00,0.0217
3922.00,0.0217
3921.00,0.0218
3920.00,0.0218
3919.00,0.0218
3918.00,0.0217
3917.00,0.0217
3916.00,0.0216
3915.00,0.0217
3914.00,0.0217
3913.00,0.0217
3912.00,0.0217
3911.00,0.0217
3910.00,0.0217
3909.00,0.0218
3908.00,0.0218
3907.00,0.0218
3906.00,0.0218
3905.00,0.0218
3904.00,0.0218
3903.00,0.0218
3902.00,0.0219
3901.00,0.0218
3900.00,0.0217
3899.00,0.0216
3898.00,0.0216
3897.00,0.0217
3896.00,0.0218
3895.00,0.0218
3894.00,0.0218
3893.00,0.0218
3892.00,0.0217
3891.00,0.0216
3890.00,0.0216
3889.00,0.0218
3888.00,0.0219
3887.00,0.0219
3886.00,0.0219
3885.00,0.0218
3884.00,0.0219
3883.00,0.0220
3882.00,0.0218
3881.00,0.0216
3880.00,0.0214
3879.00,0.0214
3878.00,0.0216
3877.00,0.0218
3876.00,0.0218
3875.00,0.0217
3874.00,0.0217
3873.00,0.0218
3872.00,0.0219
3871.00,0.0219
3870.00,0.0217
3869.00,0.0217
3868.00,0.0218
3867.00,0.0220
3866.00,0.0220
3865.00,0.0218
3864.00,0.0217
3863.00,0.0216
3862.00,0.0216
3861.00,0.0216
3860.00,0.0217
3859.00,0.0217
3858.00,0.0216
3857.00,0.0216
3856.00,0.0216
3855.00,0.0218
3854.00,0.0220
3853.00,0.0219
3852.00,0.0217
3851.00,0.0217
3850.00,0.0218
3849.00,0.0217
3848.00,0.0216
3847.00,0.0216
3846.00,0.0215
3845.00,0.0215
3844.00,0.0215
3843.00,0.0216
3842.00,0.0217
3841.00,0.0218
3840.00,0.0218
3839.00,0.0217
3838.00,0.0217
3837.00,0.0217
3836.00,0.0217
3835.00,0.0217
3834.00,0.0217
3833.00,0.0216
3832.00,0.0216
3831.00,0.0216
3830.00,0.0217
3829.00,0.0217
3828.00,0.0217
3827.00,0.0215
3826.00,0.0214
3825.00,0.0215
3824.00,0.0216
3823.00,0.0217
3822.00,0.0218
3821.00,0.0217
3820.00,0.0217
3819.00,0.0218
3818.00,0.0219
3817.00,0.0217
3816.00,0.0215
3815.00,0.0213
3814.00,0.0214
3813.00,0.0215
3812.00,0.0214
3811.00,0.0214
3810.00,0.0213
3809.00,0.0214
3808.00,0.0214
3807.00,0.0214
3806.00,0.0215
3805.00,0.0217
3804.00,0.0218
3803.00,0.0218
3802.00,0.0217
3801.00,0.0216
3800.00,0.0216
3799.00,0.0216
3798.00,0.0215
3797.00,0.0213
3796.00,0.0211
3795.00,0.0212
3794.00,0.0212
3793.00,0.0212
3792.00,0.0211
3791.00,0.0211
3790.00,0.0211
3789.00,0.0211
3788.00,0.0212
3787.00,0.0212
3786.00,0.0212
3785.00,0.0211
3784.00,0.0211
3783.00,0.0211
3782.00,0.0212
3781.00,0.0212
3780.00,0.0211
3779.00,0.0210
3778.00,0.0210
3777.00,0.0211
3776.00,0.0211
3775.00,0.0211
3774.00,0.0211
3773.00,0.0211
3772.00,0.0211
3771.00,0.0212
3770.00,0.0212
3769.00,0.0212
3768.00,0.0212
3767.00,0.0212
3766.00,0.0211
3765.00,0.0210
3764.00,0.0211
3763.00,0.0212
3762.00,0.0214
3761.00,0.0213
3760.00,0.0213
3759.00,0.0212
3758.00,0.0211
3757.00,0.0211
3756.00,0.0212
3755.00,0.0212
3754.00,0.0213
3753.00,0.0215
3752.00,0.0217
3751.00,0.0218
3750.00,0.0218
3749.00,0.0218
3748.00,0.0217
3747.00,0.0216
3746.00,0.0214
3745.00,0.0212
3744.00,0.0211
3743.00,0.0212
3742.00,0.0214
3741.00,0.0214
3740.00,0.0213
3739.00,0.0212
3738.00,0.0212
3737.00,0.0212
3736.00,0.0212
3735.00,0.0210
3734.00,0.0209
3733.00,0.0208
3732.00,0.0207
3731.00,0.0208
3730.00,0.0208
3729.00,0.0208
3728.00,0.0208
3727.00,0.0207
3726.00,0.0207
3725.00,0.0207
3724.00,0.0207
3723.00,0.0207
3722.00,0.0206
3721.00,0.0206
3720.00,0.0206
3719.00,0.0207
3718.00,0.0207
3717.00,0.0208
3716.00,0.0208
3715.00,0.0208
3714.00,0.0208
3713.00,0.0208
3712.00,0.0208
3711.00,0.0208
3710.00,0.0207
3709.00,0.0207
3708.00,0.0207
3707.00,0.0207
3706.00,0.0207
3705.00,0.0207
3704.00,0.0207
3703.00,0.0206
3702.00,0.0206
3701.00,0.0205
3700.00,0.0205
3699.00,0.0206
3698.00,0.0207
3697.00,0.0207
3696.00,0.0207
3695.00,0.0207
3694.00,0.0208
3693.00,0.0209
3692.00,0.0210
3691.00,0.0211
3690.00,0.0211
3689.00,0.0210
3688.00,0.0209
3687.00,0.0209
3686.00,0.0210
3685.00,0.0210
3684.00,0.0210
3683.00,0.0210
3682.00,0.0210
3681.00,0.0210
3680.00,0.0210
3679.00,0.0210
3678.00,0.0211
3677.00,0.0213
3676.00,0.0213
3675.00,0.0213
3674.00,0.0214
3673.00,0.0218
3672.00,0.0219
3671.00,0.0217
3670.00,0.0215
3669.00,0.0212
3668.00,0.0212
3667.00,0.0213
3666.00,0.0214
3665.00,0.0215
3664.00,0.0216
3663.00,0.0216
3662.00,0.0217
3661.00,0.0217
3660.00,0.0218
3659.00,0.0219
3658.00,0.0221
3657.00,0.0222
3656.00,0.0223
3655.00,0.0224
3654.00,0.0225
3653.00,0.0225
3652.00,0.0226
3651.00,0.0228
3650.00,0.0233
3649.00,0.0235
3648.00,0.0233
3647.00,0.0232
3646.00,0.0232
3645.00,0.0234
3644.00,0.0235
3643.00,0.0235
3642.00,0.0235
3641.00,0.0236
3640.00,0.0236
3639.00,0.0237
3638.00,0.0238
3637.00,0.0238
3636.00,0.0239
3635.00,0.0240
3634.00,0.0240
3633.00,0.0241
3632.00,0.0242
3631.00,0.0244
3630.00,0.0247
3629.00,0.0250
3628.00,0.0252
3627.00,0.0253
3626.00,0.0254
3625.00,0.0254
3624.00,0.0253
3623.00,0.0253
3622.00,0.0254
3621.00,0.0256
3620.00,0.0258
3619.00,0.0260
3618.00,0.0261
3617.00,0.0262
3616.00,0.0262
3615.00,0.0262
3614.00,0.0262
3613.00,0.0262
3612.00,0.0263
3611.00,0.0265
3610.00,0.0266
3609.00,0.0267
3608.00,0.0267
3607.00,0.0268
3606.00,0.0268
3605.00,0.0268
3604.00,0.0269
3603.00,0.0269
3602.00,0.0269
3601.00,0.0270
3600.00,0.0270
3599.00,0.0271
3598.00,0.0271
3597.00,0.0271
3596.00,0.0272
3595.00,0.0273
3594.00,0.0275
3593.00,0.0276
3592.00,0.0277
3591.00,0.0277
3590.00,0.0277
3589.00,0.0278
3588.00,0.0278
3587.00,0.0279
3586.00,0.0280
3585.00,0.0280
3584.00,0.0281
3583.00,0.0281
3582.00,0.0282
3581.00,0.0282
3580.00,0.0283
3579.00,0.0284
3578.00,0.0284
3577.00,0.0285
3576.00,0.0286
3575.00,0.0286
3574.00,0.0287
3573.00,0.0288
3572.00,0.0288
3571.00,0.0288
3570.00,0.0288
3569.00,0.0289
3568.00,0.0292
3567.00,0.0293
3566.00,0.0294
3565.00,0.0294
3564.00,0.0295
3563.00,0.0295
3562.00,0.0295
3561.00,0.0295
3560.00,0.0296
3559.00,0.0296
3558.00,0.0297
3557.00,0.0297
3556.00,0.0297
3555.00,0.0298
3554.00,0.0299
3553.00,0.0300
3552.00,0.0301
3551.00,0.0302
3550.00,0.0302
3549.00,0.0303
3548.00,0.0303
3547.00,0.0305
3546.00,0.0306
3545.00,0.0308
3544.00,0.0308
3543.00,0.0308
3542.00,0.0308
3541.00,0.0307
3540.00,0.0307
3539.00,0.0308
3538.00,0.0309
3537.00,0.0310
3536.00,0.0311
3535.00,0.0312
3534.00,0.0312
3533.00,0.0313
3532.00,0.0313
3531.00,0.0313
3530.00,0.0314
3529.00,0.0314
3528.00,0.0315
3527.00,0.0316
3526.00,0.0317
3525.00,0.0318
3524.00,0.0318
3523.00,0.0318
3522.00,0.0318
3521.00,0.0319
3520.00,0.0319
3519.00,0.0319
3518.00,0.0319
3517.00,0.0320
3516.00,0.0321
3515.00,0.0321
3514.00,0.0322
3513.00,0.0322
3512.00,0.0322
3511.00,0.0323
3510.00,0.0324
3509.00,0.0325
3508.00,0.0325
3507.00,0.0325
3506.00,0.0326
3505.00,0.0326
3504.00,0.0327
3503.00,0.0328
3502.00,0.0329
3501.00,0.0329
3500.00,0.0329
3499.00,0.0329
3498.00,0.0330
3497.00,0.0330
3496.00,0.0331
3495.00,0.0332
3494.00,0.0333
3493.00,0.0333
3492.00,0.0333
3491.00,0.0333
3490.00,0.0334
3489.00,0.0334
3488.00,0.0334
3487.00,0.0335
3486.00,0.0335
3485.00,0.0336
3484.00,0.0336
3483.00,0.0337
3482.00,0.0338
3481.00,0.0339
3480.00,0.0339
3479.00,0.0339
3478.00,0.0339
3477.00,0.0339
3476.00,0.0340
3475.00,0.0341
3474.00,0.0342
3473.00,0.0342
3472.00,0.0343
3471.00,0.0343
3470.00,0.0343
3469.00,0.0343
3468.00,0.0344
3467.00,0.0344
3466.00,0.0345
3465.00,0.0345
3464.00,0.0346
3463.00,0.0346
3462.00,0.0346
3461.00,0.0347
3460.00,0.0347
3459.00,0.0348
3458.00,0.0348
3457.00,0.0349
3456.00,0.0349
3455.00,0.0349
3454.00,0.0349
3453.00,0.0350
3452.00,0.0350
3451.00,0.0351
3450.00,0.0352
3449.00,0.0353
3448.00,0.0353
3447.00,0.0354
3446.00,0.0355
3445.00,0.0355
3444.00,0.0355
3443.00,0.0355
3442.00,0.0355
3441.00,0.0355
3440.00,0.0355
3439.00,0.0356
3438.00,0.0356
3437.00,0.0356
3436.00,0.0357
3435.00,0.0357
3434.00,0.0357
3433.00,0.0358
3432.00,0.0359
3431.00,0.0359
3430.00,0.0360
3429.00,0.0360
3428.00,0.0360
3427.00,0.0360
3426.00,0.0361
3425.00,0.0361
3424.00,0.0361
3423.00,0.0362
3422.00,0.0362
3421.00,0.0363
3420.00,0.0363
3419.00,0.0363
3418.00,0.0364
3417.00,0.0364
3416.00,0.0364
3415.00,0.0364
3414.00,0.0365
3413.00,0.0365
3412.00,0.0365
3411.00,0.0365
3410.00,0.0365
3409.00,0.0365
3408.00,0.0365
3407.00,0.0366
3406.00,0.0366
3405.00,0.0367
3404.00,0.0368
3403.00,0.0368
3402.00,0.0368
3401.00,0.0368
3400.00,0.0368
3399.00,0.0368
3398.00,0.0368
3397.00,0.0368
3396.00,0.0369
3395.00,0.0369
3394.00,0.0370
3393.00,0.0371
3392.00,0.0371
3391.00,0.0372
3390.00,0.0371
3389.00,0.0371
3388.00,0.0372
3387.00,0.0372
3386.00,0.0372
3385.00,0.0373
3384.00,0.0373
3383.00,0.0372
3382.00,0.0372
3381.00,0.0373
3380.00,0.0373
3379.00,0.0374
3378.00,0.0374
3377.00,0.0375
3376.00,0.0375
3375.00,0.0375
3374.00,0.0376
3373.00,0.0376
3372.00,0.0376
3371.00,0.0376
3370.00,0.0376
3369.00,0.0375
3368.00,0.0375
3367.00,0.0376
3366.00,0.0376
3365.00,0.0377
3364.00,0.0378
3363.00,0.0378
3362.00,0.0378
3361.00,0.0378
3360.00,0.0378
3359.00,0.0378
3358.00,0.0378
3357.00,0.0378
3356.00,0.0378
3355.00,0.0379
3354.00,0.0379
3353.00,0.0379
3352.00,0.0380
3351.00,0.0380
3350.00,0.0381
3349.00,0.0381
3348.00,0.0380
3347.00,0.0380
3346.00,0.0379
3345.00,0.0379
3344.00,0.0379
3343.00,0.0379
3342.00,0.0379
3341.00,0.0380
3340.00,0.0380
3339.00,0.0380
3338.00,0.0380
3337.00,0.0381
3336.00,0.0381
3335.00,0.0381
3334.00,0.0381
3333.00,0.0381
3332.00,0.0381
3331.00,0.0381
3330.00,0.0381
3329.00,0.0381
3328.00,0.0382
3327.00,0.0382
3326.00,0.0382
3325.00,0.0382
3324.00,0.0382
3323.00,0.0382
3322.00,0.0382
3321.00,0.0382
3320.00,0.0382
3319.00,0.0382
3318.00,0.0383
3317.00,0.0383
3316.00,0.0383
3315.00,0.0382
3314.00,0.0382
3313.00,0.0382
3312.00,0.0382
3311.00,0.0382
3310.00,0.0383
3309.00,0.0383
3308.00,0.0383
3307.00,0.0383
3306.00,0.0383
3305.00,0.0383
3304.00,0.0383
3303.00,0.0383
3302.00,0.0383
3301.00,0.0383
3300.00,0.0384
3299.00,0.0384
3298.00,0.0384
3297.00,0.0384
3296.00,0.0384
3295.00,0.0384
3294.00,0.0384
3293.00,0.0384
3292.00,0.0385
3291.00,0.0385
3290.00,0.0385
3289.00,0.0385
3288.00,0.0385
3287.00,0.0385
3286.00,0.0385
3285.00,0.0385
3284.00,0.0385
3283.00,0.0385
3282.00,0.0385
3281.00,0.0385
3280.00,0.0385
3279.00,0.0385
3278.00,0.0385
3277.00,0.0385
3276.00,0.0386
3275.00,0.0386
3274.00,0.0387
3273.00,0.0387
3272.00,0.0387
3271.00,0.0386
3270.00,0.0386
3269.00,0.0386
3268.00,0.0386
3267.00,0.0386
3266.00,0.0386
3265.00,0.0387
3264.00,0.0387
3263.00,0.0386
3262.00,0.0386
3261.00,0.0386
3260.00,0.0386
3259.00,0.0386
3258.00,0.0386
3257.00,0.0387
3256.00,0.0388
3255.00,0.0388
3254.00,0.0388
3253.00,0.0388
3252.00,0.0388
3251.00,0.0388
3250.00,0.0388
3249.00,0.0388
3248.00,0.0388
3247.00,0.0389
3246.00,0.0389
3245.00,0.0390
3244.00,0.0390
3243.00,0.0390
3242.00,0.0390
3241.00,0.0390
3240.00,0.0390
3239.00,0.0390
3238.00,0.0391
3237.00,0.0391
3236.00,0.0391
3235.00,0.0391
3234.00,0.0391
3233.00,0.0391
3232.00,0.0391
3231.00,0.0391
3230.00,0.0390
3229.00,0.0390
3228.00,0.0390
3227.00,0.0391
3226.00,0.0391
3225.00,0.0391
3224.00,0.0391
3223.00,0.0391
3222.00,0.0391
3221.00,0.0391
3220.00,0.0392
3219.00,0.0392
3218.00,0.0392
3217.00,0.0392
3216.00,0.0391
3215.00,0.0391
3214.00,0.0391
3213.00,0.0391
3212.00,0.0391
3211.00,0.0391
3210.00,0.0391
3209.00,0.0391
3208.00,0.0391
3207.00,0.0392
3206.00,0.0392
3205.00,0.0392
3204.00,0.0392
3203.00,0.0391
3202.00,0.0391
3201.00,0.0392
3200.00,0.0392
3199.00,0.0393
3198.00,0.0393
3197.00,0.0393
3196.00,0.0393
3195.00,0.0393
3194.00,0.0392
3193.00,0.0392
3192.00,0.0392
3191.00,0.0392
3190.00,0.0392
3189.00,0.0393
3188.00,0.0393
3187.00,0.0393
3186.00,0.0393
3185.00,0.0393
3184.00,0.0393
3183.00,0.0392
3182.00,0.0392
3181.00,0.0391
3180.00,0.0391
3179.00,0.0391
3178.00,0.0391
3177.00,0.0391
3176.00,0.0392
3175.00,0.0392
3174.00,0.0392
3173.00,0.0392
3172.00,0.0391
3171.00,0.0391
3170.00,0.0392
3169.00,0.0392
3168.00,0.0392
3167.00,0.0391
3166.00,0.0391
3165.00,0.0391
3164.00,0.0391
3163.00,0.0391
3162.00,0.0392
3161.00,0.0392
3160.00,0.0392
3159.00,0.0392
3158.00,0.0391
3157.00,0.0391
3156.00,0.0391
3155.00,0.0390
3154.00,0.0390
3153.00,0.0390
3152.00,0.0390
3151.00,0.0390
3150.00,0.0390
3149.00,0.0390
3148.00,0.0390
3147.00,0.0390
3146.00,0.0390
3145.00,0.0390
3144.00,0.0390
3143.00,0.0390
3142.00,0.0390
3141.00,0.0389
3140.00,0.0390
3139.00,0.0390
3138.00,0.0390
3137.00,0.0390
3136.00,0.0390
3135.00,0.0389
3134.00,0.0389
3133.00,0.0388
3132.00,0.0388
3131.00,0.0388
3130.00,0.0389
3129.00,0.0389
3128.00,0.0389
3127.00,0.0389
3126.00,0.0389
3125.00,0.0389
3124.00,0.0389
3123.00,0.0389
3122.00,0.0389
3121.00,0.0389
3120.00,0.0389
3119.00,0.0389
3118.00,0.0389
3117.00,0.0389
3116.00,0.0388
3115.00,0.0388
3114.00,0.0388
3113.00,0.0388
3112.00,0.0388
3111.00,0.0387
3110.00,0.0387
3109.00,0.0387
3108.00,0.0387
3107.00,0.0387
3106.00,0.0387
3105.00,0.0388
3104.00,0.0388
3103.00,0.0388
3102.00,0.0388
3101.00,0.0388
3100.00,0.0387
3099.00,0.0387
3098.00,0.0386
3097.00,0.0386
3096.00,0.0386
3095.00,0.0386
3094.00,0.0387
3093.00,0.0387
3092.00,0.0387
3091.00,0.0387
3090.00,0.0387
3089.00,0.0387
3088.00,0.0387
3087.00,0.0387
3086.00,0.0386
3085.00,0.0386
3084.00,0.0385
3083.00,0.0385
3082.00,0.0386
3081.00,0.0386
3080.00,0.0386
3079.00,0.0387
3078.00,0.0386
3077.00,0.0386
3076.00,0.0386
3075.00,0.0386
3074.00,0.0386
3073.00,0.0385
3072.00,0.0385
3071.00,0.0384
3070.00,0.0384
3069.00,0.0384
3068.00,0.0384
3067.00,0.0384
3066.00,0.0384
3065.00,0.0385
3064.00,0.0385
3063.00,0.0385
3062.00,0.0384
3061.00,0.0384
3060.00,0.0383
3059.00,0.0383
3058.00,0.0382
3057.00,0.0382
3056.00,0.0382
3055.00,0.0382
3054.00,0.0382
3053.00,0.0382
3052.00,0.0382
3051.00,0.0382
3050.00,0.0381
3049.00,0.0381
3048.00,0.0381
3047.00,0.0381
3046.00,0.0381
3045.00,0.0381
3044.00,0.0381
3043.00,0.0381
3042.00,0.0381
3041.00,0.0381
3040.00,0.0380
3039.00,0.0380
3038.00,0.0379
3037.00,0.0379
3036.00,0.0379
3035.00,0.0379
3034.00,0.0378
3033.00,0.0378
3032.00,0.0377
3031.00,0.0377
3030.00,0.0377
3029.00,0.0377
3028.00,0.0376
3027.00,0.0376
3026.00,0.0376
3025.00,0.0376
3024.00,0.0376
3023.00,0.0376
3022.00,0.0375
3021.00,0.0375
3020.00,0.0375
3019.00,0.0375
3018.00,0.0374
3017.00,0.0374
3016.00,0.0375
3015.00,0.0375
3014.00,0.0375
3013.00,0.0374
3012.00,0.0374
3011.00,0.0374
3010.00,0.0373
3009.00,0.0372
3008.00,0.0372
3007.00,0.0372
3006.00,0.0372
3005.00,0.0372
3004.00,0.0372
3003.00,0.0371
3002.00,0.0371
3001.00,0.0371
3000.00,0.0371
2999.00,0.0371
2998.00,0.0370
2997.00,0.0370
2996.00,0.0370
2995.00,0.0370
2994.00,0.0370
2993.00,0.0369
2992.00,0.0369
2991.00,0.0369
2990.00,0.0369
2989.00,0.0368
2988.00,0.0368
2987.00,0.0368
2986.00,0.0368
2985.00,0.0367
2984.00,0.0367
2983.00,0.0366
2982.00,0.0366
2981.00,0.0365
2980.00,0.0365
2979.00,0.0365
2978.00,0.0365
2977.00,0.0365
2976.00,0.0365
2975.00,0.0365
2974.00,0.0365
2973.00,0.0365
2972.00,0.0364
2971.00,0.0364
2970.00,0.0363
2969.00,0.0363
2968.00,0.0363
2967.00,0.0362
2966.00,0.0362
2965.00,0.0362
2964.00,0.0362
2963.00,0.0362
2962.00,0.0361
2961.00,0.0361
2960.00,0.0360
2959.00,0.0360
2958.00,0.0360
2957.00,0.0360
2956.00,0.0360
2955.00,0.0360
2954.00,0.0359
2953.00,0.0360
2952.00,0.0360
2951.00,0.0360
2950.00,0.0360
2949.00,0.0359
2948.00,0.0359
2947.00,0.0359
2946.00,0.0359
2945.00,0.0359
2944.00,0.0358
2943.00,0.0358
2942.00,0.0358
2941.00,0.0357
2940.00,0.0357
2939.00,0.0356
2938.00,0.0356
2937.00,0.0355
2936.00,0.0354
2935.00,0.0354
2934.00,0.0353
2933.00,0.0352
2932.00,0.0352
2931.00,0.0351
2930.00,0.0350
2929.00,0.0350
2928.00,0.0349
2927.00,0.0349
2926.00,0.0349
2925.00,0.0348
2924.00,0.0348
2923.00,0.0348
2922.00,0.0348
2921.00,0.0348
2920.00,0.0348
2919.00,0.0348
2918.00,0.0348
2917.00,0.0347
2916.00,0.0347
2915.00,0.0347
2914.00,0.0348
2913.00,0.0349
2912.00,0.0349
2911.00,0.0349
2910.00,0.0349
2909.00,0.0349
2908.00,0.0349
2907.00,0.0350
2906.00,0.0350
2905.00,0.0350
2904.00,0.0350
2903.00,0.0350
2902.00,0.0350
2901.00,0.0350
2900.00,0.0350
2899.00,0.0350
2898.00,0.0349
2897.00,0.0349
2896.00,0.0349
2895.00,0.0349
2894.00,0.0348
2893.00,0.0348
2892.00,0.0347
2891.00,0.0347
2890.00,0.0348
2889.00,0.0348
2888.00,0.0348
2887.00,0.0349
2886.00,0.0349
2885.00,0.0348
2884.00,0.0348
2883.00,0.0348
2882.00,0.0347
2881.00,0.0347
2880.00,0.0347
2879.00,0.0347
2878.00,0.0346
2877.00,0.0346
2876.00,0.0346
2875.00,0.0345
2874.00,0.0345
2873.00,0.0345
2872.00,0.0344
2871.00,0.0344
2870.00,0.0343
2869.00,0.0343
2868.00,0.0343
2867.00,0.0342
2866.00,0.0342
2865.00,0.0341
2864.00,0.0341
2863.00,0.0341
2862.00,0.0341
2861.00,0.0341
2860.00,0.0341
2859.00,0.0340
2858.00,0.0339
2857.00,0.0339
2856.00,0.0338
2855.00,0.0338
2854.00,0.0337
2853.00,0.0337
2852.00,0.0337
2851.00,0.0337
2850.00,0.0337
2849.00,0.0337
2848.00,0.0337
2847.00,0.0338
2846.00,0.0338
2845.00,0.0338
2844.00,0.0339
2843.00,0.0339
2842.00,0.0339
2841.00,0.0339
2840.00,0.0339
2839.00,0.0339
2838.00,0.0339
2837.00,0.0339
2836.00,0.0338
2835.00,0.0338
2834.00,0.0338
2833.00,0.0338
2832.00,0.0338
2831.00,0.0337
2830.00,0.0337
2829.00,0.0337
2828.00,0.0337
2827.00,0.0336
2826.00,0.0336
2825.00,0.0336
2824.00,0.0336
2823.00,0.0336
2822.00,0.0336
2821.00,0.0336
2820.00,0.0336
2819.00,0.0336
2818.00,0.0335
2817.00,0.0335
2816.00,0.0335
2815.00,0.0335
2814.00,0.0335
2813.00,0.0335
2812.00,0.0334
2811.00,0.0334
2810.00,0.0334
2809.00,0.0334
2808.00,0.0333
2807.00,0.0333
2806.00,0.0333
2805.00,0.0333
2804.00,0.0332
2803.00,0.0332
2802.00,0.0332
2801.00,0.0332
2800.00,0.0331
2799.00,0.0331
2798.00,0.0331
2797.00,0.0331
2796.00,0.0331
2795.00,0.0331
2794.00,0.0331
2793.00,0.0330
2792.00,0.0330
2791.00,0.0330
2790.00,0.0330
2789.00,0.0329
2788.00,0.0329
2787.00,0.0329
2786.00,0.0329
2785.00,0.0329
2784.00,0.0328
2783.00,0.0328
2782.00,0.0328
2781.00,0.0327
2780.00,0.0327
2779.00,0.0327
2778.00,0.0327
2777.00,0.0327
2776.00,0.0327
2775.00,0.0326
2774.00,0.0326
2773.00,0.0326
2772.00,0.0326
2771.00,0.0326
2770.00,0.0326
2769.00,0.0326
2768.00,0.0326
2767.00,0.0326
2766.00,0.0325
2765.00,0.0325
2764.00,0.0325
2763.00,0.0324
2762.00,0.0324
2761.00,0.0324
2760.00,0.0324
2759.00,0.0324
2758.00,0.0324
2757.00,0.0323
2756.00,0.0323
2755.00,0.0323
2754.00,0.0323
2753.00,0.0323
2752.00,0.0323
2751.00,0.0323
2750.00,0.0322
2749.00,0.0322
2748.00,0.0322
2747.00,0.0322
2746.00,0.0321
2745.00,0.0321
2744.00,0.0320
2743.00,0.0320
2742.00,0.0320
2741.00,0.0320
2740.00,0.0320
2739.00,0.0320
2738.00,0.0320
2737.00,0.0320
2736.00,0.0319
2735.00,0.0319
2734.00,0.0319
2733.00,0.0319
2732.00,0.0318
2731.00,0.0318
2730.00,0.0318
2729.00,0.0318
2728.00,0.0318
2727.00,0.0318
2726.00,0.0318
2725.00,0.0318
2724.00,0.0317
2723.00,0.0317
2722.00,0.0317
2721.00,0.0317
2720.00,0.0317
2719.00,0.0317
2718.00,0.0317
2717.00,0.0317
2716.00,0.0316
2715.00,0.0316
2714.00,0.0316
2713.00,0.0316
2712.00,0.0315
2711.00,0.0315
2710.00,0.0314
2709.00,0.0314
2708.00,0.0314
2707.00,0.0314
2706.00,0.0314
2705.00,0.0314
2704.00,0.0313
2703.00,0.0313
2702.00,0.0313
2701.00,0.0313
2700.00,0.0313
2699.00,0.0312
2698.00,0.0313
2697.00,0.0313
2696.00,0.0313
2695.00,0.0312
2694.00,0.0312
2693.00,0.0312
2692.00,0.0312
2691.00,0.0311
2690.00,0.0311
2689.00,0.0311
2688.00,0.0311
2687.00,0.0311
2686.00,0.0311
2685.00,0.0310
2684.00,0.0310
2683.00,0.0310
2682.00,0.0310
2681.00,0.0310
2680.00,0.0310
2679.00,0.0310
2678.00,0.0310
2677.00,0.0310
2676.00,0.0309
2675.00,0.0309
2674.00,0.0309
2673.00,0.0309
2672.00,0.0309
2671.00,0.0309
2670.00,0.0309
2669.00,0.0309
2668.00,0.0309
2667.00,0.0309
2666.00,0.0309
2665.00,0.0310
2664.00,0.0310
2663.00,0.0310
2662.00,0.0310
2661.00,0.0310
2660.00,0.0310
2659.00,0.0310
2658.00,0.0310
2657.00,0.0310
2656.00,0.0310
2655.00,0.0310
2654.00,0.0310
2653.00,0.0311
2652.00,0.0311
2651.00,0.0311
2650.00,0.0311
2649.00,0.0310
2648.00,0.0310
2647.00,0.0310
2646.00,0.0310
2645.00,0.0310
2644.00,0.0310
2643.00,0.0310
2642.00,0.0310
2641.00,0.0310
2640.00,0.0310
2639.00,0.0310
2638.00,0.0310
2637.00,0.0310
2636.00,0.0310
2635.00,0.0310
2634.00,0.0310
2633.00,0.0310
2632.00,0.0310
2631.00,0.0310
2630.00,0.0310
2629.00,0.0311
2628.00,0.0311
2627.00,0.0311
2626.00,0.0310
2625.00,0.0310
2624.00,0.0310
2623.00,0.0310
2622.00,0.0310
2621.00,0.0311
2620.00,0.0310
2619.00,0.0310
2618.00,0.0309
2617.00,0.0309
2616.00,0.0309
2615.00,0.0309
2614.00,0.0310
2613.00,0.0311
2612.00,0.0311
2611.00,0.0311
2610.00,0.0311
2609.00,0.0311
2608.00,0.0311
2607.00,0.0311
2606.00,0.0312
2605.00,0.0311
2604.00,0.0311
2603.00,0.0310
2602.00,0.0310
2601.00,0.0310
2600.00,0.0310
2599.00,0.0310
2598.00,0.0310
2597.00,0.0309
2596.00,0.0309
2595.00,0.0309
2594.00,0.0309
2593.00,0.0310
2592.00,0.0310
2591.00,0.0310
2590.00,0.0309
2589.00,0.0309
2588.00,0.0309
2587.00,0.0309
2586.00,0.0309
2585.00,0.0309
2584.00,0.0309
2583.00,0.0310
2582.00,0.0310
2581.00,0.0310
2580.00,0.0310
2579.00,0.0310
2578.00,0.0310
2577.00,0.0310
2576.00,0.0310
2575.00,0.0309
2574.00,0.0309
2573.00,0.0308
2572.00,0.0307
2571.00,0.0307
2570.00,0.0308
2569.00,0.0308
2568.00,0.0309
2567.00,0.0309
2566.00,0.0310
2565.00,0.0310
2564.00,0.0310
2563.00,0.0309
2562.00,0.0309
2561.00,0.0308
2560.00,0.0308
2559.00,0.0308
2558.00,0.0308
2557.00,0.0308
2556.00,0.0308
2555.00,0.0308
2554.00,0.0308
2553.00,0.0308
2552.00,0.0308
2551.00,0.0308
2550.00,0.0308
2549.00,0.0308
2548.00,0.0308
2547.00,0.0307
2546.00,0.0307
2545.00,0.0307
2544.00,0.0307
2543.00,0.0307
2542.00,0.0307
2541.00,0.0307
2540.00,0.0307
2539.00,0.0307
2538.00,0.0307
2537.00,0.0307
2536.00,0.0307
2535.00,0.0307
2534.00,0.0307
2533.00,0.0307
2532.00,0.0307
2531.00,0.0306
2530.00,0.0306
2529.00,0.0306
2528.00,0.0306
2527.00,0.0306
2526.00,0.0306
2525.00,0.0306
2524.00,0.0306
2523.00,0.0306
2522.00,0.0306
2521.00,0.0306
2520.00,0.0305
2519.00,0.0305
2518.00,0.0305
2517.00,0.0304
2516.00,0.0304
2515.00,0.0305
2514.00,0.0305
2513.00,0.0305
2512.00,0.0305
2511.00,0.0305
2510.00,0.0304
2509.00,0.0304
2508.00,0.0303
2507.00,0.0304
2506.00,0.0304
2505.00,0.0304
2504.00,0.0304
2503.00,0.0304
2502.00,0.0304
2501.00,0.0304
2500.00,0.0303
2499.00,0.0303
2498.00,0.0303
2497.00,0.0304
2496.00,0.0305
2495.00,0.0305
2494.00,0.0305
2493.00,0.0304
2492.00,0.0304
2491.00,0.0303
2490.00,0.0303
2489.00,0.0303
2488.00,0.0302
2487.00,0.0302
2486.00,0.0302
2485.00,0.0302
2484.00,0.0302
2483.00,0.0302
2482.00,0.0302
2481.00,0.0301
2480.00,0.0301
2479.00,0.0302
2478.00,0.0302
2477.00,0.0302
2476.00,0.0302
2475.00,0.0302
2474.00,0.0302
2473.00,0.0301
2472.00,0.0301
2471.00,0.0301
2470.00,0.0301
2469.00,0.0300
2468.00,0.0300
2467.00,0.0300
2466.00,0.0300
2465.00,0.0301
2464.00,0.0301
2463.00,0.0301
2462.00,0.0301
2461.00,0.0301
2460.00,0.0302
2459.00,0.0302
2458.00,0.0301
2457.00,0.0301
2456.00,0.0300
2455.00,0.0300
2454.00,0.0300
2453.00,0.0300
2452.00,0.0300
2451.00,0.0301
2450.00,0.0301
2449.00,0.0300
2448.00,0.0300
2447.00,0.0299
2446.00,0.0299
2445.00,0.0299
2444.00,0.0299
2443.00,0.0299
2442.00,0.0299
2441.00,0.0298
2440.00,0.0298
2439.00,0.0298
2438.00,0.0298
2437.00,0.0298
2436.00,0.0297
2435.00,0.0297
2434.00,0.0298
2433.00,0.0298
2432.00,0.0298
2431.00,0.0297
2430.00,0.0297
2429.00,0.0296
2428.00,0.0296
2427.00,0.0296
2426.00,0.0296
2425.00,0.0296
2424.00,0.0296
2423.00,0.0296
2422.00,0.0296
2421.00,0.0296
2420.00,0.0296
2419.00,0.0295
2418.00,0.0295
2417.00,0.0294
2416.00,0.0294
2415.00,0.0294
2414.00,0.0294
2413.00,0.0294
2412.00,0.0294
2411.00,0.0294
2410.00,0.0293
2409.00,0.0292
2408.00,0.0292
2407.00,0.0292
2406.00,0.0292
2405.00,0.0292
2404.00,0.0292
2403.00,0.0292
2402.00,0.0292
2401.00,0.0291
2400.00,0.0291
2399.00,0.0290
2398.00,0.0290
2397.00,0.0290
2396.00,0.0290
2395.00,0.0290
2394.00,0.0290
2393.00,0.0289
2392.00,0.0289
2391.00,0.0289
2390.00,0.0288
2389.00,0.0288
2388.00,0.0288
2387.00,0.0287
2386.00,0.0287
2385.00,0.0286
2384.00,0.0284
2383.00,0.0283
2382.00,0.0281
2381.00,0.0279
2380.00,0.0278
2379.00,0.0277
2378.00,0.0277
2377.00,0.0278
2376.00,0.0280
2375.00,0.0281
2374.00,0.0281
2373.00,0.0281
2372.00,0.0280
2371.00,0.0279
2370.00,0.0278
2369.00,0.0278
2368.00,0.0279
2367.00,0.0280
2366.00,0.0279
2365.00,0.0278
2364.00,0.0276
2363.00,0.0274
2362.00,0.0273
2361.00,0.0274
2360.00,0.0275
2359.00,0.0277
2358.00,0.0278
2357.00,0.0279
2356.00,0.0281
2355.00,0.0281
2354.00,0.0280
2353.00,0.0280
2352.00,0.0279
2351.00,0.0277
2350.00,0.0274
2349.00,0.0270
2348.00,0.0265
2347.00,0.0261
2346.00,0.0261
2345.00,0.0264
2344.00,0.0268
2343.00,0.0270
2342.00,0.0273
2341.00,0.0275
2340.00,0.0278
2339.00,0.0279
2338.00,0.0279
2337.00,0.0279
2336.00,0.0279
2335.00,0.0279
2334.00,0.0279
2333.00,0.0279
2332.00,0.0280
2331.00,0.0281
2330.00,0.0283
2329.00,0.0285
2328.00,0.0287
2327.00,0.0288
2326.00,0.0288
2325.00,0.0288
2324.00,0.0287
2323.00,0.0287
2322.00,0.0288
2321.00,0.0289
2320.00,0.0290
2319.00,0.0290
2318.00,0.0290
2317.00,0.0289
2316.00,0.0288
2315.00,0.0286
2314.00,0.0284
2313.00,0.0283
2312.00,0.0283
2311.00,0.0284
2310.00,0.0284
2309.00,0.0285
2308.00,0.0285
2307.00,0.0285
2306.00,0.0285
2305.00,0.0285
2304.00,0.0284
2303.00,0.0283
2302.00,0.0282
2301.00,0.0281
2300.00,0.0281
2299.00,0.0280
2298.00,0.0280
2297.00,0.0280
2296.00,0.0280
2295.00,0.0280
2294.00,0.0281
2293.00,0.0281
2292.00,0.0283
2291.00,0.0284
2290.00,0.0284
2289.00,0.0284
2288.00,0.0285
2287.00,0.0284
2286.00,0.0284
2285.00,0.0284
2284.00,0.0283
2283.00,0.0283
2282.00,0.0282
2281.00,0.0282
2280.00,0.0282
2279.00,0.0281
2278.00,0.0281
2277.00,0.0281
2276.00,0.0280
2275.00,0.0280
2274.00,0.0280
2273.00,0.0279
2272.00,0.0279
2271.00,0.0280
2270.00,0.0280
2269.00,0.0280
2268.00,0.0280
2267.00,0.0280
2266.00,0.0280
2265.00,0.0281
2264.00,0.0281
2263.00,0.0281
2262.00,0.0281
2261.00,0.0282
2260.00,0.0282
2259.00,0.0281
2258.00,0.0281
2257.00,0.0280
2256.00,0.0280
2255.00,0.0279
2254.00,0.0278
2253.00,0.0278
2252.00,0.0278
2251.00,0.0278
2250.00,0.0278
2249.00,0.0278
2248.00,0.0278
2247.00,0.0278
2246.00,0.0279
2245.00,0.0280
2244.00,0.0281
2243.00,0.0281
2242.00,0.0281
2241.00,0.0280
2240.00,0.0280
2239.00,0.0280
2238.00,0.0280
2237.00,0.0279
2236.00,0.0279
2235.00,0.0279
2234.00,0.0280
2233.00,0.0281
2232.00,0.0281
2231.00,0.0281
2230.00,0.0281
2229.00,0.0281
2228.00,0.0280
2227.00,0.0280
2226.00,0.0280
2225.00,0.0280
2224.00,0.0280
2223.00,0.0280
2222.00,0.0280
2221.00,0.0279
2220.00,0.0279
2219.00,0.0279
2218.00,0.0279
2217.00,0.0278
2216.00,0.0278
2215.00,0.0279
2214.00,0.0281
2213.00,0.0282
2212.00,0.0283
2211.00,0.0282
2210.00,0.0281
2209.00,0.0280
2208.00,0.0278
2207.00,0.0276
2206.00,0.0276
2205.00,0.0276
2204.00,0.0277
2203.00,0.0278
2202.00,0.0280
2201.00,0.0281
2200.00,0.0282
2199.00,0.0281
2198.00,0.0281
2197.00,0.0280
2196.00,0.0279
2195.00,0.0279
2194.00,0.0280
2193.00,0.0281
2192.00,0.0281
2191.00,0.0280
2190.00,0.0278
2189.00,0.0277
2188.00,0.0277
2187.00,0.0277
2186.00,0.0278
2185.00,0.0278
2184.00,0.0276
2183.00,0.0275
2182.00,0.0274
2181.00,0.0275
2180.00,0.0275
2179.00,0.0276
2178.00,0.0275
2177.00,0.0275
2176.00,0.0275
2175.00,0.0276
2174.00,0.0278
2173.00,0.0281
2172.00,0.0283
2171.00,0.0284
2170.00,0.0285
2169.00,0.0285
2168.00,0.0285
2167.00,0.0285
2166.00,0.0284
2165.00,0.0284
2164.00,0.0285
2163.00,0.0284
2162.00,0.0281
2161.00,0.0276
2160.00,0.0270
2159.00,0.0266
2158.00,0.0265
2157.00,0.0266
2156.00,0.0266
2155.00,0.0265
2154.00,0.0263
2153.00,0.0262
2152.00,0.0263
2151.00,0.0263
2150.00,0.0263
2149.00,0.0262
2148.00,0.0262
2147.00,0.0262
2146.00,0.0263
2145.00,0.0263
2144.00,0.0263
2143.00,0.0262
2142.00,0.0262
2141.00,0.0261
2140.00,0.0261
2139.00,0.0261
2138.00,0.0260
2137.00,0.0259
2136.00,0.0257
2135.00,0.0256
2134.00,0.0255
2133.00,0.0255
2132.00,0.0256
2131.00,0.0256
2130.00,0.0256
2129.00,0.0257
2128.00,0.0258
2127.00,0.0259
2126.00,0.0259
2125.00,0.0259
2124.00,0.0258
2123.00,0.0257
2122.00,0.0257
2121.00,0.0257
2120.00,0.0258
2119.00,0.0258
2118.00,0.0259
2117.00,0.0260
2116.00,0.0260
2115.00,0.0261
2114.00,0.0261
2113.00,0.0260
2112.00,0.0260
2111.00,0.0260
2110.00,0.0260
2109.00,0.0259
2108.00,0.0259
2107.00,0.0259
2106.00,0.0259
2105.00,0.0258
2104.00,0.0257
2103.00,0.0257
2102.00,0.0257
2101.00,0.0257
2100.00,0.0257
2099.00,0.0256
2098.00,0.0255
2097.00,0.0254
2096.00,0.0253
2095.00,0.0253
2094.00,0.0254
2093.00,0.0254
2092.00,0.0255
2091.00,0.0255
2090.00,0.0254
2089.00,0.0253
2088.00,0.0253
2087.00,0.0252
2086.00,0.0253
2085.00,0.0253
2084.00,0.0254
2083.00,0.0254
2082.00,0.0254
2081.00,0.0253
2080.00,0.0253
2079.00,0.0252
2078.00,0.0253
2077.00,0.0254
2076.00,0.0254
2075.00,0.0254
2074.00,0.0253
2073.00,0.0253
2072.00,0.0252
2071.00,0.0252
2070.00,0.0252
2069.00,0.0252
2068.00,0.0251
2067.00,0.0251
2066.00,0.0252
2065.00,0.0252
2064.00,0.0251
2063.00,0.0250
2062.00,0.0249
2061.00,0.0249
2060.00,0.0248
2059.00,0.0249
2058.00,0.0250
2057.00,0.0251
2056.00,0.0252
2055.00,0.0254
2054.00,0.0255
2053.00,0.0256
2052.00,0.0257
2051.00,0.0257
2050.00,0.0256
2049.00,0.0254
2048.00,0.0253
2047.00,0.0253
2046.00,0.0253
2045.00,0.0254
2044.00,0.0255
2043.00,0.0254
2042.00,0.0254
2041.00,0.0254
2040.00,0.0254
2039.00,0.0255
2038.00,0.0257
2037.00,0.0258
2036.00,0.0259
2035.00,0.0259
2034.00,0.0258
2033.00,0.0257
2032.00,0.0255
2031.00,0.0253
2030.00,0.0252
2029.00,0.0251
2028.00,0.0251
2027.00,0.0251
2026.00,0.0251
2025.00,0.0251
2024.00,0.0250
2023.00,0.0249
2022.00,0.0249
2021.00,0.0250
2020.00,0.0251
2019.00,0.0252
2018.00,0.0252
2017.00,0.0252
2016.00,0.0251
2015.00,0.0249
2014.00,0.0249
2013.00,0.0249
2012.00,0.0249
2011.00,0.0249
2010.00,0.0248
2009.00,0.0246
2008.00,0.0245
2007.00,0.0244
2006.00,0.0243
2005.00,0.0243
2004.00,0.0242
2003.00,0.0242
2002.00,0.0242
2001.00,0.0243
2000.00,0.0244
1999.00,0.0244
1998.00,0.0245
1997.00,0.0245
1996.00,0.0245
1995.00,0.0245
1994.00,0.0246
1993.00,0.0247
1992.00,0.0248
1991.00,0.0247
1990.00,0.0246
1989.00,0.0244
1988.00,0.0241
1987.00,0.0239
1986.00,0.0239
1985.00,0.0241
1984.00,0.0244
1983.00,0.0246
1982.00,0.0247
1981.00,0.0247
1980.00,0.0245
1979.00,0.0242
1978.00,0.0240
1977.00,0.0240
1976.00,0.0241
1975.00,0.0243
1974.00,0.0244
1973.00,0.0244
1972.00,0.0244
1971.00,0.0242
1970.00,0.0240
1969.00,0.0238
1968.00,0.0237
1967.00,0.0236
1966.00,0.0235
1965.00,0.0235
1964.00,0.0234
1963.00,0.0234
1962.00,0.0233
1961.00,0.0232
1960.00,0.0231
1959.00,0.0229
1958.00,0.0227
1957.00,0.0226
1956.00,0.0226
1955.00,0.0226
1954.00,0.0226
1953.00,0.0226
1952.00,0.0225
1951.00,0.0225
1950.00,0.0225
1949.00,0.0225
1948.00,0.0226
1947.00,0.0226
1946.00,0.0227
1945.00,0.0227
1944.00,0.0227
1943.00,0.0225
1942.00,0.0222
1941.00,0.0220
1940.00,0.0218
1939.00,0.0218
1938.00,0.0218
1937.00,0.0219
1936.00,0.0220
1935.00,0.0221
1934.00,0.0221
1933.00,0.0220
1932.00,0.0219
1931.00,0.0218
1930.00,0.0218
1929.00,0.0217
1928.00,0.0217
1927.00,0.0217
1926.00,0.0218
1925.00,0.0218
1924.00,0.0217
1923.00,0.0215
1922.00,0.0214
1921.00,0.0214
1920.00,0.0214
1919.00,0.0214
1918.00,0.0212
1917.00,0.0211
1916.00,0.0210
1915.00,0.0210
1914.00,0.0210
1913.00,0.0210
1912.00,0.0210
1911.00,0.0210
1910.00,0.0209
1909.00,0.0209
1908.00,0.0209
1907.00,0.0209
1906.00,0.0209
1905.00,0.0208
1904.00,0.0207
1903.00,0.0206
1902.00,0.0206
1901.00,0.0206
1900.00,0.0206
1899.00,0.0206
1898.00,0.0205
1897.00,0.0205
1896.00,0.0203
1895.00,0.0202
1894.00,0.0201
1893.00,0.0202
1892.00,0.0203
1891.00,0.0203
1890.00,0.0201
1889.00,0.0199
1888.00,0.0197
1887.00,0.0197
1886.00,0.0197
1885.00,0.0197
1884.00,0.0196
1883.00,0.0196
1882.00,0.0196
1881.00,0.0196
1880.00,0.0195
1879.00,0.0194
1878.00,0.0193
1877.00,0.0192
1876.00,0.0192
1875.00,0.0192
1874.00,0.0192
1873.00,0.0193
1872.00,0.0194
1871.00,0.0195
1870.00,0.0193
1869.00,0.0190
1868.00,0.0186
1867.00,0.0184
1866.00,0.0185
1865.00,0.0186
1864.00,0.0188
1863.00,0.0188
1862.00,0.0188
1861.00,0.0187
1860.00,0.0185
1859.00,0.0184
1858.00,0.0184
1857.00,0.0184
1856.00,0.0183
1855.00,0.0183
1854.00,0.0183
1853.00,0.0182
1852.00,0.0182
1851.00,0.0182
1850.00,0.0182
1849.00,0.0182
1848.00,0.0182
1847.00,0.0183
1846.00,0.0183
1845.00,0.0180
1844.00,0.0176
1843.00,0.0172
1842.00,0.0172
1841.00,0.0174
1840.00,0.0175
1839.00,0.0175
1838.00,0.0175
1837.00,0.0174
1836.00,0.0173
1835.00,0.0173
1834.00,0.0173
1833.00,0.0175
1832.00,0.0176
1831.00,0.0174
1830.00,0.0169
1829.00,0.0166
1828.00,0.0165
1827.00,0.0167
1826.00,0.0167
1825.00,0.0166
1824.00,0.0164
1823.00,0.0163
1822.00,0.0164
1821.00,0.0165
1820.00,0.0165
1819.00,0.0165
1818.00,0.0163
1817.00,0.0162
1816.00,0.0162
1815.00,0.0161
1814.00,0.0161
1813.00,0.0161
1812.00,0.0160
1811.00,0.0158
1810.00,0.0157
1809.00,0.0157
1808.00,0.0158
1807.00,0.0158
1806.00,0.0159
1805.00,0.0160
1804.00,0.0161
1803.00,0.0161
1802.00,0.0161
1801.00,0.0159
1800.00,0.0158
1799.00,0.0157
1798.00,0.0159
1797.00,0.0161
1796.00,0.0163
1795.00,0.0164
1794.00,0.0165
1793.00,0.0163
1792.00,0.0160
1791.00,0.0157
1790.00,0.0157
1789.00,0.0161
1788.00,0.0164
1787.00,0.0166
1786.00,0.0167
1785.00,0.0168
1784.00,0.0168
1783.00,0.0169
1782.00,0.0170
1781.00,0.0171
1780.00,0.0171
1779.00,0.0172
1778.00,0.0175
1777.00,0.0178
1776.00,0.0181
1775.00,0.0184
1774.00,0.0185
1773.00,0.0185
1772.00,0.0182
1771.00,0.0181
1770.00,0.0184
1769.00,0.0187
1768.00,0.0189
1767.00,0.0189
1766.00,0.0191
1765.00,0.0195
1764.00,0.0197
1763.00,0.0198
1762.00,0.0197
1761.00,0.0196
1760.00,0.0198
1759.00,0.0200
1758.00,0.0202
1757.00,0.0202
1756.00,0.0202
1755.00,0.0205
1754.00,0.0209
1753.00,0.0212
1752.00,0.0215
1751.00,0.0216
1750.00,0.0215
1749.00,0.0214
1748.00,0.0214
1747.00,0.0215
1746.00,0.0218
1745.00,0.0221
1744.00,0.0224
1743.00,0.0226
1742.00,0.0228
1741.00,0.0231
1740.00,0.0234
1739.00,0.0235
1738.00,0.0239
1737.00,0.0244
1736.00,0.0250
1735.00,0.0254
1734.00,0.0256
1733.00,0.0255
1732.00,0.0257
1731.00,0.0260
1730.00,0.0262
1729.00,0.0265
1728.00,0.0270
1727.00,0.0274
1726.00,0.0279
1725.00,0.0283
1724.00,0.0286
1723.00,0.0289
1722.00,0.0292
1721.00,0.0296
1720.00,0.0299
1719.00,0.0301
1718.00,0.0304
1717.00,0.0307
1716.00,0.0309
1715.00,0.0310
1714.00,0.0311
1713.00,0.0314
1712.00,0.0318
1711.00,0.0320
1710.00,0.0323
1709.00,0.0326
1708.00,0.0328
1707.00,0.0330
1706.00,0.0331
1705.00,0.0332
1704.00,0.0333
1703.00,0.0336
1702.00,0.0338
1701.00,0.0341
1700.00,0.0343
1699.00,0.0343
1698.00,0.0345
1697.00,0.0347
1696.00,0.0346
1695.00,0.0344
1694.00,0.0344
1693.00,0.0347
1692.00,0.0349
1691.00,0.0350
1690.00,0.0350
1689.00,0.0351
1688.00,0.0352
1687.00,0.0353
1686.00,0.0353
1685.00,0.0353
1684.00,0.0350
1683.00,0.0349
1682.00,0.0352
1681.00,0.0356
1680.00,0.0358
1679.00,0.0360
1678.00,0.0361
1677.00,0.0363
1676.00,0.0365
1675.00,0.0366
1674.00,0.0366
1673.00,0.0367
1672.00,0.0369
1671.00,0.0370
1670.00,0.0371
1669.00,0.0371
1668.00,0.0372
1667.00,0.0375
1666.00,0.0377
1665.00,0.0379
1664.00,0.0380
1663.00,0.0382
1662.00,0.0383
1661.00,0.0385
1660.00,0.0387
1659.00,0.0390
1658.00,0.0392
1657.00,0.0392
1656.00,0.0392
1655.00,0.0393
1654.00,0.0398
1653.00,0.0401
1652.00,0.0400
1651.00,0.0403
1650.00,0.0406
1649.00,0.0407
1648.00,0.0409
1647.00,0.0412
1646.00,0.0414
1645.00,0.0416
1644.00,0.0420
1643.00,0.0422
1642.00,0.0424
1641.00,0.0425
1640.00,0.0427
1639.00,0.0428
1638.00,0.0429
1637.00,0.0431
1636.00,0.0435
1635.00,0.0437
1634.00,0.0440
1633.00,0.0444
1632.00,0.0447
1631.00,0.0449
1630.00,0.0451
1629.00,0.0453
1628.00,0.0455
1627.00,0.0457
1626.00,0.0460
1625.00,0.0463
1624.00,0.0466
1623.00,0.0470
1622.00,0.0472
1621.00,0.0474
1620.00,0.0475
1619.00,0.0476
1618.00,0.0480
1617.00,0.0485
1616.00,0.0488
1615.00,0.0490
1614.00,0.0492
1613.00,0.0493
1612.00,0.0495
1611.00,0.0498
1610.00,0.0501
1609.00,0.0503
1608.00,0.0505
1607.00,0.0508
1606.00,0.0509
1605.00,0.0510
1604.00,0.0512
1603.00,0.0513
1602.00,0.0515
1601.00,0.0517
1600.00,0.0518
1599.00,0.0520
1598.00,0.0521
1597.00,0.0523
1596.00,0.0524
1595.00,0.0525
1594.00,0.0527
1593.00,0.0528
1592.00,0.0529
1591.00,0.0531
1590.00,0.0532
1589.00,0.0534
1588.00,0.0535
1587.00,0.0536
1586.00,0.0536
1585.00,0.0537
1584.00,0.0537
1583.00,0.0539
1582.00,0.0540
1581.00,0.0540
1580.00,0.0539
1579.00,0.0539
1578.00,0.0539
1577.00,0.0541
1576.00,0.0544
1575.00,0.0546
1574.00,0.0545
1573.00,0.0543
1572.00,0.0541
1571.00,0.0541
1570.00,0.0542
1569.00,0.0543
1568.00,0.0543
1567.00,0.0543
1566.00,0.0543
1565.00,0.0541
1564.00,0.0541
1563.00,0.0539
1562.00,0.0536
1561.00,0.0529
1560.00,0.0529
1559.00,0.0539
1558.00,0.0540
1557.00,0.0540
1556.00,0.0541
1555.00,0.0540
1554.00,0.0538
1553.00,0.0536
1552.00,0.0535
1551.00,0.0533
1550.00,0.0531
1549.00,0.0529
1548.00,0.0528
1547.00,0.0527
1546.00,0.0526
1545.00,0.0524
1544.00,0.0523
1543.00,0.0521
1542.00,0.0518
1541.00,0.0518
1540.00,0.0516
1539.00,0.0513
1538.00,0.0512
1537.00,0.0513
1536.00,0.0510
1535.00,0.0507
1534.00,0.0504
1533.00,0.0502
1532.00,0.0500
1531.00,0.0499
1530.00,0.0498
1529.00,0.0496
1528.00,0.0494
1527.00,0.0493
1526.00,0.0491
1525.00,0.0490
1524.00,0.0488
1523.00,0.0485
1522.00,0.0484
1521.00,0.0481
1520.00,0.0478
1519.00,0.0476
1518.00,0.0474
1517.00,0.0473
1516.00,0.0472
1515.00,0.0471
1514.00,0.0471
1513.00,0.0471
1512.00,0.0470
1511.00,0.0468
1510.00,0.0466
1509.00,0.0463
1508.00,0.0463
1507.00,0.0460
1506.00,0.0454
1505.00,0.0454
1504.00,0.0456
1503.00,0.0455
1502.00,0.0453
1501.00,0.0451
1500.00,0.0449
1499.00,0.0448
1498.00,0.0446
1497.00,0.0447
1496.00,0.0447
1495.00,0.0448
1494.00,0.0449
1493.00,0.0449
1492.00,0.0449
1491.00,0.0450
1490.00,0.0449
1489.00,0.0448
1488.00,0.0446
1487.00,0.0444
1486.00,0.0444
1485.00,0.0444
1484.00,0.0444
1483.00,0.0444
1482.00,0.0445
1481.00,0.0445
1480.00,0.0445
1479.00,0.0445
1478.00,0.0444
1477.00,0.0445
1476.00,0.0446
1475.00,0.0447
1474.00,0.0449
1473.00,0.0451
1472.00,0.0451
1471.00,0.0450
1470.00,0.0450
1469.00,0.0450
1468.00,0.0450
1467.00,0.0450
1466.00,0.0451
1465.00,0.0452
1464.00,0.0453
1463.00,0.0454
1462.00,0.0454
1461.00,0.0454
1460.00,0.0454
1459.00,0.0455
1458.00,0.0459
1457.00,0.0462
1456.00,0.0463
1455.00,0.0464
1454.00,0.0464
1453.00,0.0464
1452.00,0.0465
1451.00,0.0466
1450.00,0.0467
1449.00,0.0469
1448.00,0.0471
1447.00,0.0472
1446.00,0.0472
1445.00,0.0471
1444.00,0.0472
1443.00,0.0472
1442.00,0.0473
1441.00,0.0474
1440.00,0.0476
1439.00,0.0477
1438.00,0.0478
1437.00,0.0480
1436.00,0.0481
1435.00,0.0482
1434.00,0.0482
1433.00,0.0482
1432.00,0.0482
1431.00,0.0483
1430.00,0.0483
1429.00,0.0484
1428.00,0.0485
1427.00,0.0486
1426.00,0.0486
1425.00,0.0486
1424.00,0.0487
1423.00,0.0488
1422.00,0.0488
1421.00,0.0488
1420.00,0.0490
1419.00,0.0492
1418.00,0.0493
1417.00,0.0493
1416.00,0.0494
1415.00,0.0495
1414.00,0.0495
1413.00,0.0495
1412.00,0.0496
1411.00,0.0498
1410.00,0.0498
1409.00,0.0498
1408.00,0.0498
1407.00,0.0499
1406.00,0.0499
1405.00,0.0500
1404.00,0.0502
1403.00,0.0503
1402.00,0.0504
1401.00,0.0505
1400.00,0.0507
1399.00,0.0509
1398.00,0.0510
1397.00,0.0511
1396.00,0.0512
1395.00,0.0513
1394.00,0.0514
1393.00,0.0514
1392.00,0.0515
1391.00,0.0516
1390.00,0.0516
1389.00,0.0518
1388.00,0.0520
1387.00,0.0522
1386.00,0.0522
1385.00,0.0523
1384.00,0.0523
1383.00,0.0524
1382.00,0.0525
1381.00,0.0526
1380.00,0.0527
1379.00,0.0527
1378.00,0.0528
1377.00,0.0528
1376.00,0.0528
1375.00,0.0529
1374.00,0.0530
1373.00,0.0531
1372.00,0.0532
1371.00,0.0532
1370.00,0.0532
1369.00,0.0532
1368.00,0.0532
1367.00,0.0533
1366.00,0.0532
1365.00,0.0532
1364.00,0.0532
1363.00,0.0533
1362.00,0.0534
1361.00,0.0534
1360.00,0.0534
1359.00,0.0534
1358.00,0.0533
1357.00,0.0533
1356.00,0.0533
1355.00,0.0532
1354.00,0.0532
1353.00,0.0532
1352.00,0.0532
1351.00,0.0532
1350.00,0.0531
1349.00,0.0531
1348.00,0.0531
1347.00,0.0531
1346.00,0.0531
1345.00,0.0530
1344.00,0.0530
1343.00,0.0530
1342.00,0.0530
1341.00,0.0530
1340.00,0.0530
1339.00,0.0530
1338.00,0.0528
1337.00,0.0527
1336.00,0.0527
1335.00,0.0527
1334.00,0.0527
1333.00,0.0527
1332.00,0.0527
1331.00,0.0527
1330.00,0.0526
1329.00,0.0526
1328.00,0.0526
1327.00,0.0526
1326.00,0.0525
1325.00,0.0525
1324.00,0.0525
1323.00,0.0525
1322.00,0.0525
1321.00,0.0525
1320.00,0.0525
1319.00,0.0525
1318.00,0.0525
1317.00,0.0525
1316.00,0.0525
1315.00,0.0525
1314.00,0.0525
1313.00,0.0525
1312.00,0.0525
1311.00,0.0525
1310.00,0.0525
1309.00,0.0525
1308.00,0.0526
1307.00,0.0526
1306.00,0.0526
1305.00,0.0526
1304.00,0.0526
1303.00,0.0527
1302.00,0.0527
1301.00,0.0527
1300.00,0.0527
1299.00,0.0528
1298.00,0.0528
1297.00,0.0528
1296.00,0.0529
1295.00,0.0529
1294.00,0.0530
1293.00,0.0530
1292.00,0.0531
1291.00,0.0531
1290.00,0.0531
1289.00,0.0532
1288.00,0.0533
1287.00,0.0534
1286.00,0.0534
1285.00,0.0534
1284.00,0.0534
1283.00,0.0534
1282.00,0.0535
1281.00,0.0536
1280.00,0.0537
1279.00,0.0537
1278.00,0.0537
1277.00,0.0538
1276.00,0.0538
1275.00,0.0539
1274.00,0.0539
1273.00,0.0540
1272.00,0.0540
1271.00,0.0541
1270.00,0.0541
1269.00,0.0542
1268.00,0.0542
1267.00,0.0543
1266.00,0.0543
1265.00,0.0543
1264.00,0.0543
1263.00,0.0543
1262.00,0.0544
1261.00,0.0545
1260.00,0.0546
1259.00,0.0546
1258.00,0.0546
1257.00,0.0547
1256.00,0.0547
1255.00,0.0547
1254.00,0.0547
1253.00,0.0547
1252.00,0.0546
1251.00,0.0547
1250.00,0.0547
1249.00,0.0548
1248.00,0.0549
1247.00,0.0549
1246.00,0.0549
1245.00,0.0549
1244.00,0.0549
1243.00,0.0549
1242.00,0.0549
1241.00,0.0549
1240.00,0.0550
1239.00,0.0550
1238.00,0.0550
1237.00,0.0549
1236.00,0.0549
1235.00,0.0549
1234.00,0.0549
1233.00,0.0549
1232.00,0.0549
1231.00,0.0549
1230.00,0.0550
1229.00,0.0550
1228.00,0.0550
1227.00,0.0550
1226.00,0.0550
1225.00,0.0550
1224.00,0.0549
1223.00,0.0549
1222.00,0.0548
1221.00,0.0547
1220.00,0.0546
1219.00,0.0545
1218.00,0.0544
1217.00,0.0544
1216.00,0.0544
1215.00,0.0544
1214.00,0.0544
1213.00,0.0544
1212.00,0.0544
1211.00,0.0544
1210.00,0.0543
1209.00,0.0543
1208.00,0.0542
1207.00,0.0542
1206.00,0.0542
1205.00,0.0542
1204.00,0.0542
1203.00,0.0541
1202.00,0.0540
1201.00,0.0539
1200.00,0.0539
1199.00,0.0538
1198.00,0.0538
1197.00,0.0538
1196.00,0.0539
1195.00,0.0539
1194.00,0.0539
1193.00,0.0539
1192.00,0.0538
1191.00,0.0538
1190.00,0.0537
1189.00,0.0537
1188.00,0.0536
1187.00,0.0536
1186.00,0.0535
1185.00,0.0535
1184.00,0.0534
1183.00,0.0534
1182.00,0.0534
1181.00,0.0534
1180.00,0.0534
1179.00,0.0534
1178.00,0.0534
1177.00,0.0533
1176.00,0.0533
1175.00,0.0533
1174.00,0.0532
1173.00,0.0531
1172.00,0.0531
1171.00,0.0530
1170.00,0.0530
1169.00,0.0530
1168.00,0.0531
1167.00,0.0531
1166.00,0.0530
1165.00,0.0528
1164.00,0.0527
1163.00,0.0526
1162.00,0.0526
1161.00,0.0525
1160.00,0.0525
1159.00,0.0524
1158.00,0.0524
1157.00,0.0525
1156.00,0.0526
1155.00,0.0526
1154.00,0.0525
1153.00,0.0524
1152.00,0.0523
1151.00,0.0522
1150.00,0.0521
1149.00,0.0521
1148.00,0.0521
1147.00,0.0520
1146.00,0.0520
1145.00,0.0520
1144.00,0.0520
1143.00,0.0519
1142.00,0.0518
1141.00,0.0517
1140.00,0.0516
1139.00,0.0516
1138.00,0.0515
1137.00,0.0515
1136.00,0.0515
1135.00,0.0516
1134.00,0.0515
1133.00,0.0514
1132.00,0.0513
1131.00,0.0512
1130.00,0.0511
1129.00,0.0511
1128.00,0.0510
1127.00,0.0510
1126.00,0.0510
1125.00,0.0510
1124.00,0.0510
1123.00,0.0510
1122.00,0.0510
1121.00,0.0509
1120.00,0.0509
1119.00,0.0509
1118.00,0.0508
1117.00,0.0508
1116.00,0.0508
1115.00,0.0508
1114.00,0.0507
1113.00,0.0506
1112.00,0.0506
1111.00,0.0506
1110.00,0.0506
1109.00,0.0505
1108.00,0.0505
1107.00,0.0504
1106.00,0.0504
1105.00,0.0504
1104.00,0.0503
1103.00,0.0503
1102.00,0.0504
1101.00,0.0504
1100.00,0.0504
1099.00,0.0503
1098.00,0.0502
1097.00,0.0502
1096.00,0.0502
1095.00,0.0503
1094.00,0.0503
1093.00,0.0504
1092.00,0.0504
1091.00,0.0504
1090.00,0.0503
1089.00,0.0503
1088.00,0.0502
1087.00,0.0502
1086.00,0.0501
1085.00,0.0501
1084.00,0.0501
1083.00,0.0501
1082.00,0.0501
1081.00,0.0501
1080.00,0.0501
1079.00,0.0500
1078.00,0.0500
1077.00,0.0500
1076.00,0.0501
1075.00,0.0502
1074.00,0.0503
1073.00,0.0503
1072.00,0.0503
1071.00,0.0503
1070.00,0.0503
1069.00,0.0503
1068.00,0.0503
1067.00,0.0503
1066.00,0.0503
1065.00,0.0503
1064.00,0.0504
1063.00,0.0504
1062.00,0.0504
1061.00,0.0503
1060.00,0.0502
1059.00,0.0502
1058.00,0.0502
1057.00,0.0502
1056.00,0.0503
1055.00,0.0504
1054.00,0.0504
1053.00,0.0504
1052.00,0.0504
1051.00,0.0505
1050.00,0.0506
1049.00,0.0507
1048.00,0.0507
1047.00,0.0507
1046.00,0.0507
1045.00,0.0506
1044.00,0.0507
1043.00,0.0507
1042.00,0.0507
1041.00,0.0506
1040.00,0.0506
1039.00,0.0506
1038.00,0.0507
1037.00,0.0508
1036.00,0.0508
1035.00,0.0508
1034.00,0.0508
1033.00,0.0507
1032.00,0.0507
1031.00,0.0508
1030.00,0.0509
1029.00,0.0509
1028.00,0.0508
1027.00,0.0507
1026.00,0.0506
1025.00,0.0506
1024.00,0.0505
1023.00,0.0504
1022.00,0.0503
1021.00,0.0502
1020.00,0.0501
1019.00,0.0500
1018.00,0.0499
1017.00,0.0499
1016.00,0.0500
1015.00,0.0501
1014.00,0.0501
1013.00,0.0501
1012.00,0.0500
1011.00,0.0499
1010.00,0.0498
1009.00,0.0498
1008.00,0.0497
1007.00,0.0496
1006.00,0.0495
1005.00,0.0495
1004.00,0.0495
1003.00,0.0495
1002.00,0.0496
1001.00,0.0496
1000.00,0.0496
999.00,0.0495
998.00,0.0493
997.00,0.0493
996.00,0.0492
995.00,0.0492
994.00,0.0492
993.00,0.0491
992.00,0.0491
991.00,0.0491
990.00,0.0490
989.00,0.0489
988.00,0.0488
987.00,0.0488
986.00,0.0488
985.00,0.0487
984.00,0.0487
983.00,0.0487
982.00,0.0488
981.00,0.0489
980.00,0.0489
979.00,0.0489
978.00,0.0489
977.00,0.0488
976.00,0.0488
975.00,0.0488
974.00,0.0488
973.00,0.0487
972.00,0.0487
971.00,0.0487
970.00,0.0487
969.00,0.0487
968.00,0.0487
967.00,0.0487
966.00,0.0487
965.00,0.0487
964.00,0.0487
963.00,0.0486
962.00,0.0485
961.00,0.0485
960.00,0.0484
959.00,0.0483
958.00,0.0482
957.00,0.0481
956.00,0.0481
955.00,0.0481
954.00,0.0481
953.00,0.0481
952.00,0.0481
951.00,0.0481
950.00,0.0482
949.00,0.0482
948.00,0.0483
947.00,0.0483
946.00,0.0483
945.00,0.0483
944.00,0.0484
943.00,0.0484
942.00,0.0483
941.00,0.0482
940.00,0.0483
939.00,0.0484
938.00,0.0485
937.00,0.0486
936.00,0.0487
935.00,0.0487
934.00,0.0487
933.00,0.0487
932.00,0.0488
931.00,0.0488
930.00,0.0489
929.00,0.0489
928.00,0.0489
927.00,0.0489
926.00,0.0489
925.00,0.0490
924.00,0.0492
923.00,0.0493
922.00,0.0494
921.00,0.0494
920.00,0.0494
919.00,0.0494
918.00,0.0495
917.00,0.0497
916.00,0.0499
915.00,0.0500
914.00,0.0500
913.00,0.0500
912.00,0.0500
911.00,0.0500
910.00,0.0501
909.00,0.0502
908.00,0.0503
907.00,0.0504
906.00,0.0505
905.00,0.0506
904.00,0.0507
903.00,0.0508
902.00,0.0508
901.00,0.0507
900.00,0.0507
899.00,0.0507
898.00,0.0508
897.00,0.0509
896.00,0.0510
895.00,0.0510
894.00,0.0510
893.00,0.0510
892.00,0.0510
891.00,0.0511
890.00,0.0511
889.00,0.0512
888.00,0.0512
887.00,0.0512
886.00,0.0512
885.00,0.0512
884.00,0.0511
883.00,0.0511
882.00,0.0512
881.00,0.0512
880.00,0.0513
879.00,0.0513
878.00,0.0514
877.00,0.0514
876.00,0.0514
875.00,0.0513
874.00,0.0512
873.00,0.0512
872.00,0.0513
871.00,0.0515
870.00,0.0516
869.00,0.0516
868.00,0.0515
867.00,0.0514
866.00,0.0514
865.00,0.0515
864.00,0.0516
863.00,0.0517
862.00,0.0518
861.00,0.0518
860.00,0.0518
859.00,0.0518
858.00,0.0519
857.00,0.0519
856.00,0.0519
855.00,0.0519
854.00,0.0519
853.00,0.0519
852.00,0.0519
851.00,0.0519
850.00,0.0520
849.00,0.0521
848.00,0.0522
847.00,0.0522
846.00,0.0523
845.00,0.0523
844.00,0.0525
843.00,0.0526
842.00,0.0526
841.00,0.0527
840.00,0.0528
839.00,0.0529
838.00,0.0529
837.00,0.0529
836.00,0.0529
835.00,0.0530
834.00,0.0530
833.00,0.0531
832.00,0.0533
831.00,0.0536
830.00,0.0539
829.00,0.0542
828.00,0.0543
827.00,0.0544
826.00,0.0544
825.00,0.0545
824.00,0.0546
823.00,0.0548
822.00,0.0550
821.00,0.0552
820.00,0.0552
819.00,0.0552
818.00,0.0552
817.00,0.0552
816.00,0.0553
815.00,0.0554
814.00,0.0555
813.00,0.0555
812.00,0.0555
811.00,0.0554
810.00,0.0554
809.00,0.0554
808.00,0.0556
807.00,0.0559
806.00,0.0560
805.00,0.0562
804.00,0.0563
803.00,0.0564
802.00,0.0564
801.00,0.0564
800.00,0.0564
799.00,0.0566
798.00,0.0568
797.00,0.0570
796.00,0.0572
795.00,0.0572
794.00,0.0571
793.00,0.0570
792.00,0.0570
791.00,0.0571
790.00,0.0573
789.00,0.0575
788.00,0.0576
787.00,0.0576
786.00,0.0576
785.00,0.0575
784.00,0.0576
783.00,0.0577
782.00,0.0578
781.00,0.0580
780.00,0.0583
779.00,0.0585
778.00,0.0587
777.00,0.0586
776.00,0.0586
775.00,0.0585
774.00,0.0586
773.00,0.0586
772.00,0.0588
771.00,0.0590
770.00,0.0592
769.00,0.0594
768.00,0.0596
767.00,0.0597
766.00,0.0598
765.00,0.0599
764.00,0.0601
763.00,0.0601
762.00,0.0602
761.00,0.0603
760.00,0.0604
759.00,0.0604
758.00,0.0604
757.00,0.0603
756.00,0.0603
755.00,0.0603
754.00,0.0603
753.00,0.0602
752.00,0.0601
751.00,0.0602
750.00,0.0603
749.00,0.0605
748.00,0.0607
747.00,0.0609
746.00,0.0609
745.00,0.0609
744.00,0.0608
743.00,0.0607
742.00,0.0607
741.00,0.0608
740.00,0.0611
739.00,0.0613
738.00,0.0614
737.00,0.0614
736.00,0.0613
735.00,0.0612
734.00,0.0612
733.00,0.0611
732.00,0.0612
731.00,0.0613
730.00,0.0616
729.00,0.0619
728.00,0.0620
727.00,0.0620
726.00,0.0618
725.00,0.0616
724.00,0.0616
723.00,0.0617
722.00,0.0619
721.00,0.0621
720.00,0.0622
719.00,0.0622
718.00,0.0621
717.00,0.0622
716.00,0.0623
715.00,0.0623
714.00,0.0624
713.00,0.0624
712.00,0.0624
711.00,0.0625
710.00,0.0625
709.00,0.0625
708.00,0.0627
707.00,0.0629
706.00,0.0631
705.00,0.0632
704.00,0.0633
703.00,0.0633
702.00,0.0633
701.00,0.0634
700.00,0.0636
699.00,0.0637
698.00,0.0638
697.00,0.0638
696.00,0.0638
695.00,0.0637
694.00,0.0637
693.00,0.0637
692.00,0.0637
691.00,0.0636
690.00,0.0637
689.00,0.0640
688.00,0.0645
687.00,0.0650
686.00,0.0655
685.00,0.0656
684.00,0.0655
683.00,0.0653
682.00,0.0651
681.00,0.0652
680.00,0.0656
679.00,0.0657
678.00,0.0657
677.00,0.0658
676.00,0.0661
675.00,0.0664
674.00,0.0667
673.00,0.0668
672.00,0.0669
671.00,0.0671
670.00,0.0677
669.00,0.0684
668.00,0.0693
667.00,0.0693
666.00,0.0683
665.00,0.0674
664.00,0.0670
663.00,0.0671
662.00,0.0672
661.00,0.0674
660.00,0.0676
659.00,0.0677
658.00,0.0682
657.00,0.0683
656.00,0.0684
655.00,0.0686
654.00,0.0688
653.00,0.0691
652.00,0.0693
651.00,0.0693
650.00,0.0690
