Created as New Dataset,
cm-1,A
4000.00,0.0186
3999.00,0.0186
3998.00,0.0186
3997.00,0.0186
3996.00,0.0186
3995.00,0.0187
3994.00,0.0187
3993.00,0.0187
3992.00,0.0187
3991.00,0.0186
3990.00,0.0186
3989.00,0.0185
3988.00,0.0185
3987.00,0.0185
3986.00,0.0185
3985.00,0.0185
3984.00,0.0185
3983.00,0.0185
3982.00,0.0185
3981.00,0.0185
3980.00,0.0185
3979.00,0.0185
3978.00,0.0185
3977.00,0.0185
3976.00,0.0185
3975.00,0.0186
3974.00,0.0186
3973.00,0.0186
3972.00,0.0186
3971.00,0.0185
3970.00,0.0185
3969.00,0.0184
3968.00,0.0184
3967.00,0.0183
3966.00,0.0183
3965.00,0.0183
3964.00,0.0184
3963.00,0.0184
3962.00,0.0184
3961.00,0.0184
3960.00,0.0184
3959.00,0.0184
3958.00,0.0184
3957.00,0.0184
3956.00,0.0184
3955.00,0.0183
3954.00,0.0183
3953.00,0.0183
3952.00,0.0183
3951.00,0.0184
3950.00,0.0185
3949.00,0.0185
3948.00,0.0185
3947.00,0.0185
3946.00,0.0185
3945.00,0.0185
3944.00,0.0185
3943.00,0.0185
3942.00,0.0184
3941.00,0.0184
3940.00,0.0184
3939.00,0.0184
3938.00,0.0183
3937.00,0.0182
3936.00,0.0182
3935.00,0.0183
3934.00,0.0184
3933.00,0.0185
3932.00,0.0185
3931.00,0.0185
3930.00,0.0185
3929.00,0.0184
3928.00,0.0184
3927.00,0.0184
3926.00,0.0183
3925.00,0.0183
3924.00,0.0183
3923.00,0.0184
3922.00,0.0184
3921.00,0.0185
3920.00,0.0184
3919.00,0.0184
3918.00,0.0184
3917.00,0.0184
3916.00,0.0183
3915.00,0.0182
3914.00,0.0182
3913.00,0.0181
3912.00,0.0181
3911.00,0.0180
3910.00,0.0180
3909.00,0.0180
3908.00,0.0181
3907.00,0.0182
3906.00,0.0183
3905.00,0.0185
3904.00,0.0186
3903.00,0.0188
3902.00,0.0190
3901.00,0.0191
3900.00,0.0190
3899.00,0.0187
3898.00,0.0185
3897.00,0.0183
3896.00,0.0183
3895.00,0.0183
3894.00,0.0184
3893.00,0.0184
3892.00,0.0184
3891.00,0.0183
3890.00,0.0182
3889.00,0.0183
3888.00,0.0185
3887.00,0.0185
3886.00,0.0183
3885.00,0.0182
3884.00,0.0183
3883.00,0.0186
3882.00,0.0188
3881.00,0.0186
3880.00,0.0183
3879.00,0.0181
3878.00,0.0181
3877.00,0.0183
3876.00,0.0183
3875.00,0.0182
3874.00,0.0181
3873.00,0.0182
3872.00,0.0184
3871.00,0.0186
3870.00,0.0184
3869.00,0.0182
3868.00,0.0182
3867.00,0.0185
3866.00,0.0186
3865.00,0.0184
3864.00,0.0183
3863.00,0.0184
3862.00,0.0184
3861.00,0.0183
3860.00,0.0181
3859.00,0.0180
3858.00,0.0179
3857.00,0.0180
3856.00,0.0180
3855.00,0.0180
3854.00,0.0178
3853.00,0.0177
3852.00,0.0178
3851.00,0.0180
3850.00,0.0181
3849.00,0.0181
3848.00,0.0180
3847.00,0.0178
3846.00,0.0178
3845.00,0.0178
3844.00,0.0178
3843.00,0.0178
3842.00,0.0180
3841.00,0.0182
3840.00,0.0183
3839.00,0.0183
3838.00,0.0182
3837.00,0.0182
3836.00,0.0182
3835.00,0.0182
3834.00,0.0182
3833.00,0.0182
3832.00,0.0180
3831.00,0.0178
3830.00,0.0178
3829.00,0.0178
3828.00,0.0179
3827.00,0.0178
3826.00,0.0177
3825.00,0.0178
3824.00,0.0180
3823.00,0.0182
3822.00,0.0181
3821.00,0.0179
3820.00,0.0178
3819.00,0.0179
3818.00,0.0181
3817.00,0.0180
3816.00,0.0176
3815.00,0.0173
3814.00,0.0174
3813.00,0.0175
3812.00,0.0175
3811.00,0.0174
3810.00,0.0173
3809.00,0.0174
3808.00,0.0173
3807.00,0.0172
3806.00,0.0171
3805.00,0.0172
3804.00,0.0176
3803.00,0.0178
3802.00,0.0177
3801.00,0.0174
3800.00,0.0175
3799.00,0.0177
3798.00,0.0179
3797.00,0.0178
3796.00,0.0175
3795.00,0.0174
3794.00,0.0173
3793.00,0.0173
3792.00,0.0172
3791.00,0.0171
3790.00,0.0171
3789.00,0.0170
3788.00,0.0170
3787.00,0.0171
3786.00,0.0171
3785.00,0.0171
3784.00,0.0171
3783.00,0.0172
3782.00,0.0173
3781.00,0.0173
3780.00,0.0172
3779.00,0.0172
3778.00,0.0172
3777.00,0.0172
3776.00,0.0172
3775.00,0.0171
3774.00,0.0170
3773.00,0.0170
3772.00,0.0171
3771.00,0.0171
3770.00,0.0171
3769.00,0.0172
3768.00,0.0173
3767.00,0.0174
3766.00,0.0174
3765.00,0.0172
3764.00,0.0171
3763.00,0.0172
3762.00,0.0174
3761.00,0.0174
3760.00,0.0173
3759.00,0.0173
3758.00,0.0173
3757.00,0.0173
3756.00,0.0173
3755.00,0.0174
3754.00,0.0173
3753.00,0.0172
3752.00,0.0172
3751.00,0.0174
3750.00,0.0175
3749.00,0.0176
3748.00,0.0177
3747.00,0.0180
3746.00,0.0181
3745.00,0.0177
3744.00,0.0171
3743.00,0.0170
3742.00,0.0172
3741.00,0.0174
3740.00,0.0174
3739.00,0.0173
3738.00,0.0173
3737.00,0.0174
3736.00,0.0176
3735.00,0.0179
3734.00,0.0181
3733.00,0.0180
3732.00,0.0176
3731.00,0.0172
3730.00,0.0171
3729.00,0.0171
3728.00,0.0171
3727.00,0.0171
3726.00,0.0170
3725.00,0.0171
3724.00,0.0172
3723.00,0.0172
3722.00,0.0172
3721.00,0.0171
3720.00,0.0170
3719.00,0.0169
3718.00,0.0168
3717.00,0.0167
3716.00,0.0166
3715.00,0.0166
3714.00,0.0166
3713.00,0.0166
3712.00,0.0166
3711.00,0.0168
3710.00,0.0170
3709.00,0.0170
3708.00,0.0168
3707.00,0.0166
3706.00,0.0165
3705.00,0.0164
3704.00,0.0164
3703.00,0.0165
3702.00,0.0165
3701.00,0.0164
3700.00,0.0164
3699.00,0.0164
3698.00,0.0164
3697.00,0.0163
3696.00,0.0162
3695.00,0.0163
3694.00,0.0164
3693.00,0.0165
3692.00,0.0166
3691.00,0.0167
3690.00,0.0168
3689.00,0.0168
3688.00,0.0166
3687.00,0.0165
3686.00,0.0165
3685.00,0.0165
3684.00,0.0165
3683.00,0.0164
3682.00,0.0163
3681.00,0.0163
3680.00,0.0162
3679.00,0.0163
3678.00,0.0166
3677.00,0.0169
3676.00,0.0171
3675.00,0.0170
3674.00,0.0170
3673.00,0.0172
3672.00,0.0174
3671.00,0.0173
3670.00,0.0171
3669.00,0.0171
3668.00,0.0171
3667.00,0.0172
3666.00,0.0171
3665.00,0.0170
3664.00,0.0169
3663.00,0.0168
3662.00,0.0168
3661.00,0.0169
3660.00,0.0170
3659.00,0.0172
3658.00,0.0174
3657.00,0.0176
3656.00,0.0176
3655.00,0.0177
3654.00,0.0179
3653.00,0.0182
3652.00,0.0182
3651.00,0.0182
3650.00,0.0185
3649.00,0.0191
3648.00,0.0195
3647.00,0.0196
3646.00,0.0194
3645.00,0.0192
3644.00,0.0191
3643.00,0.0189
3642.00,0.0189
3641.00,0.0189
3640.00,0.0189
3639.00,0.0190
3638.00,0.0190
3637.00,0.0192
3636.00,0.0193
3635.00,0.0194
3634.00,0.0194
3633.00,0.0194
3632.00,0.0197
3631.00,0.0200
3630.00,0.0203
3629.00,0.0205
3628.00,0.0207
3627.00,0.0208
3626.00,0.0209
3625.00,0.0208
3624.00,0.0207
3623.00,0.0206
3622.00,0.0207
3621.00,0.0210
3620.00,0.0212
3619.00,0.0215
3618.00,0.0217
3617.00,0.0218
3616.00,0.0219
3615.00,0.0219
3614.00,0.0219
3613.00,0.0218
3612.00,0.0219
3611.00,0.0220
3610.00,0.0220
3609.00,0.0220
3608.00,0.0220
3607.00,0.0220
3606.00,0.0220
3605.00,0.0220
3604.00,0.0219
3603.00,0.0219
3602.00,0.0219
3601.00,0.0220
3600.00,0.0221
3599.00,0.0223
3598.00,0.0224
3597.00,0.0225
3596.00,0.0226
3595.00,0.0227
3594.00,0.0228
3593.00,0.0228
3592.00,0.0228
3591.00,0.0228
3590.00,0.0228
3589.00,0.0230
3588.00,0.0233
3587.00,0.0235
3586.00,0.0237
3585.00,0.0237
3584.00,0.0236
3583.00,0.0235
3582.00,0.0234
3581.00,0.0233
3580.00,0.0234
3579.00,0.0234
3578.00,0.0235
3577.00,0.0235
3576.00,0.0235
3575.00,0.0235
3574.00,0.0235
3573.00,0.0235
3572.00,0.0235
3571.00,0.0236
3570.00,0.0238
3569.00,0.0240
3568.00,0.0243
3567.00,0.0247
3566.00,0.0249
3565.00,0.0250
3564.00,0.0249
3563.00,0.0248
3562.00,0.0247
3561.00,0.0246
3560.00,0.0245
3559.00,0.0245
3558.00,0.0245
3557.00,0.0244
3556.00,0.0244
3555.00,0.0244
3554.00,0.0245
3553.00,0.0247
3552.00,0.0248
3551.00,0.0249
3550.00,0.0250
3549.00,0.0250
3548.00,0.0250
3547.00,0.0252
3546.00,0.0254
3545.00,0.0255
3544.00,0.0256
3543.00,0.0255
3542.00,0.0254
3541.00,0.0253
3540.00,0.0252
3539.00,0.0252
3538.00,0.0253
3537.00,0.0253
3536.00,0.0254
3535.00,0.0255
3534.00,0.0255
3533.00,0.0255
3532.00,0.0255
3531.00,0.0256
3530.00,0.0257
3529.00,0.0258
3528.00,0.0259
3527.00,0.0261
3526.00,0.0262
3525.00,0.0262
3524.00,0.0263
3523.00,0.0263
3522.00,0.0264
3521.00,0.0263
3520.00,0.0263
3519.00,0.0263
3518.00,0.0264
3517.00,0.0264
3516.00,0.0265
3515.00,0.0266
3514.00,0.0265
3513.00,0.0265
3512.00,0.0266
3511.00,0.0267
3510.00,0.0268
3509.00,0.0269
3508.00,0.0269
3507.00,0.0269
3506.00,0.0269
3505.00,0.0269
3504.00,0.0270
3503.00,0.0271
3502.00,0.0272
3501.00,0.0273
3500.00,0.0273
3499.00,0.0273
3498.00,0.0272
3497.00,0.0272
3496.00,0.0272
3495.00,0.0272
3494.00,0.0273
3493.00,0.0273
3492.00,0.0273
3491.00,0.0272
3490.00,0.0272
3489.00,0.0272
3488.00,0.0273
3487.00,0.0274
3486.00,0.0275
3485.00,0.0275
3484.00,0.0276
3483.00,0.0277
3482.00,0.0278
3481.00,0.0279
3480.00,0.0279
3479.00,0.0280
3478.00,0.0280
3477.00,0.0280
3476.00,0.0280
3475.00,0.0281
3474.00,0.0281
3473.00,0.0282
3472.00,0.0283
3471.00,0.0283
3470.00,0.0283
3469.00,0.0283
3468.00,0.0283
3467.00,0.0282
3466.00,0.0283
3465.00,0.0283
3464.00,0.0283
3463.00,0.0284
3462.00,0.0284
3461.00,0.0284
3460.00,0.0284
3459.00,0.0284
3458.00,0.0284
3457.00,0.0284
3456.00,0.0285
3455.00,0.0286
3454.00,0.0287
3453.00,0.0288
3452.00,0.0288
3451.00,0.0288
3450.00,0.0288
3449.00,0.0288
3448.00,0.0288
3447.00,0.0289
3446.00,0.0290
3445.00,0.0290
3444.00,0.0291
3443.00,0.0291
3442.00,0.0291
3441.00,0.0291
3440.00,0.0291
3439.00,0.0290
3438.00,0.0290
3437.00,0.0291
3436.00,0.0291
3435.00,0.0292
3434.00,0.0292
3433.00,0.0292
3432.00,0.0293
3431.00,0.0293
3430.00,0.0293
3429.00,0.0293
3428.00,0.0294
3427.00,0.0294
3426.00,0.0294
3425.00,0.0294
3424.00,0.0294
3423.00,0.0294
3422.00,0.0295
3421.00,0.0295
3420.00,0.0296
3419.00,0.0297
3418.00,0.0297
3417.00,0.0297
3416.00,0.0296
3415.00,0.0296
3414.00,0.0296
3413.00,0.0297
3412.00,0.0298
3411.00,0.0299
3410.00,0.0299
3409.00,0.0299
3408.00,0.0299
3407.00,0.0300
3406.00,0.0300
3405.00,0.0300
3404.00,0.0300
3403.00,0.0300
3402.00,0.0300
3401.00,0.0300
3400.00,0.0300
3399.00,0.0300
3398.00,0.0300
3397.00,0.0300
3396.00,0.0300
3395.00,0.0300
3394.00,0.0301
3393.00,0.0301
3392.00,0.0302
3391.00,0.0302
3390.00,0.0302
3389.00,0.0301
3388.00,0.0301
3387.00,0.0301
3386.00,0.0301
3385.00,0.0302
3384.00,0.0302
3383.00,0.0302
3382.00,0.0302
3381.00,0.0301
3380.00,0.0301
3379.00,0.0301
3378.00,0.0302
3377.00,0.0302
3376.00,0.0302
3375.00,0.0303
3374.00,0.0303
3373.00,0.0303
3372.00,0.0303
3371.00,0.0303
3370.00,0.0303
3369.00,0.0303
3368.00,0.0303
3367.00,0.0304
3366.00,0.0305
3365.00,0.0306
3364.00,0.0306
3363.00,0.0306
3362.00,0.0306
3361.00,0.0306
3360.00,0.0306
3359.00,0.0306
3358.00,0.0306
3357.00,0.0307
3356.00,0.0307
3355.00,0.0306
3354.00,0.0306
3353.00,0.0305
3352.00,0.0305
3351.00,0.0305
3350.00,0.0305
3349.00,0.0305
3348.00,0.0304
3347.00,0.0304
3346.00,0.0305
3345.00,0.0305
3344.00,0.0305
3343.00,0.0305
3342.00,0.0305
3341.00,0.0305
3340.00,0.0305
3339.00,0.0305
3338.00,0.0305
3337.00,0.0306
3336.00,0.0306
3335.00,0.0307
3334.00,0.0307
3333.00,0.0307
3332.00,0.0307
3331.00,0.0306
3330.00,0.0306
3329.00,0.0306
3328.00,0.0306
3327.00,0.0306
3326.00,0.0307
3325.00,0.0307
3324.00,0.0307
3323.00,0.0307
3322.00,0.0307
3321.00,0.0307
3320.00,0.0307
3319.00,0.0307
3318.00,0.0307
3317.00,0.0306
3316.00,0.0306
3315.00,0.0306
3314.00,0.0306
3313.00,0.0306
3312.00,0.0306
3311.00,0.0307
3310.00,0.0307
3309.00,0.0307
3308.00,0.0307
3307.00,0.0306
3306.00,0.0307
3305.00,0.0307
3304.00,0.0307
3303.00,0.0307
3302.00,0.0307
3301.00,0.0307
3300.00,0.0306
3299.00,0.0306
3298.00,0.0307
3297.00,0.0307
3296.00,0.0307
3295.00,0.0307
3294.00,0.0307
3293.00,0.0306
3292.00,0.0306
3291.00,0.0307
3290.00,0.0307
3289.00,0.0307
3288.00,0.0307
3287.00,0.0307
3286.00,0.0307
3285.00,0.0307
3284.00,0.0307
3283.00,0.0307
3282.00,0.0307
3281.00,0.0308
3280.00,0.0308
3279.00,0.0308
3278.00,0.0308
3277.00,0.0308
3276.00,0.0308
3275.00,0.0309
3274.00,0.0309
3273.00,0.0309
3272.00,0.0309
3271.00,0.0309
3270.00,0.0309
3269.00,0.0308
3268.00,0.0308
3267.00,0.0308
3266.00,0.0309
3265.00,0.0309
3264.00,0.0309
3263.00,0.0309
3262.00,0.0310
3261.00,0.0310
3260.00,0.0310
3259.00,0.0309
3258.00,0.0309
3257.00,0.0309
3256.00,0.0310
3255.00,0.0310
3254.00,0.0310
3253.00,0.0310
3252.00,0.0309
3251.00,0.0309
3250.00,0.0309
3249.00,0.0309
3248.00,0.0310
3247.00,0.0311
3246.00,0.0311
3245.00,0.0312
3244.00,0.0312
3243.00,0.0312
3242.00,0.0312
3241.00,0.0312
3240.00,0.0312
3239.00,0.0312
3238.00,0.0312
3237.00,0.0312
3236.00,0.0312
3235.00,0.0312
3234.00,0.0312
3233.00,0.0313
3232.00,0.0314
3231.00,0.0314
3230.00,0.0314
3229.00,0.0314
3228.00,0.0314
3227.00,0.0314
3226.00,0.0314
3225.00,0.0314
3224.00,0.0314
3223.00,0.0314
3222.00,0.0314
3221.00,0.0314
3220.00,0.0314
3219.00,0.0314
3218.00,0.0313
3217.00,0.0313
3216.00,0.0313
3215.00,0.0313
3214.00,0.0313
3213.00,0.0314
3212.00,0.0314
3211.00,0.0315
3210.00,0.0315
3209.00,0.0315
3208.00,0.0314
3207.00,0.0314
3206.00,0.0314
3205.00,0.0314
3204.00,0.0314
3203.00,0.0314
3202.00,0.0314
3201.00,0.0315
3200.00,0.0315
3199.00,0.0315
3198.00,0.0315
3197.00,0.0315
3196.00,0.0315
3195.00,0.0315
3194.00,0.0314
3193.00,0.0314
3192.00,0.0314
3191.00,0.0314
3190.00,0.0314
3189.00,0.0314
3188.00,0.0314
3187.00,0.0314
3186.00,0.0314
3185.00,0.0315
3184.00,0.0315
3183.00,0.0315
3182.00,0.0316
3181.00,0.0316
3180.00,0.0316
3179.00,0.0316
3178.00,0.0316
3177.00,0.0315
3176.00,0.0315
3175.00,0.0315
3174.00,0.0315
3173.00,0.0316
3172.00,0.0316
3171.00,0.0316
3170.00,0.0315
3169.00,0.0315
3168.00,0.0314
3167.00,0.0314
3166.00,0.0314
3165.00,0.0315
3164.00,0.0315
3163.00,0.0315
3162.00,0.0315
3161.00,0.0315
3160.00,0.0315
3159.00,0.0315
3158.00,0.0315
3157.00,0.0315
3156.00,0.0314
3155.00,0.0314
3154.00,0.0314
3153.00,0.0314
3152.00,0.0314
3151.00,0.0314
3150.00,0.0314
3149.00,0.0314
3148.00,0.0314
3147.00,0.0314
3146.00,0.0314
3145.00,0.0314
3144.00,0.0314
3143.00,0.0314
3142.00,0.0314
3141.00,0.0314
3140.00,0.0314
3139.00,0.0314
3138.00,0.0313
3137.00,0.0313
3136.00,0.0313
3135.00,0.0313
3134.00,0.0313
3133.00,0.0313
3132.00,0.0313
3131.00,0.0314
3130.00,0.0314
3129.00,0.0314
3128.00,0.0314
3127.00,0.0314
3126.00,0.0314
3125.00,0.0314
3124.00,0.0314
3123.00,0.0313
3122.00,0.0313
3121.00,0.0313
3120.00,0.0313
3119.00,0.0313
3118.00,0.0313
3117.00,0.0313
3116.00,0.0314
3115.00,0.0314
3114.00,0.0314
3113.00,0.0314
3112.00,0.0314
3111.00,0.0314
3110.00,0.0313
3109.00,0.0313
3108.00,0.0313
3107.00,0.0313
3106.00,0.0313
3105.00,0.0313
3104.00,0.0313
3103.00,0.0313
3102.00,0.0313
3101.00,0.0313
3100.00,0.0313
3099.00,0.0313
3098.00,0.0313
3097.00,0.0313
3096.00,0.0313
3095.00,0.0313
3094.00,0.0313
3093.00,0.0312
3092.00,0.0312
3091.00,0.0312
3090.00,0.0312
3089.00,0.0312
3088.00,0.0312
3087.00,0.0312
3086.00,0.0312
3085.00,0.0312
3084.00,0.0312
3083.00,0.0312
3082.00,0.0312
3081.00,0.0312
3080.00,0.0313
3079.00,0.0313
3078.00,0.0313
3077.00,0.0313
3076.00,0.0312
3075.00,0.0312
3074.00,0.0312
3073.00,0.0312
3072.00,0.0312
3071.00,0.0312
3070.00,0.0312
3069.00,0.0312
3068.00,0.0311
3067.00,0.0311
3066.00,0.0312
3065.00,0.0312
3064.00,0.0312
3063.00,0.0312
3062.00,0.0312
3061.00,0.0311
3060.00,0.0311
3059.00,0.0311
3058.00,0.0311
3057.00,0.0311
3056.00,0.0311
3055.00,0.0311
3054.00,0.0311
3053.00,0.0311
3052.00,0.0310
3051.00,0.0310
3050.00,0.0309
3049.00,0.0309
3048.00,0.0309
3047.00,0.0308
3046.00,0.0308
3045.00,0.0308
3044.00,0.0309
3043.00,0.0309
3042.00,0.0308
3041.00,0.0308
3040.00,0.0308
3039.00,0.0308
3038.00,0.0308
3037.00,0.0308
3036.00,0.0308
3035.00,0.0308
3034.00,0.0308
3033.00,0.0308
3032.00,0.0308
3031.00,0.0308
3030.00,0.0308
3029.00,0.0307
3028.00,0.0306
3027.00,0.0306
3026.00,0.0305
3025.00,0.0305
3024.00,0.0305
3023.00,0.0305
3022.00,0.0306
3021.00,0.0306
3020.00,0.0306
3019.00,0.0305
3018.00,0.0305
3017.00,0.0305
3016.00,0.0305
3015.00,0.0305
3014.00,0.0305
3013.00,0.0304
3012.00,0.0304
3011.00,0.0304
3010.00,0.0304
3009.00,0.0303
3008.00,0.0303
3007.00,0.0303
3006.00,0.0302
3005.00,0.0302
3004.00,0.0302
3003.00,0.0302
3002.00,0.0302
3001.00,0.0301
3000.00,0.0301
2999.00,0.0300
2998.00,0.0300
2997.00,0.0299
2996.00,0.0299
2995.00,0.0299
2994.00,0.0299
2993.00,0.0299
2992.00,0.0298
2991.00,0.0298
2990.00,0.0297
2989.00,0.0297
2988.00,0.0297
2987.00,0.0296
2986.00,0.0296
2985.00,0.0296
2984.00,0.0295
2983.00,0.0294
2982.00,0.0293
2981.00,0.0293
2980.00,0.0293
2979.00,0.0293
2978.00,0.0294
2977.00,0.0294
2976.00,0.0294
2975.00,0.0293
2974.00,0.0293
2973.00,0.0292
2972.00,0.0291
2971.00,0.0290
2970.00,0.0290
2969.00,0.0289
2968.00,0.0289
2967.00,0.0289
2966.00,0.0289
2965.00,0.0289
2964.00,0.0288
2963.00,0.0288
2962.00,0.0287
2961.00,0.0287
2960.00,0.0287
2959.00,0.0287
2958.00,0.0286
2957.00,0.0286
2956.00,0.0286
2955.00,0.0286
2954.00,0.0286
2953.00,0.0287
2952.00,0.0287
2951.00,0.0288
2950.00,0.0288
2949.00,0.0287
2948.00,0.0287
2947.00,0.0287
2946.00,0.0287
2945.00,0.0287
2944.00,0.0287
2943.00,0.0287
2942.00,0.0286
2941.00,0.0285
2940.00,0.0284
2939.00,0.0283
2938.00,0.0282
2937.00,0.0281
2936.00,0.0281
2935.00,0.0280
2934.00,0.0279
2933.00,0.0278
2932.00,0.0277
2931.00,0.0276
2930.00,0.0274
2929.00,0.0273
2928.00,0.0272
2927.00,0.0271
2926.00,0.0270
2925.00,0.0269
2924.00,0.0269
2923.00,0.0269
2922.00,0.0269
2921.00,0.0269
2920.00,0.0269
2919.00,0.0268
2918.00,0.0268
2917.00,0.0268
2916.00,0.0268
2915.00,0.0270
2914.00,0.0272
2913.00,0.0274
2912.00,0.0275
2911.00,0.0277
2910.00,0.0277
2909.00,0.0278
2908.00,0.0279
2907.00,0.0279
2906.00,0.0279
2905.00,0.0279
2904.00,0.0279
2903.00,0.0279
2902.00,0.0280
2901.00,0.0280
2900.00,0.0280
2899.00,0.0281
2898.00,0.0281
2897.00,0.0280
2896.00,0.0280
2895.00,0.0280
2894.00,0.0280
2893.00,0.0280
2892.00,0.0281
2891.00,0.0281
2890.00,0.0281
2889.00,0.0281
2888.00,0.0281
2887.00,0.0281
2886.00,0.0281
2885.00,0.0281
2884.00,0.0282
2883.00,0.0282
2882.00,0.0282
2881.00,0.0282
2880.00,0.0282
2879.00,0.0281
2878.00,0.0281
2877.00,0.0281
2876.00,0.0280
2875.00,0.0279
2874.00,0.0278
2873.00,0.0278
2872.00,0.0277
2871.00,0.0277
2870.00,0.0277
2869.00,0.0277
2868.00,0.0277
2867.00,0.0276
2866.00,0.0276
2865.00,0.0275
2864.00,0.0275
2863.00,0.0275
2862.00,0.0274
2861.00,0.0273
2860.00,0.0273
2859.00,0.0272
2858.00,0.0271
2857.00,0.0271
2856.00,0.0270
2855.00,0.0269
2854.00,0.0269
2853.00,0.0269
2852.00,0.0269
2851.00,0.0269
2850.00,0.0269
2849.00,0.0269
2848.00,0.0270
2847.00,0.0271
2846.00,0.0272
2845.00,0.0273
2844.00,0.0273
2843.00,0.0274
2842.00,0.0275
2841.00,0.0275
2840.00,0.0276
2839.00,0.0277
2838.00,0.0277
2837.00,0.0277
2836.00,0.0277
2835.00,0.0277
2834.00,0.0276
2833.00,0.0276
2832.00,0.0276
2831.00,0.0276
2830.00,0.0276
2829.00,0.0276
2828.00,0.0276
2827.00,0.0276
2826.00,0.0276
2825.00,0.0275
2824.00,0.0275
2823.00,0.0275
2822.00,0.0275
2821.00,0.0275
2820.00,0.0275
2819.00,0.0275
2818.00,0.0275
2817.00,0.0274
2816.00,0.0274
2815.00,0.0274
2814.00,0.0273
2813.00,0.0273
2812.00,0.0273
2811.00,0.0272
2810.00,0.0272
2809.00,0.0272
2808.00,0.0272
2807.00,0.0272
2806.00,0.0272
2805.00,0.0272
2804.00,0.0271
2803.00,0.0271
2802.00,0.0271
2801.00,0.0271
2800.00,0.0270
2799.00,0.0270
2798.00,0.0270
2797.00,0.0270
2796.00,0.0270
2795.00,0.0269
2794.00,0.0269
2793.00,0.0269
2792.00,0.0269
2791.00,0.0269
2790.00,0.0269
2789.00,0.0269
2788.00,0.0269
2787.00,0.0269
2786.00,0.0269
2785.00,0.0268
2784.00,0.0268
2783.00,0.0268
2782.00,0.0267
2781.00,0.0267
2780.00,0.0267
2779.00,0.0267
2778.00,0.0267
2777.00,0.0267
2776.00,0.0267
2775.00,0.0267
2774.00,0.0267
2773.00,0.0266
2772.00,0.0266
2771.00,0.0265
2770.00,0.0265
2769.00,0.0265
2768.00,0.0265
2767.00,0.0265
2766.00,0.0264
2765.00,0.0264
2764.00,0.0264
2763.00,0.0264
2762.00,0.0263
2761.00,0.0263
2760.00,0.0263
2759.00,0.0263
2758.00,0.0263
2757.00,0.0263
2756.00,0.0263
2755.00,0.0262
2754.00,0.0262
2753.00,0.0262
2752.00,0.0262
2751.00,0.0261
2750.00,0.0262
2749.00,0.0262
2748.00,0.0262
2747.00,0.0261
2746.00,0.0261
2745.00,0.0260
2744.00,0.0259
2743.00,0.0259
2742.00,0.0259
2741.00,0.0260
2740.00,0.0260
2739.00,0.0260
2738.00,0.0260
2737.00,0.0260
2736.00,0.0259
2735.00,0.0259
2734.00,0.0258
2733.00,0.0258
2732.00,0.0258
2731.00,0.0258
2730.00,0.0258
2729.00,0.0257
2728.00,0.0257
2727.00,0.0257
2726.00,0.0257
2725.00,0.0257
2724.00,0.0257
2723.00,0.0256
2722.00,0.0256
2721.00,0.0256
2720.00,0.0256
2719.00,0.0256
2718.00,0.0255
2717.00,0.0255
2716.00,0.0254
2715.00,0.0254
2714.00,0.0254
2713.00,0.0254
2712.00,0.0254
2711.00,0.0255
2710.00,0.0255
2709.00,0.0255
2708.00,0.0254
2707.00,0.0254
2706.00,0.0254
2705.00,0.0253
2704.00,0.0253
2703.00,0.0253
2702.00,0.0253
2701.00,0.0253
2700.00,0.0252
2699.00,0.0252
2698.00,0.0252
2697.00,0.0252
2696.00,0.0252
2695.00,0.0252
2694.00,0.0252
2693.00,0.0252
2692.00,0.0251
2691.00,0.0251
2690.00,0.0251
2689.00,0.0250
2688.00,0.0250
2687.00,0.0250
2686.00,0.0250
2685.00,0.0249
2684.00,0.0249
2683.00,0.0249
2682.00,0.0249
2681.00,0.0249
2680.00,0.0249
2679.00,0.0249
2678.00,0.0250
2677.00,0.0250
2676.00,0.0250
2675.00,0.0249
2674.00,0.0249
2673.00,0.0248
2672.00,0.0248
2671.00,0.0248
2670.00,0.0247
2669.00,0.0247
2668.00,0.0247
2667.00,0.0248
2666.00,0.0248
2665.00,0.0248
2664.00,0.0248
2663.00,0.0248
2662.00,0.0248
2661.00,0.0248
2660.00,0.0248
2659.00,0.0248
2658.00,0.0248
2657.00,0.0248
2656.00,0.0248
2655.00,0.0249
2654.00,0.0249
2653.00,0.0249
2652.00,0.0248
2651.00,0.0248
2650.00,0.0248
2649.00,0.0248
2648.00,0.0249
2647.00,0.0248
2646.00,0.0248
2645.00,0.0248
2644.00,0.0249
2643.00,0.0249
2642.00,0.0249
2641.00,0.0249
2640.00,0.0249
2639.00,0.0249
2638.00,0.0248
2637.00,0.0248
2636.00,0.0248
2635.00,0.0248
2634.00,0.0248
2633.00,0.0248
2632.00,0.0248
2631.00,0.0248
2630.00,0.0248
2629.00,0.0248
2628.00,0.0248
2627.00,0.0248
2626.00,0.0249
2625.00,0.0248
2624.00,0.0248
2623.00,0.0248
2622.00,0.0248
2621.00,0.0247
2620.00,0.0247
2619.00,0.0248
2618.00,0.0248
2617.00,0.0249
2616.00,0.0249
2615.00,0.0249
2614.00,0.0249
2613.00,0.0249
2612.00,0.0248
2611.00,0.0247
2610.00,0.0247
2609.00,0.0247
2608.00,0.0247
2607.00,0.0247
2606.00,0.0247
2605.00,0.0247
2604.00,0.0247
2603.00,0.0247
2602.00,0.0248
2601.00,0.0247
2600.00,0.0247
2599.00,0.0247
2598.00,0.0247
2597.00,0.0247
2596.00,0.0247
2595.00,0.0247
2594.00,0.0247
2593.00,0.0247
2592.00,0.0248
2591.00,0.0248
2590.00,0.0248
2589.00,0.0248
2588.00,0.0247
2587.00,0.0247
2586.00,0.0246
2585.00,0.0246
2584.00,0.0246
2583.00,0.0247
2582.00,0.0247
2581.00,0.0247
2580.00,0.0246
2579.00,0.0246
2578.00,0.0246
2577.00,0.0247
2576.00,0.0247
2575.00,0.0246
2574.00,0.0246
2573.00,0.0246
2572.00,0.0245
2571.00,0.0245
2570.00,0.0245
2569.00,0.0245
2568.00,0.0245
2567.00,0.0245
2566.00,0.0246
2565.00,0.0246
2564.00,0.0246
2563.00,0.0246
2562.00,0.0247
2561.00,0.0247
2560.00,0.0246
2559.00,0.0246
2558.00,0.0246
2557.00,0.0246
2556.00,0.0246
2555.00,0.0247
2554.00,0.0247
2553.00,0.0247
2552.00,0.0246
2551.00,0.0246
2550.00,0.0246
2549.00,0.0245
2548.00,0.0245
2547.00,0.0245
2546.00,0.0244
2545.00,0.0244
2544.00,0.0243
2543.00,0.0244
2542.00,0.0245
2541.00,0.0245
2540.00,0.0245
2539.00,0.0245
2538.00,0.0245
2537.00,0.0245
2536.00,0.0245
2535.00,0.0245
2534.00,0.0245
2533.00,0.0245
2532.00,0.0244
2531.00,0.0244
2530.00,0.0244
2529.00,0.0244
2528.00,0.0245
2527.00,0.0245
2526.00,0.0245
2525.00,0.0245
2524.00,0.0245
2523.00,0.0244
2522.00,0.0244
2521.00,0.0244
2520.00,0.0244
2519.00,0.0244
2518.00,0.0244
2517.00,0.0243
2516.00,0.0243
2515.00,0.0243
2514.00,0.0243
2513.00,0.0244
2512.00,0.0244
2511.00,0.0244
2510.00,0.0244
2509.00,0.0243
2508.00,0.0242
2507.00,0.0242
2506.00,0.0242
2505.00,0.0242
2504.00,0.0242
2503.00,0.0242
2502.00,0.0242
2501.00,0.0242
2500.00,0.0242
2499.00,0.0241
2498.00,0.0241
2497.00,0.0240
2496.00,0.0240
2495.00,0.0240
2494.00,0.0240
2493.00,0.0241
2492.00,0.0241
2491.00,0.0241
2490.00,0.0241
2489.00,0.0241
2488.00,0.0240
2487.00,0.0240
2486.00,0.0240
2485.00,0.0240
2484.00,0.0240
2483.00,0.0240
2482.00,0.0241
2481.00,0.0241
2480.00,0.0241
2479.00,0.0241
2478.00,0.0241
2477.00,0.0240
2476.00,0.0240
2475.00,0.0240
2474.00,0.0240
2473.00,0.0240
2472.00,0.0239
2471.00,0.0239
2470.00,0.0238
2469.00,0.0238
2468.00,0.0238
2467.00,0.0238
2466.00,0.0238
2465.00,0.0238
2464.00,0.0238
2463.00,0.0238
2462.00,0.0238
2461.00,0.0238
2460.00,0.0238
2459.00,0.0238
2458.00,0.0239
2457.00,0.0239
2456.00,0.0238
2455.00,0.0238
2454.00,0.0237
2453.00,0.0237
2452.00,0.0238
2451.00,0.0238
2450.00,0.0237
2449.00,0.0237
2448.00,0.0237
2447.00,0.0237
2446.00,0.0236
2445.00,0.0236
2444.00,0.0236
2443.00,0.0236
2442.00,0.0236
2441.00,0.0236
2440.00,0.0235
2439.00,0.0235
2438.00,0.0234
2437.00,0.0234
2436.00,0.0233
2435.00,0.0233
2434.00,0.0233
2433.00,0.0233
2432.00,0.0234
2431.00,0.0234
2430.00,0.0234
2429.00,0.0234
2428.00,0.0234
2427.00,0.0233
2426.00,0.0233
2425.00,0.0233
2424.00,0.0233
2423.00,0.0233
2422.00,0.0232
2421.00,0.0232
2420.00,0.0231
2419.00,0.0231
2418.00,0.0231
2417.00,0.0231
2416.00,0.0231
2415.00,0.0231
2414.00,0.0231
2413.00,0.0231
2412.00,0.0231
2411.00,0.0231
2410.00,0.0231
2409.00,0.0231
2408.00,0.0230
2407.00,0.0230
2406.00,0.0230
2405.00,0.0230
2404.00,0.0230
2403.00,0.0230
2402.00,0.0229
2401.00,0.0229
2400.00,0.0229
2399.00,0.0228
2398.00,0.0228
2397.00,0.0228
2396.00,0.0228
2395.00,0.0227
2394.00,0.0227
2393.00,0.0227
2392.00,0.0227
2391.00,0.0227
2390.00,0.0226
2389.00,0.0226
2388.00,0.0225
2387.00,0.0224
2386.00,0.0222
2385.00,0.0221
2384.00,0.0219
2383.00,0.0217
2382.00,0.0216
2381.00,0.0216
2380.00,0.0216
2379.00,0.0216
2378.00,0.0217
2377.00,0.0218
2376.00,0.0219
2375.00,0.0220
2374.00,0.0221
2373.00,0.0222
2372.00,0.0221
2371.00,0.0221
2370.00,0.0220
2369.00,0.0220
2368.00,0.0220
2367.00,0.0220
2366.00,0.0220
2365.00,0.0220
2364.00,0.0220
2363.00,0.0220
2362.00,0.0220
2361.00,0.0221
2360.00,0.0222
2359.00,0.0222
2358.00,0.0223
2357.00,0.0223
2356.00,0.0223
2355.00,0.0222
2354.00,0.0220
2353.00,0.0220
2352.00,0.0220
2351.00,0.0222
2350.00,0.0221
2349.00,0.0219
2348.00,0.0214
2347.00,0.0211
2346.00,0.0210
2345.00,0.0213
2344.00,0.0216
2343.00,0.0219
2342.00,0.0220
2341.00,0.0220
2340.00,0.0220
2339.00,0.0220
2338.00,0.0220
2337.00,0.0220
2336.00,0.0220
2335.00,0.0220
2334.00,0.0220
2333.00,0.0220
2332.00,0.0219
2331.00,0.0219
2330.00,0.0220
2329.00,0.0221
2328.00,0.0222
2327.00,0.0222
2326.00,0.0221
2325.00,0.0221
2324.00,0.0221
2323.00,0.0221
2322.00,0.0220
2321.00,0.0220
2320.00,0.0219
2319.00,0.0219
2318.00,0.0219
2317.00,0.0219
2316.00,0.0219
2315.00,0.0218
2314.00,0.0217
2313.00,0.0216
2312.00,0.0216
2311.00,0.0215
2310.00,0.0214
2309.00,0.0214
2308.00,0.0214
2307.00,0.0214
2306.00,0.0214
2305.00,0.0215
2304.00,0.0215
2303.00,0.0214
2302.00,0.0214
2301.00,0.0213
2300.00,0.0213
2299.00,0.0212
2298.00,0.0212
2297.00,0.0212
2296.00,0.0212
2295.00,0.0213
2294.00,0.0213
2293.00,0.0214
2292.00,0.0214
2291.00,0.0215
2290.00,0.0215
2289.00,0.0216
2288.00,0.0216
2287.00,0.0215
2286.00,0.0215
2285.00,0.0215
2284.00,0.0215
2283.00,0.0215
2282.00,0.0214
2281.00,0.0214
2280.00,0.0214
2279.00,0.0214
2278.00,0.0213
2277.00,0.0213
2276.00,0.0213
2275.00,0.0214
2274.00,0.0214
2273.00,0.0215
2272.00,0.0215
2271.00,0.0213
2270.00,0.0212
2269.00,0.0212
2268.00,0.0212
2267.00,0.0213
2266.00,0.0213
2265.00,0.0213
2264.00,0.0212
2263.00,0.0212
2262.00,0.0212
2261.00,0.0212
2260.00,0.0212
2259.00,0.0212
2258.00,0.0212
2257.00,0.0213
2256.00,0.0214
2255.00,0.0213
2254.00,0.0212
2253.00,0.0210
2252.00,0.0209
2251.00,0.0209
2250.00,0.0209
2249.00,0.0210
2248.00,0.0209
2247.00,0.0209
2246.00,0.0208
2245.00,0.0207
2244.00,0.0206
2243.00,0.0206
2242.00,0.0207
2241.00,0.0207
2240.00,0.0207
2239.00,0.0207
2238.00,0.0206
2237.00,0.0206
2236.00,0.0206
2235.00,0.0206
2234.00,0.0206
2233.00,0.0207
2232.00,0.0208
2231.00,0.0208
2230.00,0.0208
2229.00,0.0208
2228.00,0.0208
2227.00,0.0208
2226.00,0.0208
2225.00,0.0208
2224.00,0.0207
2223.00,0.0206
2222.00,0.0207
2221.00,0.0208
2220.00,0.0209
2219.00,0.0208
2218.00,0.0208
2217.00,0.0207
2216.00,0.0207
2215.00,0.0207
2214.00,0.0207
2213.00,0.0207
2212.00,0.0206
2211.00,0.0204
2210.00,0.0203
2209.00,0.0202
2208.00,0.0202
2207.00,0.0203
2206.00,0.0204
2205.00,0.0205
2204.00,0.0206
2203.00,0.0205
2202.00,0.0205
2201.00,0.0204
2200.00,0.0204
2199.00,0.0205
2198.00,0.0205
2197.00,0.0205
2196.00,0.0205
2195.00,0.0206
2194.00,0.0205
2193.00,0.0204
2192.00,0.0202
2191.00,0.0202
2190.00,0.0202
2189.00,0.0203
2188.00,0.0204
2187.00,0.0203
2186.00,0.0202
2185.00,0.0202
2184.00,0.0203
2183.00,0.0204
2182.00,0.0204
2181.00,0.0205
2180.00,0.0206
2179.00,0.0206
2178.00,0.0206
2177.00,0.0204
2176.00,0.0202
2175.00,0.0200
2174.00,0.0200
2173.00,0.0202
2172.00,0.0202
2171.00,0.0201
2170.00,0.0199
2169.00,0.0197
2168.00,0.0197
2167.00,0.0198
2166.00,0.0199
2165.00,0.0202
2164.00,0.0204
2163.00,0.0205
2162.00,0.0204
2161.00,0.0202
2160.00,0.0199
2159.00,0.0196
2158.00,0.0194
2157.00,0.0194
2156.00,0.0195
2155.00,0.0196
2154.00,0.0196
2153.00,0.0196
2152.00,0.0195
2151.00,0.0194
2150.00,0.0194
2149.00,0.0193
2148.00,0.0192
2147.00,0.0191
2146.00,0.0190
2145.00,0.0189
2144.00,0.0189
2143.00,0.0190
2142.00,0.0192
2141.00,0.0193
2140.00,0.0192
2139.00,0.0191
2138.00,0.0190
2137.00,0.0188
2136.00,0.0186
2135.00,0.0184
2134.00,0.0184
2133.00,0.0183
2132.00,0.0184
2131.00,0.0184
2130.00,0.0183
2129.00,0.0183
2128.00,0.0181
2127.00,0.0181
2126.00,0.0180
2125.00,0.0181
2124.00,0.0182
2123.00,0.0182
2122.00,0.0183
2121.00,0.0184
2120.00,0.0186
2119.00,0.0187
2118.00,0.0189
2117.00,0.0189
2116.00,0.0189
2115.00,0.0188
2114.00,0.0187
2113.00,0.0186
2112.00,0.0184
2111.00,0.0183
2110.00,0.0183
2109.00,0.0183
2108.00,0.0183
2107.00,0.0183
2106.00,0.0182
2105.00,0.0181
2104.00,0.0181
2103.00,0.0181
2102.00,0.0181
2101.00,0.0181
2100.00,0.0181
2099.00,0.0181
2098.00,0.0181
2097.00,0.0181
2096.00,0.0181
2095.00,0.0180
2094.00,0.0180
2093.00,0.0180
2092.00,0.0181
2091.00,0.0182
2090.00,0.0182
2089.00,0.0182
2088.00,0.0181
2087.00,0.0180
2086.00,0.0180
2085.00,0.0180
2084.00,0.0179
2083.00,0.0179
2082.00,0.0179
2081.00,0.0178
2080.00,0.0178
2079.00,0.0179
2078.00,0.0179
2077.00,0.0180
2076.00,0.0181
2075.00,0.0180
2074.00,0.0179
2073.00,0.0178
2072.00,0.0178
2071.00,0.0178
2070.00,0.0179
2069.00,0.0180
2068.00,0.0180
2067.00,0.0180
2066.00,0.0180
2065.00,0.0179
2064.00,0.0179
2063.00,0.0179
2062.00,0.0179
2061.00,0.0179
2060.00,0.0179
2059.00,0.0178
2058.00,0.0177
2057.00,0.0176
2056.00,0.0176
2055.00,0.0177
2054.00,0.0178
2053.00,0.0179
2052.00,0.0181
2051.00,0.0181
2050.00,0.0181
2049.00,0.0180
2048.00,0.0179
2047.00,0.0179
2046.00,0.0180
2045.00,0.0181
2044.00,0.0180
2043.00,0.0178
2042.00,0.0178
2041.00,0.0178
2040.00,0.0179
2039.00,0.0179
2038.00,0.0180
2037.00,0.0180
2036.00,0.0179
2035.00,0.0178
2034.00,0.0177
2033.00,0.0176
2032.00,0.0175
2031.00,0.0174
2030.00,0.0174
2029.00,0.0175
2028.00,0.0175
2027.00,0.0173
2026.00,0.0172
2025.00,0.0172
2024.00,0.0173
2023.00,0.0175
2022.00,0.0175
2021.00,0.0175
2020.00,0.0174
2019.00,0.0173
2018.00,0.0172
2017.00,0.0172
2016.00,0.0173
2015.00,0.0173
2014.00,0.0173
2013.00,0.0173
2012.00,0.0171
2011.00,0.0169
2010.00,0.0168
2009.00,0.0168
2008.00,0.0167
2007.00,0.0167
2006.00,0.0166
2005.00,0.0167
2004.00,0.0168
2003.00,0.0169
2002.00,0.0169
2001.00,0.0169
2000.00,0.0168
1999.00,0.0168
1998.00,0.0168
1997.00,0.0170
1996.00,0.0171
1995.00,0.0171
1994.00,0.0172
1993.00,0.0172
1992.00,0.0171
1991.00,0.0171
1990.00,0.0171
1989.00,0.0170
1988.00,0.0169
1987.00,0.0168
1986.00,0.0167
1985.00,0.0166
1984.00,0.0166
1983.00,0.0167
1982.00,0.0169
1981.00,0.0170
1980.00,0.0171
1979.00,0.0170
1978.00,0.0168
1977.00,0.0168
1976.00,0.0168
1975.00,0.0167
1974.00,0.0166
1973.00,0.0165
1972.00,0.0164
1971.00,0.0164
1970.00,0.0164
1969.00,0.0166
1968.00,0.0167
1967.00,0.0166
1966.00,0.0164
1965.00,0.0162
1964.00,0.0162
1963.00,0.0162
1962.00,0.0164
1961.00,0.0164
1960.00,0.0163
1959.00,0.0162
1958.00,0.0160
1957.00,0.0158
1956.00,0.0156
1955.00,0.0154
1954.00,0.0153
1953.00,0.0153
1952.00,0.0154
1951.00,0.0154
1950.00,0.0153
1949.00,0.0153
1948.00,0.0153
1947.00,0.0155
1946.00,0.0156
1945.00,0.0156
1944.00,0.0154
1943.00,0.0151
1942.00,0.0150
1941.00,0.0150
1940.00,0.0151
1939.00,0.0152
1938.00,0.0152
1937.00,0.0151
1936.00,0.0151
1935.00,0.0150
1934.00,0.0150
1933.00,0.0151
1932.00,0.0151
1931.00,0.0151
1930.00,0.0150
1929.00,0.0150
1928.00,0.0150
1927.00,0.0150
1926.00,0.0151
1925.00,0.0152
1924.00,0.0153
1923.00,0.0151
1922.00,0.0150
1921.00,0.0149
1920.00,0.0149
1919.00,0.0148
1918.00,0.0146
1917.00,0.0145
1916.00,0.0144
1915.00,0.0144
1914.00,0.0144
1913.00,0.0144
1912.00,0.0144
1911.00,0.0144
1910.00,0.0144
1909.00,0.0143
1908.00,0.0142
1907.00,0.0141
1906.00,0.0141
1905.00,0.0141
1904.00,0.0140
1903.00,0.0139
1902.00,0.0139
1901.00,0.0138
1900.00,0.0137
1899.00,0.0137
1898.00,0.0136
1897.00,0.0136
1896.00,0.0136
1895.00,0.0136
1894.00,0.0136
1893.00,0.0136
1892.00,0.0136
1891.00,0.0135
1890.00,0.0134
1889.00,0.0133
1888.00,0.0132
1887.00,0.0132
1886.00,0.0133
1885.00,0.0133
1884.00,0.0133
1883.00,0.0133
1882.00,0.0132
1881.00,0.0132
1880.00,0.0131
1879.00,0.0130
1878.00,0.0129
1877.00,0.0129
1876.00,0.0128
1875.00,0.0128
1874.00,0.0128
1873.00,0.0129
1872.00,0.0130
1871.00,0.0131
1870.00,0.0129
1869.00,0.0126
1868.00,0.0125
1867.00,0.0125
1866.00,0.0126
1865.00,0.0126
1864.00,0.0126
1863.00,0.0125
1862.00,0.0124
1861.00,0.0123
1860.00,0.0123
1859.00,0.0123
1858.00,0.0123
1857.00,0.0123
1856.00,0.0124
1855.00,0.0123
1854.00,0.0123
1853.00,0.0122
1852.00,0.0121
1851.00,0.0120
1850.00,0.0120
1849.00,0.0121
1848.00,0.0122
1847.00,0.0123
1846.00,0.0123
1845.00,0.0121
1844.00,0.0118
1843.00,0.0116
1842.00,0.0116
1841.00,0.0117
1840.00,0.0118
1839.00,0.0118
1838.00,0.0117
1837.00,0.0117
1836.00,0.0116
1835.00,0.0115
1834.00,0.0116
1833.00,0.0118
1832.00,0.0120
1831.00,0.0119
1830.00,0.0118
1829.00,0.0116
1828.00,0.0117
1827.00,0.0117
1826.00,0.0116
1825.00,0.0114
1824.00,0.0112
1823.00,0.0112
1822.00,0.0111
1821.00,0.0111
1820.00,0.0111
1819.00,0.0111
1818.00,0.0110
1817.00,0.0110
1816.00,0.0111
1815.00,0.0111
1814.00,0.0111
1813.00,0.0112
1812.00,0.0112
1811.00,0.0111
1810.00,0.0111
1809.00,0.0111
1808.00,0.0112
1807.00,0.0113
1806.00,0.0113
1805.00,0.0115
1804.00,0.0117
1803.00,0.0118
1802.00,0.0119
1801.00,0.0119
1800.00,0.0119
1799.00,0.0119
1798.00,0.0119
1797.00,0.0121
1796.00,0.0123
1795.00,0.0125
1794.00,0.0126
1793.00,0.0126
1792.00,0.0126
1791.00,0.0126
1790.00,0.0128
1789.00,0.0130
1788.00,0.0133
1787.00,0.0134
1786.00,0.0135
1785.00,0.0136
1784.00,0.0138
1783.00,0.0141
1782.00,0.0144
1781.00,0.0146
1780.00,0.0148
1779.00,0.0150
1778.00,0.0152
1777.00,0.0156
1776.00,0.0160
1775.00,0.0164
1774.00,0.0167
1773.00,0.0167
1772.00,0.0168
1771.00,0.0168
1770.00,0.0170
1769.00,0.0172
1768.00,0.0174
1767.00,0.0175
1766.00,0.0177
1765.00,0.0181
1764.00,0.0183
1763.00,0.0185
1762.00,0.0185
1761.00,0.0186
1760.00,0.0188
1759.00,0.0190
1758.00,0.0192
1757.00,0.0193
1756.00,0.0194
1755.00,0.0195
1754.00,0.0197
1753.00,0.0199
1752.00,0.0200
1751.00,0.0202
1750.00,0.0204
1749.00,0.0208
1748.00,0.0212
1747.00,0.0215
1746.00,0.0217
1745.00,0.0220
1744.00,0.0222
1743.00,0.0226
1742.00,0.0229
1741.00,0.0232
1740.00,0.0234
1739.00,0.0237
1738.00,0.0240
1737.00,0.0245
1736.00,0.0248
1735.00,0.0249
1734.00,0.0252
1733.00,0.0256
1732.00,0.0261
1731.00,0.0266
1730.00,0.0271
1729.00,0.0275
1728.00,0.0278
1727.00,0.0281
1726.00,0.0284
1725.00,0.0288
1724.00,0.0292
1723.00,0.0296
1722.00,0.0300
1721.00,0.0304
1720.00,0.0307
1719.00,0.0307
1718.00,0.0309
1717.00,0.0314
1716.00,0.0319
1715.00,0.0322
1714.00,0.0325
1713.00,0.0326
1712.00,0.0327
1711.00,0.0328
1710.00,0.0330
1709.00,0.0332
1708.00,0.0334
1707.00,0.0337
1706.00,0.0339
1705.00,0.0342
1704.00,0.0344
1703.00,0.0346
1702.00,0.0346
1701.00,0.0344
1700.00,0.0342
1699.00,0.0341
1698.00,0.0343
1697.00,0.0345
1696.00,0.0345
1695.00,0.0343
1694.00,0.0342
1693.00,0.0344
1692.00,0.0345
1691.00,0.0345
1690.00,0.0345
1689.00,0.0345
1688.00,0.0346
1687.00,0.0346
1686.00,0.0343
1685.00,0.0340
1684.00,0.0341
1683.00,0.0343
1682.00,0.0343
1681.00,0.0344
1680.00,0.0345
1679.00,0.0345
1678.00,0.0346
1677.00,0.0345
1676.00,0.0345
1675.00,0.0345
1674.00,0.0345
1673.00,0.0347
1672.00,0.0348
1671.00,0.0349
1670.00,0.0349
1669.00,0.0350
1668.00,0.0350
1667.00,0.0350
1666.00,0.0351
1665.00,0.0352
1664.00,0.0352
1663.00,0.0353
1662.00,0.0354
1661.00,0.0354
1660.00,0.0355
1659.00,0.0356
1658.00,0.0357
1657.00,0.0358
1656.00,0.0360
1655.00,0.0359
1654.00,0.0359
1653.00,0.0365
1652.00,0.0367
1651.00,0.0368
1650.00,0.0372
1649.00,0.0375
1648.00,0.0377
1647.00,0.0381
1646.00,0.0385
1645.00,0.0387
1644.00,0.0388
1643.00,0.0389
1642.00,0.0391
1641.00,0.0393
1640.00,0.0395
1639.00,0.0397
1638.00,0.0399
1637.00,0.0402
1636.00,0.0408
1635.00,0.0414
1634.00,0.0416
1633.00,0.0418
1632.00,0.0420
1631.00,0.0422
1630.00,0.0424
1629.00,0.0427
1628.00,0.0431
1627.00,0.0435
1626.00,0.0438
1625.00,0.0441
1624.00,0.0444
1623.00,0.0448
1622.00,0.0451
1621.00,0.0453
1620.00,0.0454
1619.00,0.0455
1618.00,0.0457
1617.00,0.0461
1616.00,0.0466
1615.00,0.0470
1614.00,0.0472
1613.00,0.0474
1612.00,0.0475
1611.00,0.0477
1610.00,0.0480
1609.00,0.0483
1608.00,0.0486
1607.00,0.0488
1606.00,0.0490
1605.00,0.0491
1604.00,0.0492
1603.00,0.0494
1602.00,0.0496
1601.00,0.0498
1600.00,0.0500
1599.00,0.0501
1598.00,0.0502
1597.00,0.0504
1596.00,0.0505
1595.00,0.0507
1594.00,0.0509
1593.00,0.0510
1592.00,0.0511
1591.00,0.0512
1590.00,0.0514
1589.00,0.0515
1588.00,0.0515
1587.00,0.0516
1586.00,0.0517
1585.00,0.0517
1584.00,0.0517
1583.00,0.0517
1582.00,0.0518
1581.00,0.0518
1580.00,0.0517
1579.00,0.0517
1578.00,0.0516
1577.00,0.0516
1576.00,0.0519
1575.00,0.0521
1574.00,0.0521
1573.00,0.0520
1572.00,0.0518
1571.00,0.0517
1570.00,0.0517
1569.00,0.0518
1568.00,0.0518
1567.00,0.0516
1566.00,0.0514
1565.00,0.0513
1564.00,0.0512
1563.00,0.0511
1562.00,0.0508
1561.00,0.0502
1560.00,0.0496
1559.00,0.0504
1558.00,0.0510
1557.00,0.0506
1556.00,0.0502
1555.00,0.0498
1554.00,0.0495
1553.00,0.0491
1552.00,0.0489
1551.00,0.0487
1550.00,0.0485
1549.00,0.0483
1548.00,0.0480
1547.00,0.0477
1546.00,0.0473
1545.00,0.0471
1544.00,0.0470
1543.00,0.0469
1542.00,0.0465
1541.00,0.0461
1540.00,0.0461
1539.00,0.0458
1538.00,0.0453
1537.00,0.0450
1536.00,0.0448
1535.00,0.0445
1534.00,0.0443
1533.00,0.0441
1532.00,0.0439
1531.00,0.0436
1530.00,0.0433
1529.00,0.0430
1528.00,0.0428
1527.00,0.0426
1526.00,0.0424
1525.00,0.0422
1524.00,0.0420
1523.00,0.0417
1522.00,0.0414
1521.00,0.0413
1520.00,0.0412
1519.00,0.0411
1518.00,0.0410
1517.00,0.0409
1516.00,0.0408
1515.00,0.0405
1514.00,0.0402
1513.00,0.0399
1512.00,0.0397
1511.00,0.0395
1510.00,0.0395
1509.00,0.0394
1508.00,0.0394
1507.00,0.0396
1506.00,0.0394
1505.00,0.0388
1504.00,0.0385
1503.00,0.0384
1502.00,0.0383
1501.00,0.0382
1500.00,0.0380
1499.00,0.0378
1498.00,0.0377
1497.00,0.0376
1496.00,0.0377
1495.00,0.0378
1494.00,0.0378
1493.00,0.0379
1492.00,0.0379
1491.00,0.0379
1490.00,0.0381
1489.00,0.0384
1488.00,0.0385
1487.00,0.0385
1486.00,0.0383
1485.00,0.0382
1484.00,0.0381
1483.00,0.0381
1482.00,0.0381
1481.00,0.0383
1480.00,0.0383
1479.00,0.0384
1478.00,0.0384
1477.00,0.0384
1476.00,0.0386
1475.00,0.0387
1474.00,0.0388
1473.00,0.0390
1472.00,0.0392
1471.00,0.0392
1470.00,0.0391
1469.00,0.0392
1468.00,0.0393
1467.00,0.0394
1466.00,0.0395
1465.00,0.0397
1464.00,0.0399
1463.00,0.0400
1462.00,0.0400
1461.00,0.0401
1460.00,0.0402
1459.00,0.0402
1458.00,0.0404
1457.00,0.0407
1456.00,0.0409
1455.00,0.0410
1454.00,0.0411
1453.00,0.0413
1452.00,0.0415
1451.00,0.0416
1450.00,0.0418
1449.00,0.0420
1448.00,0.0423
1447.00,0.0425
1446.00,0.0425
1445.00,0.0425
1444.00,0.0426
1443.00,0.0427
1442.00,0.0428
1441.00,0.0429
1440.00,0.0430
1439.00,0.0431
1438.00,0.0432
1437.00,0.0433
1436.00,0.0437
1435.00,0.0439
1434.00,0.0440
1433.00,0.0441
1432.00,0.0441
1431.00,0.0443
1430.00,0.0444
1429.00,0.0445
1428.00,0.0446
1427.00,0.0446
1426.00,0.0446
1425.00,0.0446
1424.00,0.0448
1423.00,0.0450
1422.00,0.0450
1421.00,0.0449
1420.00,0.0449
1419.00,0.0451
1418.00,0.0455
1417.00,0.0456
1416.00,0.0457
1415.00,0.0457
1414.00,0.0457
1413.00,0.0457
1412.00,0.0458
1411.00,0.0458
1410.00,0.0458
1409.00,0.0458
1408.00,0.0459
1407.00,0.0459
1406.00,0.0461
1405.00,0.0462
1404.00,0.0464
1403.00,0.0465
1402.00,0.0465
1401.00,0.0464
1400.00,0.0465
1399.00,0.0467
1398.00,0.0469
1397.00,0.0471
1396.00,0.0472
1395.00,0.0474
1394.00,0.0474
1393.00,0.0474
1392.00,0.0473
1391.00,0.0473
1390.00,0.0473
1389.00,0.0473
1388.00,0.0475
1387.00,0.0477
1386.00,0.0480
1385.00,0.0481
1384.00,0.0481
1383.00,0.0481
1382.00,0.0481
1381.00,0.0482
1380.00,0.0482
1379.00,0.0483
1378.00,0.0484
1377.00,0.0485
1376.00,0.0486
1375.00,0.0487
1374.00,0.0489
1373.00,0.0490
1372.00,0.0490
1371.00,0.0489
1370.00,0.0489
1369.00,0.0489
1368.00,0.0489
1367.00,0.0489
1366.00,0.0488
1365.00,0.0488
1364.00,0.0489
1363.00,0.0491
1362.00,0.0493
1361.00,0.0494
1360.00,0.0494
1359.00,0.0493
1358.00,0.0493
1357.00,0.0492
1356.00,0.0491
1355.00,0.0491
1354.00,0.0491
1353.00,0.0490
1352.00,0.0490
1351.00,0.0489
1350.00,0.0488
1349.00,0.0488
1348.00,0.0488
1347.00,0.0489
1346.00,0.0489
1345.00,0.0489
1344.00,0.0489
1343.00,0.0488
1342.00,0.0487
1341.00,0.0487
1340.00,0.0488
1339.00,0.0489
1338.00,0.0490
1337.00,0.0490
1336.00,0.0489
1335.00,0.0488
1334.00,0.0487
1333.00,0.0487
1332.00,0.0486
1331.00,0.0486
1330.00,0.0485
1329.00,0.0485
1328.00,0.0484
1327.00,0.0484
1326.00,0.0484
1325.00,0.0484
1324.00,0.0485
1323.00,0.0485
1322.00,0.0484
1321.00,0.0484
1320.00,0.0484
1319.00,0.0484
1318.00,0.0484
1317.00,0.0485
1316.00,0.0485
1315.00,0.0486
1314.00,0.0486
1313.00,0.0486
1312.00,0.0486
1311.00,0.0486
1310.00,0.0486
1309.00,0.0486
1308.00,0.0486
1307.00,0.0486
1306.00,0.0487
1305.00,0.0487
1304.00,0.0488
1303.00,0.0488
1302.00,0.0489
1301.00,0.0490
1300.00,0.0490
1299.00,0.0491
1298.00,0.0491
1297.00,0.0492
1296.00,0.0492
1295.00,0.0493
1294.00,0.0494
1293.00,0.0494
1292.00,0.0495
1291.00,0.0496
1290.00,0.0498
1289.00,0.0499
1288.00,0.0500
1287.00,0.0501
1286.00,0.0502
1285.00,0.0502
1284.00,0.0503
1283.00,0.0503
1282.00,0.0503
1281.00,0.0504
1280.00,0.0505
1279.00,0.0506
1278.00,0.0507
1277.00,0.0508
1276.00,0.0509
1275.00,0.0510
1274.00,0.0510
1273.00,0.0511
1272.00,0.0511
1271.00,0.0511
1270.00,0.0511
1269.00,0.0511
1268.00,0.0511
1267.00,0.0511
1266.00,0.0511
1265.00,0.0511
1264.00,0.0510
1263.00,0.0510
1262.00,0.0511
1261.00,0.0511
1260.00,0.0512
1259.00,0.0513
1258.00,0.0514
1257.00,0.0514
1256.00,0.0515
1255.00,0.0516
1254.00,0.0517
1253.00,0.0518
1252.00,0.0519
1251.00,0.0520
1250.00,0.0520
1249.00,0.0520
1248.00,0.0521
1247.00,0.0521
1246.00,0.0521
1245.00,0.0521
1244.00,0.0522
1243.00,0.0522
1242.00,0.0522
1241.00,0.0523
1240.00,0.0522
1239.00,0.0522
1238.00,0.0521
1237.00,0.0521
1236.00,0.0521
1235.00,0.0521
1234.00,0.0521
1233.00,0.0520
1232.00,0.0519
1231.00,0.0519
1230.00,0.0519
1229.00,0.0519
1228.00,0.0520
1227.00,0.0520
1226.00,0.0520
1225.00,0.0521
1224.00,0.0521
1223.00,0.0521
1222.00,0.0520
1221.00,0.0519
1220.00,0.0519
1219.00,0.0519
1218.00,0.0519
1217.00,0.0518
1216.00,0.0518
1215.00,0.0517
1214.00,0.0517
1213.00,0.0517
1212.00,0.0517
1211.00,0.0516
1210.00,0.0515
1209.00,0.0515
1208.00,0.0514
1207.00,0.0514
1206.00,0.0514
1205.00,0.0513
1204.00,0.0512
1203.00,0.0511
1202.00,0.0510
1201.00,0.0509
1200.00,0.0508
1199.00,0.0508
1198.00,0.0507
1197.00,0.0506
1196.00,0.0506
1195.00,0.0506
1194.00,0.0506
1193.00,0.0505
1192.00,0.0504
1191.00,0.0503
1190.00,0.0502
1189.00,0.0502
1188.00,0.0502
1187.00,0.0502
1186.00,0.0502
1185.00,0.0502
1184.00,0.0501
1183.00,0.0499
1182.00,0.0498
1181.00,0.0497
1180.00,0.0497
1179.00,0.0497
1178.00,0.0497
1177.00,0.0496
1176.00,0.0495
1175.00,0.0494
1174.00,0.0494
1173.00,0.0493
1172.00,0.0492
1171.00,0.0491
1170.00,0.0491
1169.00,0.0490
1168.00,0.0491
1167.00,0.0491
1166.00,0.0491
1165.00,0.0490
1164.00,0.0489
1163.00,0.0488
1162.00,0.0487
1161.00,0.0487
1160.00,0.0486
1159.00,0.0486
1158.00,0.0485
1157.00,0.0483
1156.00,0.0482
1155.00,0.0482
1154.00,0.0482
1153.00,0.0481
1152.00,0.0480
1151.00,0.0479
1150.00,0.0477
1149.00,0.0477
1148.00,0.0477
1147.00,0.0479
1146.00,0.0480
1145.00,0.0479
1144.00,0.0478
1143.00,0.0476
1142.00,0.0474
1141.00,0.0472
1140.00,0.0471
1139.00,0.0471
1138.00,0.0472
1137.00,0.0472
1136.00,0.0472
1135.00,0.0471
1134.00,0.0470
1133.00,0.0470
1132.00,0.0470
1131.00,0.0469
1130.00,0.0468
1129.00,0.0467
1128.00,0.0467
1127.00,0.0466
1126.00,0.0466
1125.00,0.0465
1124.00,0.0464
1123.00,0.0463
1122.00,0.0462
1121.00,0.0461
1120.00,0.0461
1119.00,0.0461
1118.00,0.0462
1117.00,0.0462
1116.00,0.0461
1115.00,0.0460
1114.00,0.0459
1113.00,0.0458
1112.00,0.0458
1111.00,0.0457
1110.00,0.0456
1109.00,0.0455
1108.00,0.0454
1107.00,0.0454
1106.00,0.0455
1105.00,0.0456
1104.00,0.0457
1103.00,0.0457
1102.00,0.0456
1101.00,0.0454
1100.00,0.0453
1099.00,0.0452
1098.00,0.0452
1097.00,0.0451
1096.00,0.0450
1095.00,0.0449
1094.00,0.0449
1093.00,0.0449
1092.00,0.0450
1091.00,0.0450
1090.00,0.0450
1089.00,0.0449
1088.00,0.0448
1087.00,0.0447
1086.00,0.0446
1085.00,0.0446
1084.00,0.0446
1083.00,0.0448
1082.00,0.0448
1081.00,0.0448
1080.00,0.0448
1079.00,0.0448
1078.00,0.0448
1077.00,0.0447
1076.00,0.0447
1075.00,0.0447
1074.00,0.0447
1073.00,0.0447
1072.00,0.0447
1071.00,0.0448
1070.00,0.0448
1069.00,0.0447
1068.00,0.0447
1067.00,0.0447
1066.00,0.0447
1065.00,0.0448
1064.00,0.0449
1063.00,0.0448
1062.00,0.0448
1061.00,0.0447
1060.00,0.0447
1059.00,0.0447
1058.00,0.0447
1057.00,0.0446
1056.00,0.0446
1055.00,0.0445
1054.00,0.0446
1053.00,0.0447
1052.00,0.0449
1051.00,0.0451
1050.00,0.0451
1049.00,0.0450
1048.00,0.0449
1047.00,0.0448
1046.00,0.0448
1045.00,0.0448
1044.00,0.0448
1043.00,0.0448
1042.00,0.0448
1041.00,0.0447
1040.00,0.0445
1039.00,0.0444
1038.00,0.0444
1037.00,0.0444
1036.00,0.0444
1035.00,0.0444
1034.00,0.0444
1033.00,0.0443
1032.00,0.0443
1031.00,0.0443
1030.00,0.0442
1029.00,0.0442
1028.00,0.0441
1027.00,0.0440
1026.00,0.0438
1025.00,0.0437
1024.00,0.0436
1023.00,0.0436
1022.00,0.0436
1021.00,0.0435
1020.00,0.0434
1019.00,0.0432
1018.00,0.0432
1017.00,0.0432
1016.00,0.0433
1015.00,0.0434
1014.00,0.0434
1013.00,0.0433
1012.00,0.0433
1011.00,0.0433
1010.00,0.0434
1009.00,0.0434
1008.00,0.0435
1007.00,0.0435
1006.00,0.0435
1005.00,0.0435
1004.00,0.0435
1003.00,0.0435
1002.00,0.0434
1001.00,0.0433
1000.00,0.0433
999.00,0.0432
998.00,0.0431
997.00,0.0430
996.00,0.0429
995.00,0.0428
994.00,0.0428
993.00,0.0428
992.00,0.0428
991.00,0.0428
990.00,0.0427
989.00,0.0426
988.00,0.0426
987.00,0.0426
986.00,0.0426
985.00,0.0427
984.00,0.0427
983.00,0.0427
982.00,0.0427
981.00,0.0427
980.00,0.0426
979.00,0.0425
978.00,0.0424
977.00,0.0423
976.00,0.0422
975.00,0.0422
974.00,0.0421
973.00,0.0420
972.00,0.0420
971.00,0.0420
970.00,0.0420
969.00,0.0421
968.00,0.0421
967.00,0.0421
966.00,0.0420
965.00,0.0420
964.00,0.0420
963.00,0.0420
962.00,0.0419
961.00,0.0419
960.00,0.0418
959.00,0.0418
958.00,0.0417
957.00,0.0416
956.00,0.0416
955.00,0.0417
954.00,0.0418
953.00,0.0419
952.00,0.0420
951.00,0.0420
950.00,0.0420
949.00,0.0420
948.00,0.0420
947.00,0.0421
946.00,0.0421
945.00,0.0422
944.00,0.0422
943.00,0.0422
942.00,0.0422
941.00,0.0423
940.00,0.0423
939.00,0.0423
938.00,0.0423
937.00,0.0423
936.00,0.0424
935.00,0.0426
934.00,0.0427
933.00,0.0427
932.00,0.0426
931.00,0.0425
930.00,0.0425
929.00,0.0426
928.00,0.0428
927.00,0.0430
926.00,0.0431
925.00,0.0432
924.00,0.0433
923.00,0.0435
922.00,0.0436
921.00,0.0437
920.00,0.0437
919.00,0.0437
918.00,0.0438
917.00,0.0439
916.00,0.0440
915.00,0.0441
914.00,0.0442
913.00,0.0443
912.00,0.0444
911.00,0.0444
910.00,0.0445
909.00,0.0445
908.00,0.0446
907.00,0.0446
906.00,0.0445
905.00,0.0444
904.00,0.0444
903.00,0.0444
902.00,0.0445
901.00,0.0446
900.00,0.0448
899.00,0.0449
898.00,0.0449
897.00,0.0449
896.00,0.0449
895.00,0.0449
894.00,0.0450
893.00,0.0452
892.00,0.0453
891.00,0.0454
890.00,0.0455
889.00,0.0455
888.00,0.0455
887.00,0.0455
886.00,0.0455
885.00,0.0456
884.00,0.0456
883.00,0.0457
882.00,0.0458
881.00,0.0459
880.00,0.0460
879.00,0.0460
878.00,0.0459
877.00,0.0458
876.00,0.0457
875.00,0.0458
874.00,0.0458
873.00,0.0457
872.00,0.0456
871.00,0.0454
870.00,0.0454
869.00,0.0454
868.00,0.0456
867.00,0.0457
866.00,0.0457
865.00,0.0457
864.00,0.0457
863.00,0.0457
862.00,0.0458
861.00,0.0459
860.00,0.0460
859.00,0.0460
858.00,0.0460
857.00,0.0460
856.00,0.0460
855.00,0.0460
854.00,0.0461
853.00,0.0461
852.00,0.0461
851.00,0.0461
850.00,0.0461
849.00,0.0462
848.00,0.0464
847.00,0.0467
846.00,0.0469
845.00,0.0470
844.00,0.0471
843.00,0.0471
842.00,0.0470
841.00,0.0469
840.00,0.0469
839.00,0.0471
838.00,0.0474
837.00,0.0478
836.00,0.0479
835.00,0.0480
834.00,0.0481
833.00,0.0481
832.00,0.0482
831.00,0.0484
830.00,0.0486
829.00,0.0487
828.00,0.0487
827.00,0.0487
826.00,0.0486
825.00,0.0486
824.00,0.0487
823.00,0.0489
822.00,0.0490
821.00,0.0492
820.00,0.0494
819.00,0.0496
818.00,0.0496
817.00,0.0496
816.00,0.0495
815.00,0.0495
814.00,0.0495
813.00,0.0495
812.00,0.0496
811.00,0.0498
810.00,0.0499
809.00,0.0501
808.00,0.0502
807.00,0.0503
806.00,0.0503
805.00,0.0503
804.00,0.0501
803.00,0.0501
802.00,0.0502
801.00,0.0505
800.00,0.0507
799.00,0.0508
798.00,0.0508
797.00,0.0509
796.00,0.0512
795.00,0.0515
794.00,0.0517
793.00,0.0517
792.00,0.0517
791.00,0.0517
790.00,0.0519
789.00,0.0520
788.00,0.0522
787.00,0.0523
786.00,0.0524
785.00,0.0525
784.00,0.0527
783.00,0.0528
782.00,0.0529
781.00,0.0531
780.00,0.0532
779.00,0.0533
778.00,0.0533
777.00,0.0533
776.00,0.0535
775.00,0.0537
774.00,0.0539
773.00,0.0541
772.00,0.0541
771.00,0.0541
770.00,0.0540
769.00,0.0539
768.00,0.0537
767.00,0.0537
766.00,0.0537
765.00,0.0539
764.00,0.0542
763.00,0.0545
762.00,0.0546
761.00,0.0546
760.00,0.0547
759.00,0.0548
758.00,0.0548
757.00,0.0550
756.00,0.0551
755.00,0.0551
754.00,0.0551
753.00,0.0550
752.00,0.0552
751.00,0.0554
750.00,0.0555
749.00,0.0556
748.00,0.0555
747.00,0.0555
746.00,0.0554
745.00,0.0554
744.00,0.0554
743.00,0.0555
742.00,0.0555
741.00,0.0555
740.00,0.0554
739.00,0.0553
738.00,0.0553
737.00,0.0553
736.00,0.0554
735.00,0.0555
734.00,0.0556
733.00,0.0557
732.00,0.0559
731.00,0.0561
730.00,0.0562
729.00,0.0562
728.00,0.0561
727.00,0.0561
726.00,0.0561
725.00,0.0562
724.00,0.0564
723.00,0.0565
722.00,0.0566
721.00,0.0567
720.00,0.0568
719.00,0.0569
718.00,0.0568
717.00,0.0568
716.00,0.0569
715.00,0.0571
714.00,0.0575
713.00,0.0579
712.00,0.0581
711.00,0.0581
710.00,0.0579
709.00,0.0577
708.00,0.0577
707.00,0.0579
706.00,0.0583
705.00,0.0588
704.00,0.0592
703.00,0.0594
702.00,0.0594
701.00,0.0594
700.00,0.0596
699.00,0.0599
698.00,0.0600
697.00,0.0601
696.00,0.0601
695.00,0.0600
694.00,0.0598
693.00,0.0595
692.00,0.0594
691.00,0.0595
690.00,0.0596
689.00,0.0598
688.00,0.0599
687.00,0.0600
686.00,0.0600
685.00,0.0599
684.00,0.0599
683.00,0.0601
682.00,0.0604
681.00,0.0609
680.00,0.0612
679.00,0.0615
678.00,0.0618
677.00,0.0620
676.00,0.0623
675.00,0.0625
674.00,0.0624
673.00,0.0621
672.00,0.0619
671.00,0.0617
670.00,0.0617
669.00,0.0623
668.00,0.0641
667.00,0.0654
666.00,0.0653
665.00,0.0647
664.00,0.0639
663.00,0.0632
662.00,0.0629
661.00,0.0632
660.00,0.0639
659.00,0.0647
658.00,0.0650
657.00,0.0648
656.00,0.0646
655.00,0.0647
654.00,0.0651
653.00,0.0656
652.00,0.0659
651.00,0.0657
650.00,0.0652
