Created as New Dataset,
cm-1,A
4000.00,0.0072
3999.00,0.0072
3998.00,0.0072
3997.00,0.0072
3996.00,0.0071
3995.00,0.0071
3994.00,0.0071
3993.00,0.0071
3992.00,0.0071
3991.00,0.0071
3990.00,0.0071
3989.00,0.0070
3988.00,0.0070
3987.00,0.0070
3986.00,0.0071
3985.00,0.0071
3984.00,0.0071
3983.00,0.0071
3982.00,0.0071
3981.00,0.0071
3980.00,0.0071
3979.00,0.0071
3978.00,0.0071
3977.00,0.0070
3976.00,0.0070
3975.00,0.0070
3974.00,0.0070
3973.00,0.0070
3972.00,0.0069
3971.00,0.0069
3970.00,0.0068
3969.00,0.0068
3968.00,0.0068
3967.00,0.0068
3966.00,0.0068
3965.00,0.0068
3964.00,0.0068
3963.00,0.0068
3962.00,0.0068
3961.00,0.0068
3960.00,0.0068
3959.00,0.0068
3958.00,0.0069
3957.00,0.0068
3956.00,0.0068
3955.00,0.0068
3954.00,0.0067
3953.00,0.0067
3952.00,0.0066
3951.00,0.0066
3950.00,0.0066
3949.00,0.0066
3948.00,0.0066
3947.00,0.0065
3946.00,0.0065
3945.00,0.0065
3944.00,0.0065
3943.00,0.0065
3942.00,0.0065
3941.00,0.0065
3940.00,0.0065
3939.00,0.0066
3938.00,0.0066
3937.00,0.0066
3936.00,0.0065
3935.00,0.0065
3934.00,0.0064
3933.00,0.0063
3932.00,0.0063
3931.00,0.0063
3930.00,0.0062
3929.00,0.0062
3928.00,0.0062
3927.00,0.0062
3926.00,0.0063
3925.00,0.0063
3924.00,0.0062
3923.00,0.0061
3922.00,0.0061
3921.00,0.0061
3920.00,0.0061
3919.00,0.0061
3918.00,0.0061
3917.00,0.0061
3916.00,0.0062
3915.00,0.0062
3914.00,0.0063
3913.00,0.0064
3912.00,0.0065
3911.00,0.0065
3910.00,0.0065
3909.00,0.0064
3908.00,0.0062
3907.00,0.0060
3906.00,0.0057
3905.00,0.0055
3904.00,0.0053
3903.00,0.0052
3902.00,0.0051
3901.00,0.0052
3900.00,0.0053
3899.00,0.0054
3898.00,0.0055
3897.00,0.0057
3896.00,0.0058
3895.00,0.0059
3894.00,0.0059
3893.00,0.0060
3892.00,0.0060
3891.00,0.0059
3890.00,0.0057
3889.00,0.0056
3888.00,0.0057
3887.00,0.0058
3886.00,0.0059
3885.00,0.0057
3884.00,0.0055
3883.00,0.0054
3882.00,0.0055
3881.00,0.0056
3880.00,0.0055
3879.00,0.0055
3878.00,0.0055
3877.00,0.0056
3876.00,0.0058
3875.00,0.0058
3874.00,0.0056
3873.00,0.0053
3872.00,0.0052
3871.00,0.0052
3870.00,0.0052
3869.00,0.0051
3868.00,0.0049
3867.00,0.0050
3866.00,0.0052
3865.00,0.0053
3864.00,0.0054
3863.00,0.0054
3862.00,0.0054
3861.00,0.0055
3860.00,0.0055
3859.00,0.0054
3858.00,0.0052
3857.00,0.0049
3856.00,0.0045
3855.00,0.0044
3854.00,0.0046
3853.00,0.0046
3852.00,0.0043
3851.00,0.0041
3850.00,0.0045
3849.00,0.0050
3848.00,0.0053
3847.00,0.0055
3846.00,0.0055
3845.00,0.0054
3844.00,0.0053
3843.00,0.0051
3842.00,0.0048
3841.00,0.0047
3840.00,0.0046
3839.00,0.0047
3838.00,0.0047
3837.00,0.0047
3836.00,0.0047
3835.00,0.0047
3834.00,0.0049
3833.00,0.0051
3832.00,0.0052
3831.00,0.0053
3830.00,0.0054
3829.00,0.0054
3828.00,0.0055
3827.00,0.0055
3826.00,0.0053
3825.00,0.0050
3824.00,0.0048
3823.00,0.0047
3822.00,0.0047
3821.00,0.0047
3820.00,0.0044
3819.00,0.0043
3818.00,0.0045
3817.00,0.0048
3816.00,0.0051
3815.00,0.0051
3814.00,0.0051
3813.00,0.0052
3812.00,0.0054
3811.00,0.0054
3810.00,0.0053
3809.00,0.0052
3808.00,0.0052
3807.00,0.0052
3806.00,0.0049
3805.00,0.0047
3804.00,0.0046
3803.00,0.0047
3802.00,0.0048
3801.00,0.0047
3800.00,0.0045
3799.00,0.0044
3798.00,0.0046
3797.00,0.0049
3796.00,0.0050
3795.00,0.0051
3794.00,0.0053
3793.00,0.0054
3792.00,0.0056
3791.00,0.0057
3790.00,0.0056
3789.00,0.0056
3788.00,0.0055
3787.00,0.0054
3786.00,0.0053
3785.00,0.0052
3784.00,0.0051
3783.00,0.0051
3782.00,0.0050
3781.00,0.0050
3780.00,0.0051
3779.00,0.0051
3778.00,0.0051
3777.00,0.0051
3776.00,0.0052
3775.00,0.0053
3774.00,0.0053
3773.00,0.0051
3772.00,0.0050
3771.00,0.0049
3770.00,0.0048
3769.00,0.0047
3768.00,0.0047
3767.00,0.0048
3766.00,0.0049
3765.00,0.0049
3764.00,0.0049
3763.00,0.0049
3762.00,0.0049
3761.00,0.0049
3760.00,0.0049
3759.00,0.0047
3758.00,0.0046
3757.00,0.0044
3756.00,0.0043
3755.00,0.0041
3754.00,0.0040
3753.00,0.0037
3752.00,0.0037
3751.00,0.0038
3750.00,0.0039
3749.00,0.0037
3748.00,0.0035
3747.00,0.0035
3746.00,0.0037
3745.00,0.0039
3744.00,0.0039
3743.00,0.0036
3742.00,0.0035
3741.00,0.0038
3740.00,0.0040
3739.00,0.0039
3738.00,0.0037
3737.00,0.0035
3736.00,0.0034
3735.00,0.0032
3734.00,0.0032
3733.00,0.0033
3732.00,0.0036
3731.00,0.0038
3730.00,0.0041
3729.00,0.0043
3728.00,0.0044
3727.00,0.0043
3726.00,0.0042
3725.00,0.0041
3724.00,0.0041
3723.00,0.0041
3722.00,0.0042
3721.00,0.0043
3720.00,0.0044
3719.00,0.0046
3718.00,0.0047
3717.00,0.0047
3716.00,0.0045
3715.00,0.0044
3714.00,0.0042
3713.00,0.0042
3712.00,0.0042
3711.00,0.0042
3710.00,0.0042
3709.00,0.0043
3708.00,0.0044
3707.00,0.0046
3706.00,0.0048
3705.00,0.0048
3704.00,0.0049
3703.00,0.0050
3702.00,0.0050
3701.00,0.0051
3700.00,0.0050
3699.00,0.0051
3698.00,0.0052
3697.00,0.0053
3696.00,0.0053
3695.00,0.0052
3694.00,0.0050
3693.00,0.0048
3692.00,0.0046
3691.00,0.0045
3690.00,0.0046
3689.00,0.0047
3688.00,0.0047
3687.00,0.0046
3686.00,0.0048
3685.00,0.0052
3684.00,0.0055
3683.00,0.0056
3682.00,0.0055
3681.00,0.0053
3680.00,0.0050
3679.00,0.0046
3678.00,0.0043
3677.00,0.0044
3676.00,0.0047
3675.00,0.0047
3674.00,0.0044
3673.00,0.0044
3672.00,0.0047
3671.00,0.0051
3670.00,0.0053
3669.00,0.0055
3668.00,0.0056
3667.00,0.0059
3666.00,0.0063
3665.00,0.0066
3664.00,0.0068
3663.00,0.0069
3662.00,0.0070
3661.00,0.0070
3660.00,0.0069
3659.00,0.0069
3658.00,0.0070
3657.00,0.0072
3656.00,0.0073
3655.00,0.0072
3654.00,0.0071
3653.00,0.0068
3652.00,0.0065
3651.00,0.0063
3650.00,0.0064
3649.00,0.0067
3648.00,0.0070
3647.00,0.0072
3646.00,0.0075
3645.00,0.0079
3644.00,0.0085
3643.00,0.0089
3642.00,0.0091
3641.00,0.0093
3640.00,0.0094
3639.00,0.0095
3638.00,0.0096
3637.00,0.0097
3636.00,0.0098
3635.00,0.0098
3634.00,0.0097
3633.00,0.0095
3632.00,0.0092
3631.00,0.0092
3630.00,0.0095
3629.00,0.0100
3628.00,0.0101
3627.00,0.0101
3626.00,0.0103
3625.00,0.0106
3624.00,0.0108
3623.00,0.0109
3622.00,0.0109
3621.00,0.0110
3620.00,0.0112
3619.00,0.0114
3618.00,0.0114
3617.00,0.0113
3616.00,0.0113
3615.00,0.0114
3614.00,0.0115
3613.00,0.0116
3612.00,0.0117
3611.00,0.0119
3610.00,0.0122
3609.00,0.0124
3608.00,0.0126
3607.00,0.0126
3606.00,0.0127
3605.00,0.0128
3604.00,0.0129
3603.00,0.0131
3602.00,0.0132
3601.00,0.0132
3600.00,0.0132
3599.00,0.0132
3598.00,0.0132
3597.00,0.0132
3596.00,0.0133
3595.00,0.0135
3594.00,0.0137
3593.00,0.0137
3592.00,0.0136
3591.00,0.0136
3590.00,0.0135
3589.00,0.0136
3588.00,0.0139
3587.00,0.0141
3586.00,0.0143
3585.00,0.0144
3584.00,0.0146
3583.00,0.0148
3582.00,0.0150
3581.00,0.0151
3580.00,0.0152
3579.00,0.0153
3578.00,0.0154
3577.00,0.0155
3576.00,0.0156
3575.00,0.0156
3574.00,0.0156
3573.00,0.0156
3572.00,0.0155
3571.00,0.0153
3570.00,0.0151
3569.00,0.0150
3568.00,0.0151
3567.00,0.0153
3566.00,0.0155
3565.00,0.0156
3564.00,0.0158
3563.00,0.0160
3562.00,0.0163
3561.00,0.0164
3560.00,0.0166
3559.00,0.0166
3558.00,0.0167
3557.00,0.0167
3556.00,0.0167
3555.00,0.0167
3554.00,0.0168
3553.00,0.0168
3552.00,0.0169
3551.00,0.0170
3550.00,0.0170
3549.00,0.0170
3548.00,0.0171
3547.00,0.0172
3546.00,0.0173
3545.00,0.0174
3544.00,0.0175
3543.00,0.0176
3542.00,0.0177
3541.00,0.0178
3540.00,0.0179
3539.00,0.0180
3538.00,0.0181
3537.00,0.0182
3536.00,0.0182
3535.00,0.0183
3534.00,0.0183
3533.00,0.0183
3532.00,0.0183
3531.00,0.0183
3530.00,0.0183
3529.00,0.0183
3528.00,0.0184
3527.00,0.0184
3526.00,0.0185
3525.00,0.0186
3524.00,0.0187
3523.00,0.0188
3522.00,0.0189
3521.00,0.0190
3520.00,0.0191
3519.00,0.0192
3518.00,0.0193
3517.00,0.0194
3516.00,0.0195
3515.00,0.0195
3514.00,0.0195
3513.00,0.0195
3512.00,0.0195
3511.00,0.0196
3510.00,0.0197
3509.00,0.0197
3508.00,0.0198
3507.00,0.0198
3506.00,0.0199
3505.00,0.0199
3504.00,0.0199
3503.00,0.0200
3502.00,0.0201
3501.00,0.0202
3500.00,0.0203
3499.00,0.0204
3498.00,0.0204
3497.00,0.0205
3496.00,0.0205
3495.00,0.0206
3494.00,0.0207
3493.00,0.0207
3492.00,0.0207
3491.00,0.0207
3490.00,0.0206
3489.00,0.0206
3488.00,0.0207
3487.00,0.0208
3486.00,0.0209
3485.00,0.0209
3484.00,0.0210
3483.00,0.0211
3482.00,0.0211
3481.00,0.0212
3480.00,0.0213
3479.00,0.0213
3478.00,0.0214
3477.00,0.0215
3476.00,0.0215
3475.00,0.0216
3474.00,0.0216
3473.00,0.0216
3472.00,0.0217
3471.00,0.0218
3470.00,0.0219
3469.00,0.0219
3468.00,0.0219
3467.00,0.0220
3466.00,0.0220
3465.00,0.0220
3464.00,0.0221
3463.00,0.0221
3462.00,0.0222
3461.00,0.0222
3460.00,0.0222
3459.00,0.0222
3458.00,0.0223
3457.00,0.0223
3456.00,0.0224
3455.00,0.0224
3454.00,0.0225
3453.00,0.0226
3452.00,0.0226
3451.00,0.0226
3450.00,0.0226
3449.00,0.0226
3448.00,0.0226
3447.00,0.0226
3446.00,0.0226
3445.00,0.0227
3444.00,0.0227
3443.00,0.0227
3442.00,0.0228
3441.00,0.0229
3440.00,0.0229
3439.00,0.0230
3438.00,0.0230
3437.00,0.0230
3436.00,0.0230
3435.00,0.0231
3434.00,0.0231
3433.00,0.0232
3432.00,0.0233
3431.00,0.0233
3430.00,0.0233
3429.00,0.0233
3428.00,0.0233
3427.00,0.0233
3426.00,0.0234
3425.00,0.0234
3424.00,0.0234
3423.00,0.0235
3422.00,0.0235
3421.00,0.0235
3420.00,0.0236
3419.00,0.0237
3418.00,0.0237
3417.00,0.0237
3416.00,0.0238
3415.00,0.0238
3414.00,0.0238
3413.00,0.0239
3412.00,0.0239
3411.00,0.0239
3410.00,0.0240
3409.00,0.0240
3408.00,0.0241
3407.00,0.0241
3406.00,0.0242
3405.00,0.0242
3404.00,0.0243
3403.00,0.0243
3402.00,0.0243
3401.00,0.0242
3400.00,0.0242
3399.00,0.0242
3398.00,0.0242
3397.00,0.0242
3396.00,0.0242
3395.00,0.0242
3394.00,0.0242
3393.00,0.0243
3392.00,0.0243
3391.00,0.0244
3390.00,0.0244
3389.00,0.0244
3388.00,0.0244
3387.00,0.0244
3386.00,0.0245
3385.00,0.0246
3384.00,0.0246
3383.00,0.0246
3382.00,0.0245
3381.00,0.0245
3380.00,0.0245
3379.00,0.0246
3378.00,0.0246
3377.00,0.0246
3376.00,0.0246
3375.00,0.0247
3374.00,0.0247
3373.00,0.0247
3372.00,0.0247
3371.00,0.0247
3370.00,0.0247
3369.00,0.0247
3368.00,0.0248
3367.00,0.0248
3366.00,0.0249
3365.00,0.0249
3364.00,0.0249
3363.00,0.0250
3362.00,0.0250
3361.00,0.0249
3360.00,0.0249
3359.00,0.0249
3358.00,0.0249
3357.00,0.0250
3356.00,0.0250
3355.00,0.0250
3354.00,0.0250
3353.00,0.0251
3352.00,0.0251
3351.00,0.0250
3350.00,0.0250
3349.00,0.0250
3348.00,0.0249
3347.00,0.0249
3346.00,0.0250
3345.00,0.0250
3344.00,0.0250
3343.00,0.0251
3342.00,0.0251
3341.00,0.0251
3340.00,0.0251
3339.00,0.0251
3338.00,0.0252
3337.00,0.0252
3336.00,0.0252
3335.00,0.0252
3334.00,0.0253
3333.00,0.0253
3332.00,0.0253
3331.00,0.0253
3330.00,0.0253
3329.00,0.0253
3328.00,0.0253
3327.00,0.0253
3326.00,0.0253
3325.00,0.0253
3324.00,0.0253
3323.00,0.0253
3322.00,0.0253
3321.00,0.0253
3320.00,0.0253
3319.00,0.0253
3318.00,0.0253
3317.00,0.0253
3316.00,0.0253
3315.00,0.0253
3314.00,0.0253
3313.00,0.0253
3312.00,0.0253
3311.00,0.0253
3310.00,0.0253
3309.00,0.0253
3308.00,0.0253
3307.00,0.0253
3306.00,0.0254
3305.00,0.0254
3304.00,0.0255
3303.00,0.0255
3302.00,0.0255
3301.00,0.0254
3300.00,0.0254
3299.00,0.0253
3298.00,0.0253
3297.00,0.0254
3296.00,0.0254
3295.00,0.0253
3294.00,0.0253
3293.00,0.0253
3292.00,0.0254
3291.00,0.0254
3290.00,0.0255
3289.00,0.0255
3288.00,0.0255
3287.00,0.0255
3286.00,0.0255
3285.00,0.0256
3284.00,0.0256
3283.00,0.0256
3282.00,0.0256
3281.00,0.0255
3280.00,0.0255
3279.00,0.0255
3278.00,0.0255
3277.00,0.0255
3276.00,0.0255
3275.00,0.0255
3274.00,0.0256
3273.00,0.0256
3272.00,0.0257
3271.00,0.0257
3270.00,0.0257
3269.00,0.0257
3268.00,0.0257
3267.00,0.0257
3266.00,0.0257
3265.00,0.0257
3264.00,0.0257
3263.00,0.0257
3262.00,0.0257
3261.00,0.0257
3260.00,0.0257
3259.00,0.0257
3258.00,0.0257
3257.00,0.0257
3256.00,0.0257
3255.00,0.0257
3254.00,0.0258
3253.00,0.0258
3252.00,0.0257
3251.00,0.0257
3250.00,0.0257
3249.00,0.0257
3248.00,0.0258
3247.00,0.0258
3246.00,0.0259
3245.00,0.0259
3244.00,0.0259
3243.00,0.0259
3242.00,0.0259
3241.00,0.0259
3240.00,0.0259
3239.00,0.0259
3238.00,0.0259
3237.00,0.0259
3236.00,0.0259
3235.00,0.0260
3234.00,0.0260
3233.00,0.0260
3232.00,0.0261
3231.00,0.0261
3230.00,0.0261
3229.00,0.0261
3228.00,0.0261
3227.00,0.0261
3226.00,0.0261
3225.00,0.0261
3224.00,0.0261
3223.00,0.0261
3222.00,0.0261
3221.00,0.0261
3220.00,0.0261
3219.00,0.0261
3218.00,0.0260
3217.00,0.0260
3216.00,0.0260
3215.00,0.0260
3214.00,0.0260
3213.00,0.0260
3212.00,0.0261
3211.00,0.0261
3210.00,0.0261
3209.00,0.0261
3208.00,0.0261
3207.00,0.0261
3206.00,0.0262
3205.00,0.0262
3204.00,0.0262
3203.00,0.0262
3202.00,0.0261
3201.00,0.0261
3200.00,0.0261
3199.00,0.0262
3198.00,0.0262
3197.00,0.0262
3196.00,0.0262
3195.00,0.0262
3194.00,0.0261
3193.00,0.0261
3192.00,0.0261
3191.00,0.0261
3190.00,0.0261
3189.00,0.0261
3188.00,0.0261
3187.00,0.0261
3186.00,0.0261
3185.00,0.0261
3184.00,0.0261
3183.00,0.0262
3182.00,0.0262
3181.00,0.0262
3180.00,0.0262
3179.00,0.0261
3178.00,0.0261
3177.00,0.0261
3176.00,0.0261
3175.00,0.0261
3174.00,0.0262
3173.00,0.0262
3172.00,0.0262
3171.00,0.0261
3170.00,0.0261
3169.00,0.0261
3168.00,0.0261
3167.00,0.0261
3166.00,0.0261
3165.00,0.0261
3164.00,0.0261
3163.00,0.0261
3162.00,0.0261
3161.00,0.0260
3160.00,0.0261
3159.00,0.0261
3158.00,0.0261
3157.00,0.0261
3156.00,0.0260
3155.00,0.0260
3154.00,0.0260
3153.00,0.0260
3152.00,0.0260
3151.00,0.0260
3150.00,0.0259
3149.00,0.0259
3148.00,0.0259
3147.00,0.0259
3146.00,0.0260
3145.00,0.0260
3144.00,0.0260
3143.00,0.0260
3142.00,0.0260
3141.00,0.0260
3140.00,0.0260
3139.00,0.0260
3138.00,0.0259
3137.00,0.0259
3136.00,0.0259
3135.00,0.0259
3134.00,0.0258
3133.00,0.0258
3132.00,0.0258
3131.00,0.0258
3130.00,0.0258
3129.00,0.0259
3128.00,0.0259
3127.00,0.0259
3126.00,0.0259
3125.00,0.0258
3124.00,0.0258
3123.00,0.0258
3122.00,0.0258
3121.00,0.0258
3120.00,0.0257
3119.00,0.0257
3118.00,0.0257
3117.00,0.0257
3116.00,0.0258
3115.00,0.0258
3114.00,0.0259
3113.00,0.0259
3112.00,0.0259
3111.00,0.0258
3110.00,0.0258
3109.00,0.0257
3108.00,0.0258
3107.00,0.0258
3106.00,0.0258
3105.00,0.0257
3104.00,0.0257
3103.00,0.0257
3102.00,0.0257
3101.00,0.0257
3100.00,0.0257
3099.00,0.0257
3098.00,0.0257
3097.00,0.0257
3096.00,0.0258
3095.00,0.0258
3094.00,0.0258
3093.00,0.0258
3092.00,0.0257
3091.00,0.0257
3090.00,0.0257
3089.00,0.0257
3088.00,0.0257
3087.00,0.0258
3086.00,0.0257
3085.00,0.0257
3084.00,0.0256
3083.00,0.0256
3082.00,0.0256
3081.00,0.0256
3080.00,0.0256
3079.00,0.0256
3078.00,0.0256
3077.00,0.0256
3076.00,0.0256
3075.00,0.0256
3074.00,0.0255
3073.00,0.0255
3072.00,0.0256
3071.00,0.0256
3070.00,0.0255
3069.00,0.0255
3068.00,0.0255
3067.00,0.0255
3066.00,0.0254
3065.00,0.0254
3064.00,0.0254
3063.00,0.0254
3062.00,0.0254
3061.00,0.0254
3060.00,0.0254
3059.00,0.0254
3058.00,0.0254
3057.00,0.0254
3056.00,0.0254
3055.00,0.0254
3054.00,0.0254
3053.00,0.0254
3052.00,0.0254
3051.00,0.0254
3050.00,0.0253
3049.00,0.0252
3048.00,0.0252
3047.00,0.0251
3046.00,0.0251
3045.00,0.0251
3044.00,0.0251
3043.00,0.0251
3042.00,0.0251
3041.00,0.0251
3040.00,0.0251
3039.00,0.0250
3038.00,0.0250
3037.00,0.0250
3036.00,0.0250
3035.00,0.0249
3034.00,0.0249
3033.00,0.0249
3032.00,0.0249
3031.00,0.0249
3030.00,0.0249
3029.00,0.0248
3028.00,0.0248
3027.00,0.0248
3026.00,0.0248
3025.00,0.0248
3024.00,0.0247
3023.00,0.0247
3022.00,0.0247
3021.00,0.0247
3020.00,0.0247
3019.00,0.0246
3018.00,0.0246
3017.00,0.0246
3016.00,0.0245
3015.00,0.0245
3014.00,0.0245
3013.00,0.0245
3012.00,0.0245
3011.00,0.0245
3010.00,0.0245
3009.00,0.0245
3008.00,0.0244
3007.00,0.0244
3006.00,0.0244
3005.00,0.0243
3004.00,0.0243
3003.00,0.0243
3002.00,0.0242
3001.00,0.0241
3000.00,0.0241
2999.00,0.0241
2998.00,0.0240
2997.00,0.0240
2996.00,0.0240
2995.00,0.0240
2994.00,0.0240
2993.00,0.0240
2992.00,0.0239
2991.00,0.0238
2990.00,0.0238
2989.00,0.0237
2988.00,0.0237
2987.00,0.0237
2986.00,0.0237
2985.00,0.0237
2984.00,0.0236
2983.00,0.0235
2982.00,0.0235
2981.00,0.0234
2980.00,0.0234
2979.00,0.0234
2978.00,0.0235
2977.00,0.0235
2976.00,0.0235
2975.00,0.0234
2974.00,0.0233
2973.00,0.0233
2972.00,0.0232
2971.00,0.0231
2970.00,0.0231
2969.00,0.0230
2968.00,0.0230
2967.00,0.0229
2966.00,0.0229
2965.00,0.0228
2964.00,0.0228
2963.00,0.0228
2962.00,0.0228
2961.00,0.0228
2960.00,0.0227
2959.00,0.0227
2958.00,0.0227
2957.00,0.0227
2956.00,0.0227
2955.00,0.0227
2954.00,0.0228
2953.00,0.0228
2952.00,0.0228
2951.00,0.0228
2950.00,0.0228
2949.00,0.0228
2948.00,0.0228
2947.00,0.0228
2946.00,0.0228
2945.00,0.0228
2944.00,0.0228
2943.00,0.0228
2942.00,0.0227
2941.00,0.0227
2940.00,0.0226
2939.00,0.0225
2938.00,0.0224
2937.00,0.0223
2936.00,0.0222
2935.00,0.0222
2934.00,0.0221
2933.00,0.0220
2932.00,0.0219
2931.00,0.0217
2930.00,0.0216
2929.00,0.0215
2928.00,0.0214
2927.00,0.0213
2926.00,0.0212
2925.00,0.0211
2924.00,0.0210
2923.00,0.0210
2922.00,0.0210
2921.00,0.0210
2920.00,0.0210
2919.00,0.0209
2918.00,0.0208
2917.00,0.0208
2916.00,0.0209
2915.00,0.0210
2914.00,0.0212
2913.00,0.0214
2912.00,0.0216
2911.00,0.0217
2910.00,0.0218
2909.00,0.0218
2908.00,0.0219
2907.00,0.0219
2906.00,0.0219
2905.00,0.0219
2904.00,0.0219
2903.00,0.0219
2902.00,0.0219
2901.00,0.0220
2900.00,0.0220
2899.00,0.0220
2898.00,0.0219
2897.00,0.0219
2896.00,0.0219
2895.00,0.0219
2894.00,0.0219
2893.00,0.0219
2892.00,0.0219
2891.00,0.0219
2890.00,0.0219
2889.00,0.0219
2888.00,0.0219
2887.00,0.0219
2886.00,0.0219
2885.00,0.0219
2884.00,0.0219
2883.00,0.0219
2882.00,0.0219
2881.00,0.0219
2880.00,0.0219
2879.00,0.0219
2878.00,0.0218
2877.00,0.0217
2876.00,0.0216
2875.00,0.0216
2874.00,0.0215
2873.00,0.0214
2872.00,0.0214
2871.00,0.0214
2870.00,0.0213
2869.00,0.0213
2868.00,0.0213
2867.00,0.0213
2866.00,0.0212
2865.00,0.0211
2864.00,0.0211
2863.00,0.0211
2862.00,0.0211
2861.00,0.0210
2860.00,0.0210
2859.00,0.0209
2858.00,0.0208
2857.00,0.0207
2856.00,0.0206
2855.00,0.0205
2854.00,0.0205
2853.00,0.0205
2852.00,0.0205
2851.00,0.0204
2850.00,0.0204
2849.00,0.0204
2848.00,0.0205
2847.00,0.0205
2846.00,0.0206
2845.00,0.0207
2844.00,0.0208
2843.00,0.0209
2842.00,0.0209
2841.00,0.0209
2840.00,0.0210
2839.00,0.0210
2838.00,0.0210
2837.00,0.0211
2836.00,0.0211
2835.00,0.0210
2834.00,0.0210
2833.00,0.0210
2832.00,0.0209
2831.00,0.0209
2830.00,0.0209
2829.00,0.0209
2828.00,0.0208
2827.00,0.0208
2826.00,0.0208
2825.00,0.0208
2824.00,0.0208
2823.00,0.0207
2822.00,0.0207
2821.00,0.0207
2820.00,0.0207
2819.00,0.0207
2818.00,0.0206
2817.00,0.0206
2816.00,0.0205
2815.00,0.0205
2814.00,0.0205
2813.00,0.0204
2812.00,0.0204
2811.00,0.0204
2810.00,0.0204
2809.00,0.0204
2808.00,0.0204
2807.00,0.0204
2806.00,0.0203
2805.00,0.0203
2804.00,0.0202
2803.00,0.0202
2802.00,0.0202
2801.00,0.0202
2800.00,0.0201
2799.00,0.0201
2798.00,0.0201
2797.00,0.0200
2796.00,0.0200
2795.00,0.0200
2794.00,0.0199
2793.00,0.0199
2792.00,0.0199
2791.00,0.0198
2790.00,0.0199
2789.00,0.0199
2788.00,0.0199
2787.00,0.0199
2786.00,0.0199
2785.00,0.0198
2784.00,0.0198
2783.00,0.0198
2782.00,0.0197
2781.00,0.0197
2780.00,0.0196
2779.00,0.0196
2778.00,0.0195
2777.00,0.0196
2776.00,0.0196
2775.00,0.0196
2774.00,0.0196
2773.00,0.0195
2772.00,0.0195
2771.00,0.0194
2770.00,0.0194
2769.00,0.0194
2768.00,0.0193
2767.00,0.0193
2766.00,0.0193
2765.00,0.0193
2764.00,0.0193
2763.00,0.0193
2762.00,0.0192
2761.00,0.0192
2760.00,0.0192
2759.00,0.0191
2758.00,0.0191
2757.00,0.0191
2756.00,0.0191
2755.00,0.0191
2754.00,0.0191
2753.00,0.0191
2752.00,0.0190
2751.00,0.0190
2750.00,0.0190
2749.00,0.0190
2748.00,0.0190
2747.00,0.0189
2746.00,0.0189
2745.00,0.0188
2744.00,0.0188
2743.00,0.0187
2742.00,0.0187
2741.00,0.0187
2740.00,0.0187
2739.00,0.0187
2738.00,0.0186
2737.00,0.0186
2736.00,0.0185
2735.00,0.0185
2734.00,0.0185
2733.00,0.0185
2732.00,0.0185
2731.00,0.0184
2730.00,0.0184
2729.00,0.0184
2728.00,0.0183
2727.00,0.0183
2726.00,0.0183
2725.00,0.0183
2724.00,0.0183
2723.00,0.0183
2722.00,0.0182
2721.00,0.0182
2720.00,0.0182
2719.00,0.0182
2718.00,0.0181
2717.00,0.0181
2716.00,0.0181
2715.00,0.0181
2714.00,0.0181
2713.00,0.0181
2712.00,0.0181
2711.00,0.0181
2710.00,0.0181
2709.00,0.0180
2708.00,0.0180
2707.00,0.0179
2706.00,0.0179
2705.00,0.0178
2704.00,0.0178
2703.00,0.0178
2702.00,0.0178
2701.00,0.0177
2700.00,0.0177
2699.00,0.0177
2698.00,0.0177
2697.00,0.0177
2696.00,0.0176
2695.00,0.0176
2694.00,0.0176
2693.00,0.0176
2692.00,0.0176
2691.00,0.0176
2690.00,0.0176
2689.00,0.0176
2688.00,0.0175
2687.00,0.0175
2686.00,0.0175
2685.00,0.0175
2684.00,0.0174
2683.00,0.0174
2682.00,0.0173
2681.00,0.0173
2680.00,0.0173
2679.00,0.0173
2678.00,0.0173
2677.00,0.0173
2676.00,0.0173
2675.00,0.0173
2674.00,0.0173
2673.00,0.0172
2672.00,0.0172
2671.00,0.0171
2670.00,0.0171
2669.00,0.0171
2668.00,0.0170
2667.00,0.0170
2666.00,0.0171
2665.00,0.0171
2664.00,0.0171
2663.00,0.0171
2662.00,0.0171
2661.00,0.0171
2660.00,0.0171
2659.00,0.0171
2658.00,0.0171
2657.00,0.0171
2656.00,0.0171
2655.00,0.0171
2654.00,0.0171
2653.00,0.0171
2652.00,0.0170
2651.00,0.0170
2650.00,0.0170
2649.00,0.0170
2648.00,0.0170
2647.00,0.0171
2646.00,0.0170
2645.00,0.0170
2644.00,0.0171
2643.00,0.0171
2642.00,0.0171
2641.00,0.0171
2640.00,0.0171
2639.00,0.0170
2638.00,0.0170
2637.00,0.0170
2636.00,0.0170
2635.00,0.0170
2634.00,0.0170
2633.00,0.0169
2632.00,0.0169
2631.00,0.0169
2630.00,0.0169
2629.00,0.0169
2628.00,0.0169
2627.00,0.0170
2626.00,0.0170
2625.00,0.0170
2624.00,0.0169
2623.00,0.0169
2622.00,0.0169
2621.00,0.0168
2620.00,0.0168
2619.00,0.0168
2618.00,0.0168
2617.00,0.0169
2616.00,0.0169
2615.00,0.0169
2614.00,0.0169
2613.00,0.0169
2612.00,0.0168
2611.00,0.0168
2610.00,0.0167
2609.00,0.0167
2608.00,0.0168
2607.00,0.0168
2606.00,0.0167
2605.00,0.0167
2604.00,0.0167
2603.00,0.0167
2602.00,0.0166
2601.00,0.0166
2600.00,0.0166
2599.00,0.0166
2598.00,0.0166
2597.00,0.0166
2596.00,0.0166
2595.00,0.0165
2594.00,0.0165
2593.00,0.0166
2592.00,0.0166
2591.00,0.0166
2590.00,0.0166
2589.00,0.0165
2588.00,0.0165
2587.00,0.0164
2586.00,0.0164
2585.00,0.0164
2584.00,0.0164
2583.00,0.0165
2582.00,0.0165
2581.00,0.0164
2580.00,0.0164
2579.00,0.0164
2578.00,0.0164
2577.00,0.0165
2576.00,0.0165
2575.00,0.0164
2574.00,0.0164
2573.00,0.0163
2572.00,0.0163
2571.00,0.0163
2570.00,0.0163
2569.00,0.0163
2568.00,0.0163
2567.00,0.0163
2566.00,0.0164
2565.00,0.0164
2564.00,0.0164
2563.00,0.0164
2562.00,0.0164
2561.00,0.0164
2560.00,0.0163
2559.00,0.0163
2558.00,0.0163
2557.00,0.0163
2556.00,0.0163
2555.00,0.0162
2554.00,0.0162
2553.00,0.0162
2552.00,0.0162
2551.00,0.0162
2550.00,0.0162
2549.00,0.0162
2548.00,0.0162
2547.00,0.0161
2546.00,0.0161
2545.00,0.0161
2544.00,0.0161
2543.00,0.0162
2542.00,0.0163
2541.00,0.0163
2540.00,0.0163
2539.00,0.0163
2538.00,0.0162
2537.00,0.0162
2536.00,0.0162
2535.00,0.0161
2534.00,0.0161
2533.00,0.0161
2532.00,0.0161
2531.00,0.0161
2530.00,0.0161
2529.00,0.0161
2528.00,0.0162
2527.00,0.0162
2526.00,0.0162
2525.00,0.0162
2524.00,0.0161
2523.00,0.0161
2522.00,0.0161
2521.00,0.0161
2520.00,0.0161
2519.00,0.0161
2518.00,0.0160
2517.00,0.0159
2516.00,0.0158
2515.00,0.0158
2514.00,0.0158
2513.00,0.0159
2512.00,0.0159
2511.00,0.0160
2510.00,0.0159
2509.00,0.0158
2508.00,0.0158
2507.00,0.0157
2506.00,0.0157
2505.00,0.0157
2504.00,0.0157
2503.00,0.0158
2502.00,0.0158
2501.00,0.0158
2500.00,0.0158
2499.00,0.0157
2498.00,0.0157
2497.00,0.0157
2496.00,0.0157
2495.00,0.0157
2494.00,0.0156
2493.00,0.0156
2492.00,0.0156
2491.00,0.0157
2490.00,0.0157
2489.00,0.0157
2488.00,0.0157
2487.00,0.0157
2486.00,0.0156
2485.00,0.0156
2484.00,0.0156
2483.00,0.0156
2482.00,0.0156
2481.00,0.0156
2480.00,0.0156
2479.00,0.0156
2478.00,0.0155
2477.00,0.0155
2476.00,0.0155
2475.00,0.0154
2474.00,0.0154
2473.00,0.0155
2472.00,0.0155
2471.00,0.0155
2470.00,0.0154
2469.00,0.0154
2468.00,0.0154
2467.00,0.0153
2466.00,0.0153
2465.00,0.0153
2464.00,0.0153
2463.00,0.0153
2462.00,0.0153
2461.00,0.0153
2460.00,0.0153
2459.00,0.0154
2458.00,0.0154
2457.00,0.0154
2456.00,0.0153
2455.00,0.0152
2454.00,0.0152
2453.00,0.0152
2452.00,0.0152
2451.00,0.0152
2450.00,0.0152
2449.00,0.0152
2448.00,0.0151
2447.00,0.0151
2446.00,0.0151
2445.00,0.0151
2444.00,0.0151
2443.00,0.0150
2442.00,0.0150
2441.00,0.0150
2440.00,0.0150
2439.00,0.0150
2438.00,0.0149
2437.00,0.0149
2436.00,0.0149
2435.00,0.0149
2434.00,0.0149
2433.00,0.0149
2432.00,0.0149
2431.00,0.0149
2430.00,0.0149
2429.00,0.0149
2428.00,0.0149
2427.00,0.0149
2426.00,0.0148
2425.00,0.0148
2424.00,0.0148
2423.00,0.0147
2422.00,0.0147
2421.00,0.0146
2420.00,0.0146
2419.00,0.0146
2418.00,0.0146
2417.00,0.0146
2416.00,0.0146
2415.00,0.0146
2414.00,0.0146
2413.00,0.0146
2412.00,0.0146
2411.00,0.0146
2410.00,0.0145
2409.00,0.0145
2408.00,0.0145
2407.00,0.0145
2406.00,0.0145
2405.00,0.0145
2404.00,0.0145
2403.00,0.0145
2402.00,0.0144
2401.00,0.0144
2400.00,0.0143
2399.00,0.0142
2398.00,0.0142
2397.00,0.0142
2396.00,0.0142
2395.00,0.0142
2394.00,0.0142
2393.00,0.0142
2392.00,0.0141
2391.00,0.0141
2390.00,0.0140
2389.00,0.0140
2388.00,0.0139
2387.00,0.0139
2386.00,0.0139
2385.00,0.0138
2384.00,0.0137
2383.00,0.0137
2382.00,0.0136
2381.00,0.0136
2380.00,0.0135
2379.00,0.0134
2378.00,0.0133
2377.00,0.0132
2376.00,0.0132
2375.00,0.0131
2374.00,0.0131
2373.00,0.0131
2372.00,0.0131
2371.00,0.0131
2370.00,0.0130
2369.00,0.0130
2368.00,0.0130
2367.00,0.0131
2366.00,0.0131
2365.00,0.0131
2364.00,0.0130
2363.00,0.0128
2362.00,0.0128
2361.00,0.0128
2360.00,0.0128
2359.00,0.0128
2358.00,0.0127
2357.00,0.0128
2356.00,0.0130
2355.00,0.0131
2354.00,0.0132
2353.00,0.0132
2352.00,0.0131
2351.00,0.0129
2350.00,0.0131
2349.00,0.0135
2348.00,0.0143
2347.00,0.0125
2346.00,0.0119
2345.00,0.0122
2344.00,0.0122
2343.00,0.0124
2342.00,0.0124
2341.00,0.0124
2340.00,0.0124
2339.00,0.0125
2338.00,0.0125
2337.00,0.0126
2336.00,0.0126
2335.00,0.0130
2334.00,0.0130
2333.00,0.0131
2332.00,0.0131
2331.00,0.0131
2330.00,0.0130
2329.00,0.0132
2328.00,0.0133
2327.00,0.0136
2326.00,0.0138
2325.00,0.0140
2324.00,0.0140
2323.00,0.0138
2322.00,0.0137
2321.00,0.0136
2320.00,0.0135
2319.00,0.0135
2318.00,0.0136
2317.00,0.0137
2316.00,0.0138
2315.00,0.0137
2314.00,0.0135
2313.00,0.0133
2312.00,0.0131
2311.00,0.0130
2310.00,0.0129
2309.00,0.0129
2308.00,0.0129
2307.00,0.0129
2306.00,0.0129
2305.00,0.0129
2304.00,0.0129
2303.00,0.0128
2302.00,0.0127
2301.00,0.0127
2300.00,0.0126
2299.00,0.0125
2298.00,0.0125
2297.00,0.0125
2296.00,0.0124
2295.00,0.0124
2294.00,0.0124
2293.00,0.0124
2292.00,0.0125
2291.00,0.0126
2290.00,0.0126
2289.00,0.0127
2288.00,0.0127
2287.00,0.0127
2286.00,0.0127
2285.00,0.0127
2284.00,0.0126
2283.00,0.0126
2282.00,0.0126
2281.00,0.0125
2280.00,0.0126
2279.00,0.0126
2278.00,0.0126
2277.00,0.0126
2276.00,0.0126
2275.00,0.0126
2274.00,0.0126
2273.00,0.0126
2272.00,0.0126
2271.00,0.0125
2270.00,0.0123
2269.00,0.0122
2268.00,0.0121
2267.00,0.0121
2266.00,0.0121
2265.00,0.0122
2264.00,0.0122
2263.00,0.0121
2262.00,0.0121
2261.00,0.0121
2260.00,0.0121
2259.00,0.0121
2258.00,0.0121
2257.00,0.0122
2256.00,0.0121
2255.00,0.0121
2254.00,0.0120
2253.00,0.0119
2252.00,0.0118
2251.00,0.0118
2250.00,0.0118
2249.00,0.0118
2248.00,0.0118
2247.00,0.0118
2246.00,0.0117
2245.00,0.0117
2244.00,0.0117
2243.00,0.0117
2242.00,0.0118
2241.00,0.0118
2240.00,0.0118
2239.00,0.0118
2238.00,0.0118
2237.00,0.0118
2236.00,0.0118
2235.00,0.0118
2234.00,0.0118
2233.00,0.0118
2232.00,0.0118
2231.00,0.0118
2230.00,0.0118
2229.00,0.0117
2228.00,0.0117
2227.00,0.0117
2226.00,0.0118
2225.00,0.0117
2224.00,0.0117
2223.00,0.0116
2222.00,0.0116
2221.00,0.0116
2220.00,0.0115
2219.00,0.0115
2218.00,0.0115
2217.00,0.0115
2216.00,0.0116
2215.00,0.0117
2214.00,0.0117
2213.00,0.0117
2212.00,0.0115
2211.00,0.0114
2210.00,0.0113
2209.00,0.0113
2208.00,0.0114
2207.00,0.0114
2206.00,0.0114
2205.00,0.0115
2204.00,0.0116
2203.00,0.0116
2202.00,0.0115
2201.00,0.0115
2200.00,0.0114
2199.00,0.0114
2198.00,0.0114
2197.00,0.0115
2196.00,0.0116
2195.00,0.0117
2194.00,0.0117
2193.00,0.0115
2192.00,0.0114
2191.00,0.0113
2190.00,0.0113
2189.00,0.0113
2188.00,0.0113
2187.00,0.0113
2186.00,0.0112
2185.00,0.0112
2184.00,0.0112
2183.00,0.0112
2182.00,0.0112
2181.00,0.0112
2180.00,0.0112
2179.00,0.0112
2178.00,0.0111
2177.00,0.0110
2176.00,0.0109
2175.00,0.0109
2174.00,0.0111
2173.00,0.0113
2172.00,0.0114
2171.00,0.0112
2170.00,0.0110
2169.00,0.0108
2168.00,0.0107
2167.00,0.0108
2166.00,0.0109
2165.00,0.0111
2164.00,0.0113
2163.00,0.0115
2162.00,0.0114
2161.00,0.0111
2160.00,0.0105
2159.00,0.0100
2158.00,0.0098
2157.00,0.0098
2156.00,0.0100
2155.00,0.0102
2154.00,0.0103
2153.00,0.0103
2152.00,0.0102
2151.00,0.0101
2150.00,0.0100
2149.00,0.0100
2148.00,0.0099
2147.00,0.0097
2146.00,0.0096
2145.00,0.0095
2144.00,0.0095
2143.00,0.0096
2142.00,0.0097
2141.00,0.0097
2140.00,0.0097
2139.00,0.0097
2138.00,0.0096
2137.00,0.0095
2136.00,0.0093
2135.00,0.0092
2134.00,0.0093
2133.00,0.0094
2132.00,0.0095
2131.00,0.0095
2130.00,0.0094
2129.00,0.0094
2128.00,0.0093
2127.00,0.0093
2126.00,0.0093
2125.00,0.0093
2124.00,0.0094
2123.00,0.0094
2122.00,0.0094
2121.00,0.0095
2120.00,0.0097
2119.00,0.0098
2118.00,0.0098
2117.00,0.0099
2116.00,0.0099
2115.00,0.0098
2114.00,0.0097
2113.00,0.0095
2112.00,0.0094
2111.00,0.0093
2110.00,0.0093
2109.00,0.0094
2108.00,0.0095
2107.00,0.0096
2106.00,0.0096
2105.00,0.0095
2104.00,0.0094
2103.00,0.0094
2102.00,0.0094
2101.00,0.0093
2100.00,0.0093
2099.00,0.0093
2098.00,0.0092
2097.00,0.0092
2096.00,0.0092
2095.00,0.0091
2094.00,0.0090
2093.00,0.0091
2092.00,0.0091
2091.00,0.0091
2090.00,0.0092
2089.00,0.0092
2088.00,0.0092
2087.00,0.0092
2086.00,0.0091
2085.00,0.0091
2084.00,0.0090
2083.00,0.0090
2082.00,0.0090
2081.00,0.0090
2080.00,0.0090
2079.00,0.0090
2078.00,0.0090
2077.00,0.0091
2076.00,0.0091
2075.00,0.0091
2074.00,0.0090
2073.00,0.0089
2072.00,0.0089
2071.00,0.0089
2070.00,0.0090
2069.00,0.0090
2068.00,0.0090
2067.00,0.0090
2066.00,0.0090
2065.00,0.0090
2064.00,0.0090
2063.00,0.0089
2062.00,0.0089
2061.00,0.0088
2060.00,0.0087
2059.00,0.0087
2058.00,0.0087
2057.00,0.0087
2056.00,0.0087
2055.00,0.0088
2054.00,0.0088
2053.00,0.0088
2052.00,0.0088
2051.00,0.0088
2050.00,0.0089
2049.00,0.0090
2048.00,0.0091
2047.00,0.0091
2046.00,0.0090
2045.00,0.0089
2044.00,0.0087
2043.00,0.0086
2042.00,0.0086
2041.00,0.0087
2040.00,0.0089
2039.00,0.0090
2038.00,0.0090
2037.00,0.0091
2036.00,0.0090
2035.00,0.0088
2034.00,0.0086
2033.00,0.0084
2032.00,0.0082
2031.00,0.0082
2030.00,0.0082
2029.00,0.0083
2028.00,0.0084
2027.00,0.0083
2026.00,0.0082
2025.00,0.0081
2024.00,0.0082
2023.00,0.0083
2022.00,0.0084
2021.00,0.0085
2020.00,0.0085
2019.00,0.0083
2018.00,0.0081
2017.00,0.0081
2016.00,0.0081
2015.00,0.0082
2014.00,0.0084
2013.00,0.0085
2012.00,0.0084
2011.00,0.0081
2010.00,0.0078
2009.00,0.0077
2008.00,0.0076
2007.00,0.0076
2006.00,0.0077
2005.00,0.0078
2004.00,0.0079
2003.00,0.0081
2002.00,0.0082
2001.00,0.0082
2000.00,0.0082
1999.00,0.0081
1998.00,0.0080
1997.00,0.0080
1996.00,0.0080
1995.00,0.0080
1994.00,0.0081
1993.00,0.0082
1992.00,0.0080
1991.00,0.0078
1990.00,0.0076
1989.00,0.0077
1988.00,0.0077
1987.00,0.0078
1986.00,0.0078
1985.00,0.0078
1984.00,0.0079
1983.00,0.0079
1982.00,0.0081
1981.00,0.0082
1980.00,0.0082
1979.00,0.0081
1978.00,0.0081
1977.00,0.0081
1976.00,0.0081
1975.00,0.0079
1974.00,0.0077
1973.00,0.0075
1972.00,0.0074
1971.00,0.0074
1970.00,0.0075
1969.00,0.0076
1968.00,0.0077
1967.00,0.0076
1966.00,0.0075
1965.00,0.0074
1964.00,0.0075
1963.00,0.0076
1962.00,0.0076
1961.00,0.0075
1960.00,0.0073
1959.00,0.0071
1958.00,0.0069
1957.00,0.0068
1956.00,0.0067
1955.00,0.0065
1954.00,0.0065
1953.00,0.0066
1952.00,0.0067
1951.00,0.0068
1950.00,0.0068
1949.00,0.0068
1948.00,0.0067
1947.00,0.0067
1946.00,0.0067
1945.00,0.0067
1944.00,0.0067
1943.00,0.0066
1942.00,0.0065
1941.00,0.0064
1940.00,0.0064
1939.00,0.0065
1938.00,0.0065
1937.00,0.0065
1936.00,0.0065
1935.00,0.0065
1934.00,0.0065
1933.00,0.0066
1932.00,0.0066
1931.00,0.0066
1930.00,0.0065
1929.00,0.0065
1928.00,0.0064
1927.00,0.0064
1926.00,0.0064
1925.00,0.0065
1924.00,0.0065
1923.00,0.0063
1922.00,0.0062
1921.00,0.0062
1920.00,0.0063
1919.00,0.0063
1918.00,0.0062
1917.00,0.0061
1916.00,0.0060
1915.00,0.0059
1914.00,0.0059
1913.00,0.0059
1912.00,0.0059
1911.00,0.0060
1910.00,0.0059
1909.00,0.0058
1908.00,0.0057
1907.00,0.0057
1906.00,0.0057
1905.00,0.0057
1904.00,0.0057
1903.00,0.0057
1902.00,0.0056
1901.00,0.0056
1900.00,0.0056
1899.00,0.0055
1898.00,0.0055
1897.00,0.0055
1896.00,0.0055
1895.00,0.0054
1894.00,0.0054
1893.00,0.0054
1892.00,0.0055
1891.00,0.0055
1890.00,0.0054
1889.00,0.0052
1888.00,0.0051
1887.00,0.0051
1886.00,0.0051
1885.00,0.0051
1884.00,0.0051
1883.00,0.0051
1882.00,0.0051
1881.00,0.0052
1880.00,0.0051
1879.00,0.0051
1878.00,0.0050
1877.00,0.0050
1876.00,0.0050
1875.00,0.0049
1874.00,0.0049
1873.00,0.0050
1872.00,0.0051
1871.00,0.0051
1870.00,0.0049
1869.00,0.0045
1868.00,0.0042
1867.00,0.0042
1866.00,0.0044
1865.00,0.0046
1864.00,0.0047
1863.00,0.0047
1862.00,0.0047
1861.00,0.0047
1860.00,0.0047
1859.00,0.0047
1858.00,0.0046
1857.00,0.0046
1856.00,0.0047
1855.00,0.0047
1854.00,0.0047
1853.00,0.0046
1852.00,0.0046
1851.00,0.0046
1850.00,0.0046
1849.00,0.0045
1848.00,0.0045
1847.00,0.0046
1846.00,0.0047
1845.00,0.0046
1844.00,0.0043
1843.00,0.0040
1842.00,0.0040
1841.00,0.0043
1840.00,0.0045
1839.00,0.0045
1838.00,0.0044
1837.00,0.0044
1836.00,0.0043
1835.00,0.0044
1834.00,0.0044
1833.00,0.0046
1832.00,0.0046
1831.00,0.0044
1830.00,0.0041
1829.00,0.0039
1828.00,0.0040
1827.00,0.0042
1826.00,0.0044
1825.00,0.0043
1824.00,0.0042
1823.00,0.0042
1822.00,0.0043
1821.00,0.0044
1820.00,0.0045
1819.00,0.0045
1818.00,0.0044
1817.00,0.0045
1816.00,0.0045
1815.00,0.0046
1814.00,0.0046
1813.00,0.0046
1812.00,0.0046
1811.00,0.0045
1810.00,0.0044
1809.00,0.0045
1808.00,0.0046
1807.00,0.0047
1806.00,0.0049
1805.00,0.0051
1804.00,0.0053
1803.00,0.0054
1802.00,0.0054
1801.00,0.0053
1800.00,0.0053
1799.00,0.0053
1798.00,0.0054
1797.00,0.0056
1796.00,0.0059
1795.00,0.0061
1794.00,0.0063
1793.00,0.0063
1792.00,0.0063
1791.00,0.0062
1790.00,0.0064
1789.00,0.0067
1788.00,0.0070
1787.00,0.0072
1786.00,0.0073
1785.00,0.0074
1784.00,0.0075
1783.00,0.0076
1782.00,0.0078
1781.00,0.0079
1780.00,0.0080
1779.00,0.0081
1778.00,0.0084
1777.00,0.0086
1776.00,0.0089
1775.00,0.0092
1774.00,0.0094
1773.00,0.0094
1772.00,0.0092
1771.00,0.0092
1770.00,0.0095
1769.00,0.0100
1768.00,0.0104
1767.00,0.0105
1766.00,0.0107
1765.00,0.0110
1764.00,0.0112
1763.00,0.0114
1762.00,0.0113
1761.00,0.0113
1760.00,0.0115
1759.00,0.0118
1758.00,0.0120
1757.00,0.0121
1756.00,0.0121
1755.00,0.0123
1754.00,0.0126
1753.00,0.0129
1752.00,0.0130
1751.00,0.0130
1750.00,0.0130
1749.00,0.0131
1748.00,0.0133
1747.00,0.0136
1746.00,0.0139
1745.00,0.0143
1744.00,0.0146
1743.00,0.0148
1742.00,0.0151
1741.00,0.0153
1740.00,0.0155
1739.00,0.0157
1738.00,0.0160
1737.00,0.0166
1736.00,0.0172
1735.00,0.0177
1734.00,0.0179
1733.00,0.0178
1732.00,0.0180
1731.00,0.0185
1730.00,0.0189
1729.00,0.0192
1728.00,0.0196
1727.00,0.0199
1726.00,0.0202
1725.00,0.0205
1724.00,0.0208
1723.00,0.0210
1722.00,0.0212
1721.00,0.0214
1720.00,0.0216
1719.00,0.0217
1718.00,0.0217
1717.00,0.0219
1716.00,0.0221
1715.00,0.0223
1714.00,0.0226
1713.00,0.0229
1712.00,0.0232
1711.00,0.0233
1710.00,0.0233
1709.00,0.0234
1708.00,0.0234
1707.00,0.0235
1706.00,0.0235
1705.00,0.0236
1704.00,0.0239
1703.00,0.0243
1702.00,0.0247
1701.00,0.0248
1700.00,0.0246
1699.00,0.0243
1698.00,0.0245
1697.00,0.0250
1696.00,0.0251
1695.00,0.0248
1694.00,0.0247
1693.00,0.0249
1692.00,0.0251
1691.00,0.0250
1690.00,0.0249
1689.00,0.0249
1688.00,0.0250
1687.00,0.0251
1686.00,0.0251
1685.00,0.0251
1684.00,0.0251
1683.00,0.0250
1682.00,0.0253
1681.00,0.0257
1680.00,0.0259
1679.00,0.0260
1678.00,0.0262
1677.00,0.0265
1676.00,0.0266
1675.00,0.0267
1674.00,0.0266
1673.00,0.0267
1672.00,0.0268
1671.00,0.0269
1670.00,0.0271
1669.00,0.0273
1668.00,0.0275
1667.00,0.0278
1666.00,0.0280
1665.00,0.0282
1664.00,0.0283
1663.00,0.0285
1662.00,0.0287
1661.00,0.0290
1660.00,0.0292
1659.00,0.0295
1658.00,0.0296
1657.00,0.0296
1656.00,0.0297
1655.00,0.0297
1654.00,0.0303
1653.00,0.0310
1652.00,0.0308
1651.00,0.0309
1650.00,0.0312
1649.00,0.0312
1648.00,0.0314
1647.00,0.0319
1646.00,0.0325
1645.00,0.0330
1644.00,0.0334
1643.00,0.0338
1642.00,0.0340
1641.00,0.0341
1640.00,0.0342
1639.00,0.0342
1638.00,0.0342
1637.00,0.0345
1636.00,0.0352
1635.00,0.0358
1634.00,0.0362
1633.00,0.0366
1632.00,0.0369
1631.00,0.0371
1630.00,0.0373
1629.00,0.0375
1628.00,0.0377
1627.00,0.0380
1626.00,0.0383
1625.00,0.0386
1624.00,0.0389
1623.00,0.0393
1622.00,0.0396
1621.00,0.0398
1620.00,0.0399
1619.00,0.0401
1618.00,0.0403
1617.00,0.0408
1616.00,0.0411
1615.00,0.0414
1614.00,0.0416
1613.00,0.0418
1612.00,0.0419
1611.00,0.0421
1610.00,0.0423
1609.00,0.0426
1608.00,0.0428
1607.00,0.0430
1606.00,0.0432
1605.00,0.0434
1604.00,0.0435
1603.00,0.0438
1602.00,0.0440
1601.00,0.0442
1600.00,0.0444
1599.00,0.0446
1598.00,0.0447
1597.00,0.0447
1596.00,0.0448
1595.00,0.0449
1594.00,0.0451
1593.00,0.0452
1592.00,0.0453
1591.00,0.0455
1590.00,0.0456
1589.00,0.0458
1588.00,0.0458
1587.00,0.0459
1586.00,0.0460
1585.00,0.0460
1584.00,0.0460
1583.00,0.0461
1582.00,0.0461
1581.00,0.0461
1580.00,0.0460
1579.00,0.0459
1578.00,0.0459
1577.00,0.0460
1576.00,0.0463
1575.00,0.0464
1574.00,0.0464
1573.00,0.0464
1572.00,0.0462
1571.00,0.0460
1570.00,0.0461
1569.00,0.0462
1568.00,0.0462
1567.00,0.0463
1566.00,0.0462
1565.00,0.0461
1564.00,0.0459
1563.00,0.0458
1562.00,0.0455
1561.00,0.0448
1560.00,0.0445
1559.00,0.0454
1558.00,0.0457
1557.00,0.0456
1556.00,0.0457
1555.00,0.0456
1554.00,0.0455
1553.00,0.0452
1552.00,0.0450
1551.00,0.0449
1550.00,0.0447
1549.00,0.0445
1548.00,0.0442
1547.00,0.0439
1546.00,0.0435
1545.00,0.0431
1544.00,0.0427
1543.00,0.0423
1542.00,0.0418
1541.00,0.0416
1540.00,0.0417
1539.00,0.0417
1538.00,0.0416
1537.00,0.0415
1536.00,0.0413
1535.00,0.0410
1534.00,0.0408
1533.00,0.0407
1532.00,0.0406
1531.00,0.0404
1530.00,0.0401
1529.00,0.0398
1528.00,0.0395
1527.00,0.0393
1526.00,0.0390
1525.00,0.0388
1524.00,0.0385
1523.00,0.0383
1522.00,0.0381
1521.00,0.0380
1520.00,0.0379
1519.00,0.0378
1518.00,0.0375
1517.00,0.0374
1516.00,0.0372
1515.00,0.0372
1514.00,0.0371
1513.00,0.0370
1512.00,0.0367
1511.00,0.0364
1510.00,0.0360
1509.00,0.0357
1508.00,0.0357
1507.00,0.0360
1506.00,0.0359
1505.00,0.0357
1504.00,0.0357
1503.00,0.0357
1502.00,0.0355
1501.00,0.0353
1500.00,0.0350
1499.00,0.0348
1498.00,0.0348
1497.00,0.0349
1496.00,0.0350
1495.00,0.0351
1494.00,0.0351
1493.00,0.0352
1492.00,0.0351
1491.00,0.0350
1490.00,0.0351
1489.00,0.0352
1488.00,0.0354
1487.00,0.0354
1486.00,0.0354
1485.00,0.0355
1484.00,0.0355
1483.00,0.0355
1482.00,0.0356
1481.00,0.0356
1480.00,0.0357
1479.00,0.0357
1478.00,0.0357
1477.00,0.0357
1476.00,0.0357
1475.00,0.0358
1474.00,0.0359
1473.00,0.0361
1472.00,0.0364
1471.00,0.0364
1470.00,0.0364
1469.00,0.0365
1468.00,0.0365
1467.00,0.0365
1466.00,0.0365
1465.00,0.0367
1464.00,0.0369
1463.00,0.0370
1462.00,0.0370
1461.00,0.0369
1460.00,0.0367
1459.00,0.0366
1458.00,0.0369
1457.00,0.0375
1456.00,0.0378
1455.00,0.0380
1454.00,0.0381
1453.00,0.0382
1452.00,0.0383
1451.00,0.0384
1450.00,0.0386
1449.00,0.0387
1448.00,0.0389
1447.00,0.0391
1446.00,0.0392
1445.00,0.0393
1444.00,0.0394
1443.00,0.0395
1442.00,0.0395
1441.00,0.0395
1440.00,0.0396
1439.00,0.0398
1438.00,0.0400
1437.00,0.0403
1436.00,0.0406
1435.00,0.0406
1434.00,0.0405
1433.00,0.0404
1432.00,0.0404
1431.00,0.0405
1430.00,0.0406
1429.00,0.0407
1428.00,0.0408
1427.00,0.0409
1426.00,0.0409
1425.00,0.0409
1424.00,0.0411
1423.00,0.0412
1422.00,0.0413
1421.00,0.0413
1420.00,0.0415
1419.00,0.0417
1418.00,0.0419
1417.00,0.0420
1416.00,0.0421
1415.00,0.0421
1414.00,0.0420
1413.00,0.0420
1412.00,0.0420
1411.00,0.0421
1410.00,0.0421
1409.00,0.0421
1408.00,0.0421
1407.00,0.0421
1406.00,0.0422
1405.00,0.0424
1404.00,0.0426
1403.00,0.0427
1402.00,0.0427
1401.00,0.0426
1400.00,0.0427
1399.00,0.0428
1398.00,0.0429
1397.00,0.0429
1396.00,0.0431
1395.00,0.0433
1394.00,0.0434
1393.00,0.0434
1392.00,0.0434
1391.00,0.0434
1390.00,0.0434
1389.00,0.0434
1388.00,0.0436
1387.00,0.0438
1386.00,0.0440
1385.00,0.0440
1384.00,0.0440
1383.00,0.0439
1382.00,0.0439
1381.00,0.0439
1380.00,0.0439
1379.00,0.0439
1378.00,0.0439
1377.00,0.0439
1376.00,0.0439
1375.00,0.0440
1374.00,0.0442
1373.00,0.0443
1372.00,0.0444
1371.00,0.0444
1370.00,0.0444
1369.00,0.0444
1368.00,0.0444
1367.00,0.0443
1366.00,0.0442
1365.00,0.0442
1364.00,0.0442
1363.00,0.0443
1362.00,0.0445
1361.00,0.0445
1360.00,0.0445
1359.00,0.0445
1358.00,0.0444
1357.00,0.0443
1356.00,0.0442
1355.00,0.0441
1354.00,0.0441
1353.00,0.0440
1352.00,0.0440
1351.00,0.0439
1350.00,0.0438
1349.00,0.0438
1348.00,0.0438
1347.00,0.0438
1346.00,0.0438
1345.00,0.0437
1344.00,0.0436
1343.00,0.0435
1342.00,0.0434
1341.00,0.0434
1340.00,0.0434
1339.00,0.0435
1338.00,0.0436
1337.00,0.0436
1336.00,0.0435
1335.00,0.0434
1334.00,0.0433
1333.00,0.0433
1332.00,0.0432
1331.00,0.0432
1330.00,0.0432
1329.00,0.0431
1328.00,0.0431
1327.00,0.0430
1326.00,0.0430
1325.00,0.0429
1324.00,0.0429
1323.00,0.0429
1322.00,0.0428
1321.00,0.0427
1320.00,0.0427
1319.00,0.0427
1318.00,0.0427
1317.00,0.0428
1316.00,0.0429
1315.00,0.0429
1314.00,0.0428
1313.00,0.0428
1312.00,0.0428
1311.00,0.0428
1310.00,0.0428
1309.00,0.0427
1308.00,0.0427
1307.00,0.0427
1306.00,0.0427
1305.00,0.0427
1304.00,0.0428
1303.00,0.0428
1302.00,0.0429
1301.00,0.0429
1300.00,0.0430
1299.00,0.0430
1298.00,0.0430
1297.00,0.0430
1296.00,0.0430
1295.00,0.0430
1294.00,0.0430
1293.00,0.0431
1292.00,0.0431
1291.00,0.0432
1290.00,0.0432
1289.00,0.0433
1288.00,0.0434
1287.00,0.0434
1286.00,0.0434
1285.00,0.0435
1284.00,0.0435
1283.00,0.0435
1282.00,0.0436
1281.00,0.0436
1280.00,0.0437
1279.00,0.0437
1278.00,0.0437
1277.00,0.0437
1276.00,0.0437
1275.00,0.0437
1274.00,0.0437
1273.00,0.0437
1272.00,0.0436
1271.00,0.0436
1270.00,0.0436
1269.00,0.0435
1268.00,0.0435
1267.00,0.0436
1266.00,0.0435
1265.00,0.0435
1264.00,0.0434
1263.00,0.0433
1262.00,0.0433
1261.00,0.0433
1260.00,0.0433
1259.00,0.0433
1258.00,0.0433
1257.00,0.0433
1256.00,0.0434
1255.00,0.0434
1254.00,0.0435
1253.00,0.0436
1252.00,0.0436
1251.00,0.0436
1250.00,0.0436
1249.00,0.0435
1248.00,0.0435
1247.00,0.0436
1246.00,0.0435
1245.00,0.0435
1244.00,0.0434
1243.00,0.0434
1242.00,0.0433
1241.00,0.0433
1240.00,0.0433
1239.00,0.0433
1238.00,0.0432
1237.00,0.0432
1236.00,0.0431
1235.00,0.0431
1234.00,0.0430
1233.00,0.0430
1232.00,0.0430
1231.00,0.0430
1230.00,0.0429
1229.00,0.0429
1228.00,0.0428
1227.00,0.0428
1226.00,0.0428
1225.00,0.0429
1224.00,0.0429
1223.00,0.0428
1222.00,0.0427
1221.00,0.0426
1220.00,0.0426
1219.00,0.0425
1218.00,0.0425
1217.00,0.0425
1216.00,0.0425
1215.00,0.0424
1214.00,0.0423
1213.00,0.0423
1212.00,0.0423
1211.00,0.0423
1210.00,0.0422
1209.00,0.0422
1208.00,0.0422
1207.00,0.0422
1206.00,0.0421
1205.00,0.0420
1204.00,0.0420
1203.00,0.0420
1202.00,0.0419
1201.00,0.0419
1200.00,0.0419
1199.00,0.0418
1198.00,0.0417
1197.00,0.0416
1196.00,0.0416
1195.00,0.0415
1194.00,0.0414
1193.00,0.0413
1192.00,0.0413
1191.00,0.0413
1190.00,0.0413
1189.00,0.0413
1188.00,0.0413
1187.00,0.0413
1186.00,0.0412
1185.00,0.0412
1184.00,0.0412
1183.00,0.0412
1182.00,0.0411
1181.00,0.0410
1180.00,0.0409
1179.00,0.0409
1178.00,0.0409
1177.00,0.0409
1176.00,0.0409
1175.00,0.0408
1174.00,0.0408
1173.00,0.0407
1172.00,0.0406
1171.00,0.0405
1170.00,0.0404
1169.00,0.0404
1168.00,0.0405
1167.00,0.0406
1166.00,0.0406
1165.00,0.0406
1164.00,0.0405
1163.00,0.0404
1162.00,0.0403
1161.00,0.0403
1160.00,0.0403
1159.00,0.0402
1158.00,0.0402
1157.00,0.0400
1156.00,0.0399
1155.00,0.0398
1154.00,0.0398
1153.00,0.0397
1152.00,0.0397
1151.00,0.0396
1150.00,0.0396
1149.00,0.0397
1148.00,0.0398
1147.00,0.0398
1146.00,0.0398
1145.00,0.0398
1144.00,0.0397
1143.00,0.0395
1142.00,0.0394
1141.00,0.0392
1140.00,0.0391
1139.00,0.0391
1138.00,0.0391
1137.00,0.0391
1136.00,0.0391
1135.00,0.0391
1134.00,0.0392
1133.00,0.0392
1132.00,0.0391
1131.00,0.0391
1130.00,0.0390
1129.00,0.0389
1128.00,0.0389
1127.00,0.0390
1126.00,0.0390
1125.00,0.0391
1124.00,0.0390
1123.00,0.0390
1122.00,0.0389
1121.00,0.0388
1120.00,0.0389
1119.00,0.0389
1118.00,0.0390
1117.00,0.0390
1116.00,0.0389
1115.00,0.0389
1114.00,0.0388
1113.00,0.0387
1112.00,0.0386
1111.00,0.0386
1110.00,0.0385
1109.00,0.0385
1108.00,0.0386
1107.00,0.0386
1106.00,0.0386
1105.00,0.0386
1104.00,0.0387
1103.00,0.0387
1102.00,0.0387
1101.00,0.0386
1100.00,0.0386
1099.00,0.0386
1098.00,0.0386
1097.00,0.0386
1096.00,0.0384
1095.00,0.0383
1094.00,0.0383
1093.00,0.0383
1092.00,0.0384
1091.00,0.0385
1090.00,0.0385
1089.00,0.0384
1088.00,0.0385
1087.00,0.0385
1086.00,0.0385
1085.00,0.0385
1084.00,0.0384
1083.00,0.0385
1082.00,0.0385
1081.00,0.0385
1080.00,0.0386
1079.00,0.0385
1078.00,0.0385
1077.00,0.0385
1076.00,0.0384
1075.00,0.0385
1074.00,0.0386
1073.00,0.0387
1072.00,0.0388
1071.00,0.0388
1070.00,0.0387
1069.00,0.0386
1068.00,0.0385
1067.00,0.0385
1066.00,0.0386
1065.00,0.0386
1064.00,0.0387
1063.00,0.0387
1062.00,0.0386
1061.00,0.0385
1060.00,0.0384
1059.00,0.0384
1058.00,0.0384
1057.00,0.0385
1056.00,0.0385
1055.00,0.0386
1054.00,0.0386
1053.00,0.0387
1052.00,0.0388
1051.00,0.0390
1050.00,0.0391
1049.00,0.0393
1048.00,0.0394
1047.00,0.0395
1046.00,0.0395
1045.00,0.0393
1044.00,0.0392
1043.00,0.0392
1042.00,0.0392
1041.00,0.0392
1040.00,0.0392
1039.00,0.0391
1038.00,0.0390
1037.00,0.0391
1036.00,0.0392
1035.00,0.0393
1034.00,0.0394
1033.00,0.0394
1032.00,0.0394
1031.00,0.0393
1030.00,0.0390
1029.00,0.0389
1028.00,0.0387
1027.00,0.0387
1026.00,0.0385
1025.00,0.0384
1024.00,0.0383
1023.00,0.0383
1022.00,0.0383
1021.00,0.0382
1020.00,0.0382
1019.00,0.0381
1018.00,0.0381
1017.00,0.0381
1016.00,0.0382
1015.00,0.0382
1014.00,0.0383
1013.00,0.0383
1012.00,0.0383
1011.00,0.0383
1010.00,0.0383
1009.00,0.0383
1008.00,0.0383
1007.00,0.0383
1006.00,0.0383
1005.00,0.0384
1004.00,0.0384
1003.00,0.0383
1002.00,0.0383
1001.00,0.0382
1000.00,0.0382
999.00,0.0381
998.00,0.0381
997.00,0.0379
996.00,0.0378
995.00,0.0377
994.00,0.0377
993.00,0.0376
992.00,0.0376
991.00,0.0375
990.00,0.0374
989.00,0.0374
988.00,0.0374
987.00,0.0375
986.00,0.0375
985.00,0.0375
984.00,0.0375
983.00,0.0374
982.00,0.0373
981.00,0.0372
980.00,0.0371
979.00,0.0371
978.00,0.0371
977.00,0.0371
976.00,0.0372
975.00,0.0372
974.00,0.0372
973.00,0.0372
972.00,0.0371
971.00,0.0371
970.00,0.0371
969.00,0.0371
968.00,0.0371
967.00,0.0371
966.00,0.0371
965.00,0.0371
964.00,0.0371
963.00,0.0371
962.00,0.0370
961.00,0.0370
960.00,0.0370
959.00,0.0370
958.00,0.0369
957.00,0.0368
956.00,0.0368
955.00,0.0369
954.00,0.0371
953.00,0.0372
952.00,0.0373
951.00,0.0372
950.00,0.0372
949.00,0.0371
948.00,0.0371
947.00,0.0372
946.00,0.0373
945.00,0.0375
944.00,0.0375
943.00,0.0376
942.00,0.0376
941.00,0.0376
940.00,0.0377
939.00,0.0378
938.00,0.0378
937.00,0.0378
936.00,0.0379
935.00,0.0381
934.00,0.0381
933.00,0.0382
932.00,0.0381
931.00,0.0381
930.00,0.0381
929.00,0.0381
928.00,0.0382
927.00,0.0383
926.00,0.0384
925.00,0.0385
924.00,0.0385
923.00,0.0386
922.00,0.0386
921.00,0.0386
920.00,0.0386
919.00,0.0387
918.00,0.0389
917.00,0.0390
916.00,0.0391
915.00,0.0392
914.00,0.0391
913.00,0.0391
912.00,0.0390
911.00,0.0391
910.00,0.0391
909.00,0.0392
908.00,0.0393
907.00,0.0392
906.00,0.0391
905.00,0.0391
904.00,0.0391
903.00,0.0392
902.00,0.0393
901.00,0.0393
900.00,0.0393
899.00,0.0393
898.00,0.0394
897.00,0.0394
896.00,0.0395
895.00,0.0395
894.00,0.0396
893.00,0.0396
892.00,0.0396
891.00,0.0395
890.00,0.0395
889.00,0.0395
888.00,0.0396
887.00,0.0397
886.00,0.0398
885.00,0.0399
884.00,0.0399
883.00,0.0400
882.00,0.0401
881.00,0.0403
880.00,0.0404
879.00,0.0404
878.00,0.0403
877.00,0.0403
876.00,0.0403
875.00,0.0403
874.00,0.0403
873.00,0.0403
872.00,0.0403
871.00,0.0403
870.00,0.0403
869.00,0.0403
868.00,0.0405
867.00,0.0405
866.00,0.0405
865.00,0.0405
864.00,0.0406
863.00,0.0407
862.00,0.0408
861.00,0.0409
860.00,0.0411
859.00,0.0412
858.00,0.0411
857.00,0.0411
856.00,0.0412
855.00,0.0413
854.00,0.0415
853.00,0.0416
852.00,0.0416
851.00,0.0416
850.00,0.0415
849.00,0.0415
848.00,0.0416
847.00,0.0417
846.00,0.0419
845.00,0.0421
844.00,0.0424
843.00,0.0425
842.00,0.0425
841.00,0.0425
840.00,0.0426
839.00,0.0428
838.00,0.0431
837.00,0.0434
836.00,0.0436
835.00,0.0436
834.00,0.0436
833.00,0.0435
832.00,0.0437
831.00,0.0440
830.00,0.0443
829.00,0.0444
828.00,0.0444
827.00,0.0443
826.00,0.0441
825.00,0.0440
824.00,0.0441
823.00,0.0443
822.00,0.0446
821.00,0.0448
820.00,0.0449
819.00,0.0449
818.00,0.0449
817.00,0.0450
816.00,0.0450
815.00,0.0451
814.00,0.0452
813.00,0.0452
812.00,0.0453
811.00,0.0455
810.00,0.0457
809.00,0.0459
808.00,0.0460
807.00,0.0460
806.00,0.0459
805.00,0.0459
804.00,0.0458
803.00,0.0458
802.00,0.0459
801.00,0.0461
800.00,0.0463
799.00,0.0462
798.00,0.0461
797.00,0.0460
796.00,0.0462
795.00,0.0465
794.00,0.0468
793.00,0.0471
792.00,0.0472
791.00,0.0473
790.00,0.0474
789.00,0.0475
788.00,0.0476
787.00,0.0476
786.00,0.0478
785.00,0.0479
784.00,0.0481
783.00,0.0483
782.00,0.0484
781.00,0.0484
780.00,0.0485
779.00,0.0485
778.00,0.0486
777.00,0.0486
776.00,0.0487
775.00,0.0488
774.00,0.0489
773.00,0.0490
772.00,0.0491
771.00,0.0491
770.00,0.0491
769.00,0.0491
768.00,0.0492
767.00,0.0491
766.00,0.0491
765.00,0.0490
764.00,0.0491
763.00,0.0492
762.00,0.0492
761.00,0.0493
760.00,0.0494
759.00,0.0496
758.00,0.0499
757.00,0.0501
756.00,0.0502
755.00,0.0502
754.00,0.0501
753.00,0.0501
752.00,0.0501
751.00,0.0502
750.00,0.0503
749.00,0.0504
748.00,0.0506
747.00,0.0507
746.00,0.0507
745.00,0.0507
744.00,0.0507
743.00,0.0507
742.00,0.0505
741.00,0.0504
740.00,0.0503
739.00,0.0503
738.00,0.0505
737.00,0.0507
736.00,0.0508
735.00,0.0509
734.00,0.0509
733.00,0.0507
732.00,0.0506
731.00,0.0507
730.00,0.0507
729.00,0.0506
728.00,0.0505
727.00,0.0506
726.00,0.0509
725.00,0.0512
724.00,0.0514
723.00,0.0515
722.00,0.0517
721.00,0.0518
720.00,0.0520
719.00,0.0521
718.00,0.0521
717.00,0.0520
716.00,0.0519
715.00,0.0519
714.00,0.0521
713.00,0.0526
712.00,0.0531
711.00,0.0534
710.00,0.0535
709.00,0.0533
708.00,0.0532
707.00,0.0533
706.00,0.0537
705.00,0.0544
704.00,0.0550
703.00,0.0552
702.00,0.0551
701.00,0.0549
700.00,0.0549
699.00,0.0550
698.00,0.0551
697.00,0.0552
696.00,0.0552
695.00,0.0551
694.00,0.0548
693.00,0.0546
692.00,0.0547
691.00,0.0552
690.00,0.0558
689.00,0.0562
688.00,0.0562
687.00,0.0560
686.00,0.0558
685.00,0.0557
684.00,0.0557
683.00,0.0559
682.00,0.0561
681.00,0.0565
680.00,0.0568
679.00,0.0570
678.00,0.0571
677.00,0.0574
676.00,0.0580
675.00,0.0585
674.00,0.0587
673.00,0.0585
672.00,0.0581
671.00,0.0577
670.00,0.0577
669.00,0.0586
668.00,0.0604
667.00,0.0619
666.00,0.0621
665.00,0.0612
664.00,0.0601
663.00,0.0593
662.00,0.0592
661.00,0.0597
660.00,0.0605
659.00,0.0611
658.00,0.0613
657.00,0.0609
656.00,0.0604
655.00,0.0603
654.00,0.0606
653.00,0.0608
652.00,0.0611
651.00,0.0611
650.00,0.0610
