Created as New Dataset,Monday, April 03 2023
cm-1,A
4000.00,0.0143
3999.00,0.0143
3998.00,0.0143
3997.00,0.0143
3996.00,0.0143
3995.00,0.0143
3994.00,0.0143
3993.00,0.0143
3992.00,0.0143
3991.00,0.0143
3990.00,0.0143
3989.00,0.0143
3988.00,0.0143
3987.00,0.0143
3986.00,0.0143
3985.00,0.0143
3984.00,0.0142
3983.00,0.0142
3982.00,0.0142
3981.00,0.0142
3980.00,0.0142
3979.00,0.0143
3978.00,0.0143
3977.00,0.0143
3976.00,0.0143
3975.00,0.0142
3974.00,0.0142
3973.00,0.0142
3972.00,0.0142
3971.00,0.0142
3970.00,0.0141
3969.00,0.0141
3968.00,0.0141
3967.00,0.0141
3966.00,0.0142
3965.00,0.0142
3964.00,0.0142
3963.00,0.0142
3962.00,0.0142
3961.00,0.0141
3960.00,0.0141
3959.00,0.0141
3958.00,0.0141
3957.00,0.0141
3956.00,0.0141
3955.00,0.0141
3954.00,0.0141
3953.00,0.0141
3952.00,0.0141
3951.00,0.0141
3950.00,0.0141
3949.00,0.0141
3948.00,0.0141
3947.00,0.0141
3946.00,0.0141
3945.00,0.0141
3944.00,0.0141
3943.00,0.0140
3942.00,0.0139
3941.00,0.0139
3940.00,0.0140
3939.00,0.0140
3938.00,0.0140
3937.00,0.0141
3936.00,0.0141
3935.00,0.0142
3934.00,0.0142
3933.00,0.0142
3932.00,0.0142
3931.00,0.0141
3930.00,0.0141
3929.00,0.0140
3928.00,0.0140
3927.00,0.0140
3926.00,0.0140
3925.00,0.0140
3924.00,0.0139
3923.00,0.0139
3922.00,0.0139
3921.00,0.0139
3920.00,0.0139
3919.00,0.0139
3918.00,0.0139
3917.00,0.0139
3916.00,0.0138
3915.00,0.0138
3914.00,0.0139
3913.00,0.0139
3912.00,0.0139
3911.00,0.0139
3910.00,0.0139
3909.00,0.0139
3908.00,0.0140
3907.00,0.0140
3906.00,0.0139
3905.00,0.0139
3904.00,0.0139
3903.00,0.0138
3902.00,0.0138
3901.00,0.0138
3900.00,0.0137
3899.00,0.0136
3898.00,0.0137
3897.00,0.0138
3896.00,0.0140
3895.00,0.0140
3894.00,0.0140
3893.00,0.0139
3892.00,0.0138
3891.00,0.0137
3890.00,0.0137
3889.00,0.0139
3888.00,0.0140
3887.00,0.0140
3886.00,0.0139
3885.00,0.0140
3884.00,0.0140
3883.00,0.0140
3882.00,0.0139
3881.00,0.0137
3880.00,0.0135
3879.00,0.0136
3878.00,0.0137
3877.00,0.0139
3876.00,0.0139
3875.00,0.0139
3874.00,0.0139
3873.00,0.0139
3872.00,0.0139
3871.00,0.0138
3870.00,0.0137
3869.00,0.0137
3868.00,0.0139
3867.00,0.0141
3866.00,0.0141
3865.00,0.0139
3864.00,0.0138
3863.00,0.0137
3862.00,0.0137
3861.00,0.0138
3860.00,0.0139
3859.00,0.0139
3858.00,0.0139
3857.00,0.0139
3856.00,0.0139
3855.00,0.0141
3854.00,0.0142
3853.00,0.0140
3852.00,0.0139
3851.00,0.0139
3850.00,0.0139
3849.00,0.0138
3848.00,0.0138
3847.00,0.0138
3846.00,0.0138
3845.00,0.0138
3844.00,0.0137
3843.00,0.0138
3842.00,0.0138
3841.00,0.0139
3840.00,0.0139
3839.00,0.0138
3838.00,0.0138
3837.00,0.0138
3836.00,0.0138
3835.00,0.0137
3834.00,0.0137
3833.00,0.0137
3832.00,0.0137
3831.00,0.0137
3830.00,0.0138
3829.00,0.0139
3828.00,0.0138
3827.00,0.0138
3826.00,0.0137
3825.00,0.0138
3824.00,0.0139
3823.00,0.0139
3822.00,0.0139
3821.00,0.0138
3820.00,0.0138
3819.00,0.0139
3818.00,0.0139
3817.00,0.0138
3816.00,0.0137
3815.00,0.0137
3814.00,0.0138
3813.00,0.0138
3812.00,0.0138
3811.00,0.0137
3810.00,0.0137
3809.00,0.0138
3808.00,0.0138
3807.00,0.0139
3806.00,0.0139
3805.00,0.0141
3804.00,0.0141
3803.00,0.0141
3802.00,0.0140
3801.00,0.0138
3800.00,0.0138
3799.00,0.0139
3798.00,0.0138
3797.00,0.0136
3796.00,0.0135
3795.00,0.0134
3794.00,0.0135
3793.00,0.0135
3792.00,0.0135
3791.00,0.0135
3790.00,0.0135
3789.00,0.0135
3788.00,0.0136
3787.00,0.0136
3786.00,0.0136
3785.00,0.0135
3784.00,0.0135
3783.00,0.0136
3782.00,0.0136
3781.00,0.0135
3780.00,0.0134
3779.00,0.0133
3778.00,0.0133
3777.00,0.0134
3776.00,0.0134
3775.00,0.0135
3774.00,0.0135
3773.00,0.0135
3772.00,0.0136
3771.00,0.0135
3770.00,0.0135
3769.00,0.0135
3768.00,0.0135
3767.00,0.0135
3766.00,0.0134
3765.00,0.0134
3764.00,0.0135
3763.00,0.0137
3762.00,0.0137
3761.00,0.0137
3760.00,0.0137
3759.00,0.0136
3758.00,0.0136
3757.00,0.0136
3756.00,0.0137
3755.00,0.0137
3754.00,0.0139
3753.00,0.0140
3752.00,0.0142
3751.00,0.0142
3750.00,0.0142
3749.00,0.0141
3748.00,0.0140
3747.00,0.0139
3746.00,0.0137
3745.00,0.0135
3744.00,0.0136
3743.00,0.0138
3742.00,0.0141
3741.00,0.0142
3740.00,0.0141
3739.00,0.0141
3738.00,0.0142
3737.00,0.0142
3736.00,0.0141
3735.00,0.0139
3734.00,0.0137
3733.00,0.0136
3732.00,0.0136
3731.00,0.0137
3730.00,0.0139
3729.00,0.0141
3728.00,0.0141
3727.00,0.0141
3726.00,0.0141
3725.00,0.0141
3724.00,0.0141
3723.00,0.0141
3722.00,0.0141
3721.00,0.0142
3720.00,0.0143
3719.00,0.0144
3718.00,0.0145
3717.00,0.0147
3716.00,0.0149
3715.00,0.0152
3714.00,0.0154
3713.00,0.0158
3712.00,0.0161
3711.00,0.0163
3710.00,0.0165
3709.00,0.0167
3708.00,0.0170
3707.00,0.0174
3706.00,0.0177
3705.00,0.0179
3704.00,0.0183
3703.00,0.0186
3702.00,0.0191
3701.00,0.0195
3700.00,0.0200
3699.00,0.0204
3698.00,0.0207
3697.00,0.0209
3696.00,0.0210
3695.00,0.0211
3694.00,0.0211
3693.00,0.0211
3692.00,0.0210
3691.00,0.0209
3690.00,0.0208
3689.00,0.0206
3688.00,0.0204
3687.00,0.0203
3686.00,0.0202
3685.00,0.0200
3684.00,0.0197
3683.00,0.0195
3682.00,0.0193
3681.00,0.0191
3680.00,0.0189
3679.00,0.0187
3678.00,0.0185
3677.00,0.0185
3676.00,0.0185
3675.00,0.0186
3674.00,0.0188
3673.00,0.0190
3672.00,0.0191
3671.00,0.0191
3670.00,0.0190
3669.00,0.0190
3668.00,0.0191
3667.00,0.0192
3666.00,0.0193
3665.00,0.0194
3664.00,0.0195
3663.00,0.0196
3662.00,0.0197
3661.00,0.0198
3660.00,0.0199
3659.00,0.0201
3658.00,0.0204
3657.00,0.0207
3656.00,0.0210
3655.00,0.0213
3654.00,0.0214
3653.00,0.0213
3652.00,0.0213
3651.00,0.0215
3650.00,0.0218
3649.00,0.0219
3648.00,0.0217
3647.00,0.0215
3646.00,0.0215
3645.00,0.0215
3644.00,0.0214
3643.00,0.0212
3642.00,0.0211
3641.00,0.0210
3640.00,0.0209
3639.00,0.0208
3638.00,0.0208
3637.00,0.0207
3636.00,0.0207
3635.00,0.0208
3634.00,0.0208
3633.00,0.0207
3632.00,0.0207
3631.00,0.0208
3630.00,0.0211
3629.00,0.0216
3628.00,0.0220
3627.00,0.0225
3626.00,0.0230
3625.00,0.0235
3624.00,0.0239
3623.00,0.0243
3622.00,0.0246
3621.00,0.0248
3620.00,0.0248
3619.00,0.0245
3618.00,0.0241
3617.00,0.0236
3616.00,0.0232
3615.00,0.0227
3614.00,0.0223
3613.00,0.0221
3612.00,0.0219
3611.00,0.0218
3610.00,0.0217
3609.00,0.0216
3608.00,0.0215
3607.00,0.0214
3606.00,0.0214
3605.00,0.0214
3604.00,0.0214
3603.00,0.0213
3602.00,0.0213
3601.00,0.0212
3600.00,0.0211
3599.00,0.0210
3598.00,0.0210
3597.00,0.0209
3596.00,0.0210
3595.00,0.0210
3594.00,0.0211
3593.00,0.0211
3592.00,0.0211
3591.00,0.0210
3590.00,0.0209
3589.00,0.0209
3588.00,0.0208
3587.00,0.0208
3586.00,0.0208
3585.00,0.0209
3584.00,0.0210
3583.00,0.0210
3582.00,0.0210
3581.00,0.0209
3580.00,0.0210
3579.00,0.0210
3578.00,0.0210
3577.00,0.0211
3576.00,0.0211
3575.00,0.0211
3574.00,0.0211
3573.00,0.0211
3572.00,0.0211
3571.00,0.0211
3570.00,0.0211
3569.00,0.0211
3568.00,0.0212
3567.00,0.0213
3566.00,0.0214
3565.00,0.0214
3564.00,0.0214
3563.00,0.0214
3562.00,0.0214
3561.00,0.0214
3560.00,0.0214
3559.00,0.0214
3558.00,0.0215
3557.00,0.0215
3556.00,0.0215
3555.00,0.0216
3554.00,0.0216
3553.00,0.0217
3552.00,0.0217
3551.00,0.0218
3550.00,0.0218
3549.00,0.0218
3548.00,0.0219
3547.00,0.0219
3546.00,0.0220
3545.00,0.0220
3544.00,0.0220
3543.00,0.0220
3542.00,0.0220
3541.00,0.0220
3540.00,0.0220
3539.00,0.0221
3538.00,0.0221
3537.00,0.0221
3536.00,0.0222
3535.00,0.0222
3534.00,0.0223
3533.00,0.0223
3532.00,0.0223
3531.00,0.0223
3530.00,0.0224
3529.00,0.0224
3528.00,0.0225
3527.00,0.0225
3526.00,0.0226
3525.00,0.0226
3524.00,0.0227
3523.00,0.0227
3522.00,0.0227
3521.00,0.0227
3520.00,0.0227
3519.00,0.0227
3518.00,0.0227
3517.00,0.0228
3516.00,0.0228
3515.00,0.0229
3514.00,0.0229
3513.00,0.0229
3512.00,0.0229
3511.00,0.0229
3510.00,0.0229
3509.00,0.0230
3508.00,0.0230
3507.00,0.0231
3506.00,0.0231
3505.00,0.0231
3504.00,0.0232
3503.00,0.0232
3502.00,0.0232
3501.00,0.0232
3500.00,0.0232
3499.00,0.0233
3498.00,0.0234
3497.00,0.0235
3496.00,0.0235
3495.00,0.0236
3494.00,0.0236
3493.00,0.0236
3492.00,0.0236
3491.00,0.0237
3490.00,0.0237
3489.00,0.0238
3488.00,0.0238
3487.00,0.0238
3486.00,0.0238
3485.00,0.0237
3484.00,0.0237
3483.00,0.0237
3482.00,0.0238
3481.00,0.0238
3480.00,0.0239
3479.00,0.0239
3478.00,0.0240
3477.00,0.0240
3476.00,0.0240
3475.00,0.0241
3474.00,0.0241
3473.00,0.0242
3472.00,0.0242
3471.00,0.0242
3470.00,0.0242
3469.00,0.0242
3468.00,0.0243
3467.00,0.0243
3466.00,0.0243
3465.00,0.0244
3464.00,0.0244
3463.00,0.0244
3462.00,0.0244
3461.00,0.0245
3460.00,0.0245
3459.00,0.0245
3458.00,0.0245
3457.00,0.0245
3456.00,0.0245
3455.00,0.0245
3454.00,0.0245
3453.00,0.0246
3452.00,0.0247
3451.00,0.0247
3450.00,0.0247
3449.00,0.0247
3448.00,0.0247
3447.00,0.0248
3446.00,0.0248
3445.00,0.0248
3444.00,0.0249
3443.00,0.0249
3442.00,0.0249
3441.00,0.0250
3440.00,0.0250
3439.00,0.0250
3438.00,0.0250
3437.00,0.0250
3436.00,0.0250
3435.00,0.0251
3434.00,0.0251
3433.00,0.0251
3432.00,0.0251
3431.00,0.0252
3430.00,0.0252
3429.00,0.0252
3428.00,0.0252
3427.00,0.0252
3426.00,0.0252
3425.00,0.0253
3424.00,0.0253
3423.00,0.0253
3422.00,0.0253
3421.00,0.0253
3420.00,0.0253
3419.00,0.0254
3418.00,0.0254
3417.00,0.0254
3416.00,0.0254
3415.00,0.0254
3414.00,0.0254
3413.00,0.0254
3412.00,0.0254
3411.00,0.0254
3410.00,0.0254
3409.00,0.0254
3408.00,0.0254
3407.00,0.0255
3406.00,0.0255
3405.00,0.0255
3404.00,0.0256
3403.00,0.0256
3402.00,0.0256
3401.00,0.0257
3400.00,0.0257
3399.00,0.0256
3398.00,0.0256
3397.00,0.0256
3396.00,0.0257
3395.00,0.0257
3394.00,0.0258
3393.00,0.0258
3392.00,0.0258
3391.00,0.0258
3390.00,0.0257
3389.00,0.0257
3388.00,0.0258
3387.00,0.0258
3386.00,0.0258
3385.00,0.0258
3384.00,0.0258
3383.00,0.0257
3382.00,0.0257
3381.00,0.0258
3380.00,0.0258
3379.00,0.0258
3378.00,0.0258
3377.00,0.0258
3376.00,0.0259
3375.00,0.0259
3374.00,0.0259
3373.00,0.0259
3372.00,0.0259
3371.00,0.0259
3370.00,0.0259
3369.00,0.0259
3368.00,0.0260
3367.00,0.0260
3366.00,0.0260
3365.00,0.0260
3364.00,0.0260
3363.00,0.0260
3362.00,0.0260
3361.00,0.0260
3360.00,0.0260
3359.00,0.0260
3358.00,0.0260
3357.00,0.0260
3356.00,0.0260
3355.00,0.0260
3354.00,0.0260
3353.00,0.0260
3352.00,0.0260
3351.00,0.0261
3350.00,0.0261
3349.00,0.0261
3348.00,0.0261
3347.00,0.0261
3346.00,0.0261
3345.00,0.0261
3344.00,0.0260
3343.00,0.0261
3342.00,0.0261
3341.00,0.0261
3340.00,0.0261
3339.00,0.0261
3338.00,0.0260
3337.00,0.0260
3336.00,0.0260
3335.00,0.0260
3334.00,0.0260
3333.00,0.0260
3332.00,0.0260
3331.00,0.0260
3330.00,0.0260
3329.00,0.0261
3328.00,0.0261
3327.00,0.0262
3326.00,0.0262
3325.00,0.0262
3324.00,0.0262
3323.00,0.0261
3322.00,0.0260
3321.00,0.0260
3320.00,0.0260
3319.00,0.0260
3318.00,0.0261
3317.00,0.0261
3316.00,0.0261
3315.00,0.0261
3314.00,0.0261
3313.00,0.0260
3312.00,0.0260
3311.00,0.0260
3310.00,0.0261
3309.00,0.0261
3308.00,0.0262
3307.00,0.0262
3306.00,0.0261
3305.00,0.0261
3304.00,0.0261
3303.00,0.0261
3302.00,0.0261
3301.00,0.0261
3300.00,0.0261
3299.00,0.0261
3298.00,0.0261
3297.00,0.0261
3296.00,0.0261
3295.00,0.0261
3294.00,0.0261
3293.00,0.0261
3292.00,0.0261
3291.00,0.0261
3290.00,0.0261
3289.00,0.0260
3288.00,0.0260
3287.00,0.0261
3286.00,0.0261
3285.00,0.0261
3284.00,0.0261
3283.00,0.0261
3282.00,0.0261
3281.00,0.0261
3280.00,0.0261
3279.00,0.0261
3278.00,0.0261
3277.00,0.0261
3276.00,0.0261
3275.00,0.0261
3274.00,0.0261
3273.00,0.0261
3272.00,0.0261
3271.00,0.0261
3270.00,0.0260
3269.00,0.0260
3268.00,0.0260
3267.00,0.0261
3266.00,0.0261
3265.00,0.0261
3264.00,0.0260
3263.00,0.0260
3262.00,0.0259
3261.00,0.0259
3260.00,0.0259
3259.00,0.0259
3258.00,0.0259
3257.00,0.0259
3256.00,0.0259
3255.00,0.0259
3254.00,0.0260
3253.00,0.0260
3252.00,0.0260
3251.00,0.0259
3250.00,0.0259
3249.00,0.0259
3248.00,0.0259
3247.00,0.0260
3246.00,0.0260
3245.00,0.0260
3244.00,0.0259
3243.00,0.0259
3242.00,0.0259
3241.00,0.0258
3240.00,0.0258
3239.00,0.0259
3238.00,0.0259
3237.00,0.0259
3236.00,0.0259
3235.00,0.0259
3234.00,0.0258
3233.00,0.0258
3232.00,0.0258
3231.00,0.0259
3230.00,0.0259
3229.00,0.0259
3228.00,0.0259
3227.00,0.0259
3226.00,0.0258
3225.00,0.0258
3224.00,0.0257
3223.00,0.0257
3222.00,0.0257
3221.00,0.0257
3220.00,0.0257
3219.00,0.0258
3218.00,0.0258
3217.00,0.0258
3216.00,0.0258
3215.00,0.0258
3214.00,0.0258
3213.00,0.0257
3212.00,0.0257
3211.00,0.0257
3210.00,0.0257
3209.00,0.0257
3208.00,0.0257
3207.00,0.0257
3206.00,0.0256
3205.00,0.0256
3204.00,0.0256
3203.00,0.0256
3202.00,0.0256
3201.00,0.0256
3200.00,0.0255
3199.00,0.0255
3198.00,0.0255
3197.00,0.0255
3196.00,0.0255
3195.00,0.0255
3194.00,0.0255
3193.00,0.0255
3192.00,0.0254
3191.00,0.0254
3190.00,0.0254
3189.00,0.0254
3188.00,0.0254
3187.00,0.0254
3186.00,0.0254
3185.00,0.0254
3184.00,0.0254
3183.00,0.0254
3182.00,0.0253
3181.00,0.0253
3180.00,0.0252
3179.00,0.0252
3178.00,0.0252
3177.00,0.0252
3176.00,0.0252
3175.00,0.0251
3174.00,0.0252
3173.00,0.0252
3172.00,0.0252
3171.00,0.0252
3170.00,0.0251
3169.00,0.0251
3168.00,0.0251
3167.00,0.0251
3166.00,0.0250
3165.00,0.0250
3164.00,0.0250
3163.00,0.0250
3162.00,0.0249
3161.00,0.0249
3160.00,0.0249
3159.00,0.0248
3158.00,0.0248
3157.00,0.0248
3156.00,0.0248
3155.00,0.0248
3154.00,0.0248
3153.00,0.0248
3152.00,0.0248
3151.00,0.0248
3150.00,0.0248
3149.00,0.0247
3148.00,0.0247
3147.00,0.0247
3146.00,0.0247
3145.00,0.0247
3144.00,0.0246
3143.00,0.0246
3142.00,0.0246
3141.00,0.0246
3140.00,0.0246
3139.00,0.0246
3138.00,0.0246
3137.00,0.0246
3136.00,0.0246
3135.00,0.0246
3134.00,0.0245
3133.00,0.0245
3132.00,0.0245
3131.00,0.0245
3130.00,0.0245
3129.00,0.0244
3128.00,0.0244
3127.00,0.0244
3126.00,0.0244
3125.00,0.0244
3124.00,0.0244
3123.00,0.0243
3122.00,0.0243
3121.00,0.0243
3120.00,0.0243
3119.00,0.0243
3118.00,0.0244
3117.00,0.0243
3116.00,0.0243
3115.00,0.0242
3114.00,0.0242
3113.00,0.0242
3112.00,0.0241
3111.00,0.0241
3110.00,0.0241
3109.00,0.0241
3108.00,0.0241
3107.00,0.0241
3106.00,0.0241
3105.00,0.0240
3104.00,0.0240
3103.00,0.0240
3102.00,0.0240
3101.00,0.0240
3100.00,0.0240
3099.00,0.0239
3098.00,0.0239
3097.00,0.0238
3096.00,0.0238
3095.00,0.0238
3094.00,0.0239
3093.00,0.0239
3092.00,0.0239
3091.00,0.0239
3090.00,0.0240
3089.00,0.0240
3088.00,0.0240
3087.00,0.0239
3086.00,0.0239
3085.00,0.0239
3084.00,0.0238
3083.00,0.0238
3082.00,0.0238
3081.00,0.0238
3080.00,0.0239
3079.00,0.0239
3078.00,0.0238
3077.00,0.0238
3076.00,0.0238
3075.00,0.0238
3074.00,0.0238
3073.00,0.0238
3072.00,0.0237
3071.00,0.0237
3070.00,0.0236
3069.00,0.0236
3068.00,0.0236
3067.00,0.0237
3066.00,0.0237
3065.00,0.0237
3064.00,0.0237
3063.00,0.0237
3062.00,0.0237
3061.00,0.0236
3060.00,0.0236
3059.00,0.0235
3058.00,0.0235
3057.00,0.0235
3056.00,0.0235
3055.00,0.0235
3054.00,0.0234
3053.00,0.0234
3052.00,0.0234
3051.00,0.0234
3050.00,0.0234
3049.00,0.0233
3048.00,0.0233
3047.00,0.0233
3046.00,0.0234
3045.00,0.0233
3044.00,0.0233
3043.00,0.0233
3042.00,0.0232
3041.00,0.0232
3040.00,0.0232
3039.00,0.0231
3038.00,0.0231
3037.00,0.0231
3036.00,0.0231
3035.00,0.0231
3034.00,0.0231
3033.00,0.0231
3032.00,0.0230
3031.00,0.0230
3030.00,0.0230
3029.00,0.0230
3028.00,0.0229
3027.00,0.0229
3026.00,0.0229
3025.00,0.0229
3024.00,0.0229
3023.00,0.0229
3022.00,0.0229
3021.00,0.0229
3020.00,0.0229
3019.00,0.0229
3018.00,0.0229
3017.00,0.0228
3016.00,0.0228
3015.00,0.0228
3014.00,0.0228
3013.00,0.0228
3012.00,0.0228
3011.00,0.0228
3010.00,0.0228
3009.00,0.0228
3008.00,0.0228
3007.00,0.0229
3006.00,0.0229
3005.00,0.0229
3004.00,0.0229
3003.00,0.0229
3002.00,0.0230
3001.00,0.0230
3000.00,0.0230
2999.00,0.0230
2998.00,0.0230
2997.00,0.0230
2996.00,0.0229
2995.00,0.0229
2994.00,0.0230
2993.00,0.0230
2992.00,0.0230
2991.00,0.0230
2990.00,0.0230
2989.00,0.0230
2988.00,0.0230
2987.00,0.0230
2986.00,0.0230
2985.00,0.0231
2984.00,0.0232
2983.00,0.0232
2982.00,0.0233
2981.00,0.0232
2980.00,0.0232
2979.00,0.0231
2978.00,0.0231
2977.00,0.0230
2976.00,0.0230
2975.00,0.0230
2974.00,0.0230
2973.00,0.0229
2972.00,0.0229
2971.00,0.0228
2970.00,0.0228
2969.00,0.0227
2968.00,0.0226
2967.00,0.0226
2966.00,0.0225
2965.00,0.0224
2964.00,0.0224
2963.00,0.0223
2962.00,0.0222
2961.00,0.0222
2960.00,0.0221
2959.00,0.0220
2958.00,0.0220
2957.00,0.0220
2956.00,0.0220
2955.00,0.0220
2954.00,0.0220
2953.00,0.0220
2952.00,0.0220
2951.00,0.0220
2950.00,0.0219
2949.00,0.0219
2948.00,0.0219
2947.00,0.0219
2946.00,0.0219
2945.00,0.0219
2944.00,0.0218
2943.00,0.0218
2942.00,0.0217
2941.00,0.0216
2940.00,0.0216
2939.00,0.0215
2938.00,0.0214
2937.00,0.0213
2936.00,0.0212
2935.00,0.0211
2934.00,0.0211
2933.00,0.0210
2932.00,0.0209
2931.00,0.0208
2930.00,0.0207
2929.00,0.0205
2928.00,0.0204
2927.00,0.0203
2926.00,0.0202
2925.00,0.0202
2924.00,0.0202
2923.00,0.0201
2922.00,0.0201
2921.00,0.0201
2920.00,0.0200
2919.00,0.0200
2918.00,0.0199
2917.00,0.0199
2916.00,0.0200
2915.00,0.0201
2914.00,0.0203
2913.00,0.0205
2912.00,0.0207
2911.00,0.0208
2910.00,0.0209
2909.00,0.0209
2908.00,0.0210
2907.00,0.0211
2906.00,0.0211
2905.00,0.0211
2904.00,0.0212
2903.00,0.0212
2902.00,0.0212
2901.00,0.0212
2900.00,0.0212
2899.00,0.0212
2898.00,0.0212
2897.00,0.0212
2896.00,0.0212
2895.00,0.0212
2894.00,0.0212
2893.00,0.0212
2892.00,0.0212
2891.00,0.0213
2890.00,0.0213
2889.00,0.0213
2888.00,0.0214
2887.00,0.0214
2886.00,0.0214
2885.00,0.0214
2884.00,0.0213
2883.00,0.0213
2882.00,0.0213
2881.00,0.0212
2880.00,0.0212
2879.00,0.0211
2878.00,0.0211
2877.00,0.0211
2876.00,0.0211
2875.00,0.0211
2874.00,0.0210
2873.00,0.0210
2872.00,0.0209
2871.00,0.0208
2870.00,0.0208
2869.00,0.0207
2868.00,0.0207
2867.00,0.0206
2866.00,0.0206
2865.00,0.0205
2864.00,0.0205
2863.00,0.0204
2862.00,0.0204
2861.00,0.0203
2860.00,0.0202
2859.00,0.0202
2858.00,0.0201
2857.00,0.0199
2856.00,0.0198
2855.00,0.0197
2854.00,0.0197
2853.00,0.0197
2852.00,0.0197
2851.00,0.0197
2850.00,0.0197
2849.00,0.0197
2848.00,0.0198
2847.00,0.0199
2846.00,0.0199
2845.00,0.0200
2844.00,0.0201
2843.00,0.0202
2842.00,0.0202
2841.00,0.0202
2840.00,0.0203
2839.00,0.0203
2838.00,0.0203
2837.00,0.0203
2836.00,0.0203
2835.00,0.0203
2834.00,0.0203
2833.00,0.0203
2832.00,0.0203
2831.00,0.0202
2830.00,0.0202
2829.00,0.0202
2828.00,0.0202
2827.00,0.0202
2826.00,0.0202
2825.00,0.0202
2824.00,0.0202
2823.00,0.0202
2822.00,0.0202
2821.00,0.0202
2820.00,0.0202
2819.00,0.0202
2818.00,0.0201
2817.00,0.0201
2816.00,0.0201
2815.00,0.0201
2814.00,0.0201
2813.00,0.0201
2812.00,0.0200
2811.00,0.0200
2810.00,0.0200
2809.00,0.0199
2808.00,0.0199
2807.00,0.0199
2806.00,0.0198
2805.00,0.0198
2804.00,0.0198
2803.00,0.0198
2802.00,0.0199
2801.00,0.0198
2800.00,0.0198
2799.00,0.0198
2798.00,0.0198
2797.00,0.0198
2796.00,0.0198
2795.00,0.0198
2794.00,0.0197
2793.00,0.0197
2792.00,0.0197
2791.00,0.0196
2790.00,0.0196
2789.00,0.0197
2788.00,0.0197
2787.00,0.0197
2786.00,0.0196
2785.00,0.0196
2784.00,0.0196
2783.00,0.0195
2782.00,0.0195
2781.00,0.0195
2780.00,0.0194
2779.00,0.0194
2778.00,0.0194
2777.00,0.0194
2776.00,0.0194
2775.00,0.0194
2774.00,0.0194
2773.00,0.0193
2772.00,0.0193
2771.00,0.0194
2770.00,0.0194
2769.00,0.0194
2768.00,0.0193
2767.00,0.0193
2766.00,0.0193
2765.00,0.0193
2764.00,0.0193
2763.00,0.0192
2762.00,0.0192
2761.00,0.0192
2760.00,0.0192
2759.00,0.0192
2758.00,0.0191
2757.00,0.0191
2756.00,0.0191
2755.00,0.0191
2754.00,0.0191
2753.00,0.0191
2752.00,0.0191
2751.00,0.0190
2750.00,0.0190
2749.00,0.0190
2748.00,0.0190
2747.00,0.0190
2746.00,0.0190
2745.00,0.0190
2744.00,0.0190
2743.00,0.0189
2742.00,0.0189
2741.00,0.0189
2740.00,0.0189
2739.00,0.0189
2738.00,0.0189
2737.00,0.0189
2736.00,0.0188
2735.00,0.0188
2734.00,0.0188
2733.00,0.0187
2732.00,0.0187
2731.00,0.0187
2730.00,0.0188
2729.00,0.0188
2728.00,0.0187
2727.00,0.0187
2726.00,0.0187
2725.00,0.0187
2724.00,0.0186
2723.00,0.0186
2722.00,0.0186
2721.00,0.0186
2720.00,0.0186
2719.00,0.0186
2718.00,0.0186
2717.00,0.0186
2716.00,0.0186
2715.00,0.0186
2714.00,0.0186
2713.00,0.0186
2712.00,0.0186
2711.00,0.0185
2710.00,0.0185
2709.00,0.0185
2708.00,0.0185
2707.00,0.0185
2706.00,0.0184
2705.00,0.0184
2704.00,0.0184
2703.00,0.0183
2702.00,0.0183
2701.00,0.0183
2700.00,0.0183
2699.00,0.0183
2698.00,0.0183
2697.00,0.0183
2696.00,0.0183
2695.00,0.0183
2694.00,0.0183
2693.00,0.0183
2692.00,0.0183
2691.00,0.0183
2690.00,0.0183
2689.00,0.0183
2688.00,0.0182
2687.00,0.0182
2686.00,0.0182
2685.00,0.0182
2684.00,0.0182
2683.00,0.0181
2682.00,0.0181
2681.00,0.0181
2680.00,0.0181
2679.00,0.0182
2678.00,0.0181
2677.00,0.0181
2676.00,0.0181
2675.00,0.0181
2674.00,0.0181
2673.00,0.0181
2672.00,0.0181
2671.00,0.0181
2670.00,0.0181
2669.00,0.0181
2668.00,0.0181
2667.00,0.0181
2666.00,0.0181
2665.00,0.0181
2664.00,0.0181
2663.00,0.0181
2662.00,0.0181
2661.00,0.0181
2660.00,0.0181
2659.00,0.0181
2658.00,0.0181
2657.00,0.0181
2656.00,0.0182
2655.00,0.0182
2654.00,0.0182
2653.00,0.0183
2652.00,0.0183
2651.00,0.0182
2650.00,0.0182
2649.00,0.0182
2648.00,0.0181
2647.00,0.0181
2646.00,0.0181
2645.00,0.0181
2644.00,0.0182
2643.00,0.0182
2642.00,0.0182
2641.00,0.0182
2640.00,0.0182
2639.00,0.0182
2638.00,0.0181
2637.00,0.0181
2636.00,0.0181
2635.00,0.0181
2634.00,0.0181
2633.00,0.0181
2632.00,0.0181
2631.00,0.0181
2630.00,0.0181
2629.00,0.0181
2628.00,0.0182
2627.00,0.0182
2626.00,0.0181
2625.00,0.0181
2624.00,0.0181
2623.00,0.0181
2622.00,0.0181
2621.00,0.0181
2620.00,0.0181
2619.00,0.0181
2618.00,0.0180
2617.00,0.0180
2616.00,0.0180
2615.00,0.0181
2614.00,0.0181
2613.00,0.0181
2612.00,0.0181
2611.00,0.0181
2610.00,0.0181
2609.00,0.0181
2608.00,0.0181
2607.00,0.0181
2606.00,0.0181
2605.00,0.0181
2604.00,0.0181
2603.00,0.0181
2602.00,0.0181
2601.00,0.0181
2600.00,0.0181
2599.00,0.0180
2598.00,0.0180
2597.00,0.0180
2596.00,0.0180
2595.00,0.0180
2594.00,0.0179
2593.00,0.0179
2592.00,0.0180
2591.00,0.0180
2590.00,0.0180
2589.00,0.0180
2588.00,0.0180
2587.00,0.0180
2586.00,0.0180
2585.00,0.0180
2584.00,0.0180
2583.00,0.0180
2582.00,0.0180
2581.00,0.0180
2580.00,0.0180
2579.00,0.0180
2578.00,0.0180
2577.00,0.0180
2576.00,0.0179
2575.00,0.0179
2574.00,0.0179
2573.00,0.0179
2572.00,0.0179
2571.00,0.0179
2570.00,0.0179
2569.00,0.0179
2568.00,0.0179
2567.00,0.0179
2566.00,0.0178
2565.00,0.0179
2564.00,0.0179
2563.00,0.0179
2562.00,0.0179
2561.00,0.0178
2560.00,0.0178
2559.00,0.0178
2558.00,0.0178
2557.00,0.0178
2556.00,0.0179
2555.00,0.0179
2554.00,0.0179
2553.00,0.0179
2552.00,0.0179
2551.00,0.0179
2550.00,0.0179
2549.00,0.0179
2548.00,0.0179
2547.00,0.0178
2546.00,0.0178
2545.00,0.0177
2544.00,0.0177
2543.00,0.0177
2542.00,0.0177
2541.00,0.0177
2540.00,0.0177
2539.00,0.0178
2538.00,0.0178
2537.00,0.0178
2536.00,0.0177
2535.00,0.0177
2534.00,0.0177
2533.00,0.0177
2532.00,0.0177
2531.00,0.0177
2530.00,0.0178
2529.00,0.0178
2528.00,0.0177
2527.00,0.0177
2526.00,0.0177
2525.00,0.0177
2524.00,0.0177
2523.00,0.0177
2522.00,0.0177
2521.00,0.0177
2520.00,0.0177
2519.00,0.0177
2518.00,0.0177
2517.00,0.0177
2516.00,0.0177
2515.00,0.0177
2514.00,0.0178
2513.00,0.0178
2512.00,0.0178
2511.00,0.0177
2510.00,0.0176
2509.00,0.0175
2508.00,0.0175
2507.00,0.0175
2506.00,0.0175
2505.00,0.0176
2504.00,0.0176
2503.00,0.0177
2502.00,0.0177
2501.00,0.0176
2500.00,0.0176
2499.00,0.0176
2498.00,0.0176
2497.00,0.0176
2496.00,0.0176
2495.00,0.0176
2494.00,0.0176
2493.00,0.0176
2492.00,0.0176
2491.00,0.0177
2490.00,0.0177
2489.00,0.0177
2488.00,0.0177
2487.00,0.0176
2486.00,0.0176
2485.00,0.0175
2484.00,0.0175
2483.00,0.0175
2482.00,0.0175
2481.00,0.0175
2480.00,0.0176
2479.00,0.0176
2478.00,0.0176
2477.00,0.0176
2476.00,0.0176
2475.00,0.0175
2474.00,0.0175
2473.00,0.0175
2472.00,0.0175
2471.00,0.0175
2470.00,0.0175
2469.00,0.0176
2468.00,0.0175
2467.00,0.0175
2466.00,0.0175
2465.00,0.0175
2464.00,0.0175
2463.00,0.0176
2462.00,0.0176
2461.00,0.0176
2460.00,0.0176
2459.00,0.0175
2458.00,0.0175
2457.00,0.0174
2456.00,0.0174
2455.00,0.0174
2454.00,0.0175
2453.00,0.0175
2452.00,0.0176
2451.00,0.0176
2450.00,0.0176
2449.00,0.0176
2448.00,0.0175
2447.00,0.0175
2446.00,0.0175
2445.00,0.0175
2444.00,0.0175
2443.00,0.0175
2442.00,0.0175
2441.00,0.0174
2440.00,0.0174
2439.00,0.0174
2438.00,0.0174
2437.00,0.0173
2436.00,0.0173
2435.00,0.0173
2434.00,0.0173
2433.00,0.0173
2432.00,0.0173
2431.00,0.0172
2430.00,0.0172
2429.00,0.0172
2428.00,0.0173
2427.00,0.0173
2426.00,0.0173
2425.00,0.0174
2424.00,0.0174
2423.00,0.0174
2422.00,0.0173
2421.00,0.0173
2420.00,0.0173
2419.00,0.0172
2418.00,0.0172
2417.00,0.0172
2416.00,0.0172
2415.00,0.0172
2414.00,0.0173
2413.00,0.0173
2412.00,0.0172
2411.00,0.0172
2410.00,0.0171
2409.00,0.0171
2408.00,0.0170
2407.00,0.0170
2406.00,0.0170
2405.00,0.0170
2404.00,0.0171
2403.00,0.0171
2402.00,0.0171
2401.00,0.0171
2400.00,0.0171
2399.00,0.0170
2398.00,0.0170
2397.00,0.0170
2396.00,0.0170
2395.00,0.0169
2394.00,0.0169
2393.00,0.0169
2392.00,0.0169
2391.00,0.0169
2390.00,0.0169
2389.00,0.0169
2388.00,0.0169
2387.00,0.0169
2386.00,0.0169
2385.00,0.0168
2384.00,0.0168
2383.00,0.0168
2382.00,0.0168
2381.00,0.0167
2380.00,0.0166
2379.00,0.0164
2378.00,0.0162
2377.00,0.0160
2376.00,0.0159
2375.00,0.0159
2374.00,0.0159
2373.00,0.0159
2372.00,0.0160
2371.00,0.0161
2370.00,0.0162
2369.00,0.0162
2368.00,0.0162
2367.00,0.0162
2366.00,0.0162
2365.00,0.0161
2364.00,0.0161
2363.00,0.0160
2362.00,0.0160
2361.00,0.0160
2360.00,0.0160
2359.00,0.0160
2358.00,0.0160
2357.00,0.0159
2356.00,0.0159
2355.00,0.0158
2354.00,0.0158
2353.00,0.0158
2352.00,0.0158
2351.00,0.0159
2350.00,0.0160
2349.00,0.0160
2348.00,0.0159
2347.00,0.0159
2346.00,0.0159
2345.00,0.0160
2344.00,0.0160
2343.00,0.0160
2342.00,0.0160
2341.00,0.0159
2340.00,0.0159
2339.00,0.0158
2338.00,0.0158
2337.00,0.0158
2336.00,0.0157
2335.00,0.0157
2334.00,0.0157
2333.00,0.0157
2332.00,0.0157
2331.00,0.0157
2330.00,0.0158
2329.00,0.0160
2328.00,0.0162
2327.00,0.0164
2326.00,0.0165
2325.00,0.0165
2324.00,0.0165
2323.00,0.0164
2322.00,0.0164
2321.00,0.0163
2320.00,0.0163
2319.00,0.0163
2318.00,0.0164
2317.00,0.0165
2316.00,0.0165
2315.00,0.0165
2314.00,0.0165
2313.00,0.0165
2312.00,0.0165
2311.00,0.0165
2310.00,0.0165
2309.00,0.0166
2308.00,0.0166
2307.00,0.0167
2306.00,0.0167
2305.00,0.0167
2304.00,0.0167
2303.00,0.0167
2302.00,0.0167
2301.00,0.0167
2300.00,0.0167
2299.00,0.0167
2298.00,0.0167
2297.00,0.0167
2296.00,0.0168
2295.00,0.0168
2294.00,0.0169
2293.00,0.0169
2292.00,0.0170
2291.00,0.0170
2290.00,0.0171
2289.00,0.0171
2288.00,0.0171
2287.00,0.0171
2286.00,0.0171
2285.00,0.0170
2284.00,0.0170
2283.00,0.0169
2282.00,0.0169
2281.00,0.0169
2280.00,0.0169
2279.00,0.0169
2278.00,0.0169
2277.00,0.0169
2276.00,0.0168
2275.00,0.0168
2274.00,0.0168
2273.00,0.0167
2272.00,0.0167
2271.00,0.0167
2270.00,0.0167
2269.00,0.0168
2268.00,0.0167
2267.00,0.0167
2266.00,0.0167
2265.00,0.0168
2264.00,0.0168
2263.00,0.0168
2262.00,0.0168
2261.00,0.0169
2260.00,0.0169
2259.00,0.0169
2258.00,0.0169
2257.00,0.0168
2256.00,0.0167
2255.00,0.0167
2254.00,0.0167
2253.00,0.0167
2252.00,0.0168
2251.00,0.0168
2250.00,0.0167
2249.00,0.0167
2248.00,0.0166
2247.00,0.0166
2246.00,0.0167
2245.00,0.0167
2244.00,0.0168
2243.00,0.0168
2242.00,0.0168
2241.00,0.0168
2240.00,0.0168
2239.00,0.0168
2238.00,0.0168
2237.00,0.0167
2236.00,0.0167
2235.00,0.0168
2234.00,0.0168
2233.00,0.0169
2232.00,0.0169
2231.00,0.0169
2230.00,0.0168
2229.00,0.0168
2228.00,0.0167
2227.00,0.0166
2226.00,0.0166
2225.00,0.0166
2224.00,0.0167
2223.00,0.0168
2222.00,0.0169
2221.00,0.0169
2220.00,0.0169
2219.00,0.0168
2218.00,0.0167
2217.00,0.0167
2216.00,0.0167
2215.00,0.0168
2214.00,0.0169
2213.00,0.0170
2212.00,0.0170
2211.00,0.0169
2210.00,0.0168
2209.00,0.0167
2208.00,0.0166
2207.00,0.0166
2206.00,0.0166
2205.00,0.0166
2204.00,0.0166
2203.00,0.0167
2202.00,0.0168
2201.00,0.0170
2200.00,0.0171
2199.00,0.0172
2198.00,0.0173
2197.00,0.0172
2196.00,0.0171
2195.00,0.0170
2194.00,0.0170
2193.00,0.0169
2192.00,0.0168
2191.00,0.0167
2190.00,0.0167
2189.00,0.0168
2188.00,0.0170
2187.00,0.0171
2186.00,0.0172
2185.00,0.0171
2184.00,0.0169
2183.00,0.0168
2182.00,0.0167
2181.00,0.0167
2180.00,0.0167
2179.00,0.0166
2178.00,0.0165
2177.00,0.0164
2176.00,0.0163
2175.00,0.0165
2174.00,0.0167
2173.00,0.0170
2172.00,0.0171
2171.00,0.0173
2170.00,0.0175
2169.00,0.0176
2168.00,0.0176
2167.00,0.0174
2166.00,0.0173
2165.00,0.0173
2164.00,0.0174
2163.00,0.0174
2162.00,0.0172
2161.00,0.0168
2160.00,0.0162
2159.00,0.0158
2158.00,0.0157
2157.00,0.0158
2156.00,0.0158
2155.00,0.0158
2154.00,0.0157
2153.00,0.0157
2152.00,0.0157
2151.00,0.0157
2150.00,0.0156
2149.00,0.0156
2148.00,0.0155
2147.00,0.0156
2146.00,0.0157
2145.00,0.0158
2144.00,0.0159
2143.00,0.0159
2142.00,0.0159
2141.00,0.0158
2140.00,0.0157
2139.00,0.0157
2138.00,0.0156
2137.00,0.0155
2136.00,0.0153
2135.00,0.0152
2134.00,0.0151
2133.00,0.0151
2132.00,0.0151
2131.00,0.0151
2130.00,0.0152
2129.00,0.0152
2128.00,0.0153
2127.00,0.0153
2126.00,0.0153
2125.00,0.0153
2124.00,0.0153
2123.00,0.0153
2122.00,0.0152
2121.00,0.0153
2120.00,0.0154
2119.00,0.0155
2118.00,0.0156
2117.00,0.0157
2116.00,0.0157
2115.00,0.0157
2114.00,0.0158
2113.00,0.0158
2112.00,0.0159
2111.00,0.0159
2110.00,0.0158
2109.00,0.0157
2108.00,0.0156
2107.00,0.0155
2106.00,0.0156
2105.00,0.0156
2104.00,0.0156
2103.00,0.0157
2102.00,0.0157
2101.00,0.0157
2100.00,0.0156
2099.00,0.0155
2098.00,0.0154
2097.00,0.0153
2096.00,0.0153
2095.00,0.0153
2094.00,0.0153
2093.00,0.0154
2092.00,0.0154
2091.00,0.0154
2090.00,0.0154
2089.00,0.0154
2088.00,0.0154
2087.00,0.0153
2086.00,0.0153
2085.00,0.0153
2084.00,0.0153
2083.00,0.0152
2082.00,0.0152
2081.00,0.0152
2080.00,0.0152
2079.00,0.0153
2078.00,0.0153
2077.00,0.0154
2076.00,0.0154
2075.00,0.0154
2074.00,0.0153
2073.00,0.0153
2072.00,0.0153
2071.00,0.0153
2070.00,0.0153
2069.00,0.0153
2068.00,0.0153
2067.00,0.0153
2066.00,0.0152
2065.00,0.0152
2064.00,0.0152
2063.00,0.0151
2062.00,0.0151
2061.00,0.0151
2060.00,0.0151
2059.00,0.0151
2058.00,0.0152
2057.00,0.0152
2056.00,0.0152
2055.00,0.0153
2054.00,0.0153
2053.00,0.0155
2052.00,0.0156
2051.00,0.0156
2050.00,0.0156
2049.00,0.0155
2048.00,0.0153
2047.00,0.0153
2046.00,0.0153
2045.00,0.0155
2044.00,0.0155
2043.00,0.0155
2042.00,0.0155
2041.00,0.0155
2040.00,0.0155
2039.00,0.0156
2038.00,0.0158
2037.00,0.0159
2036.00,0.0160
2035.00,0.0159
2034.00,0.0157
2033.00,0.0155
2032.00,0.0154
2031.00,0.0154
2030.00,0.0153
2029.00,0.0153
2028.00,0.0153
2027.00,0.0152
2026.00,0.0152
2025.00,0.0152
2024.00,0.0152
2023.00,0.0152
2022.00,0.0153
2021.00,0.0155
2020.00,0.0156
2019.00,0.0156
2018.00,0.0155
2017.00,0.0153
2016.00,0.0151
2015.00,0.0149
2014.00,0.0149
2013.00,0.0149
2012.00,0.0150
2011.00,0.0151
2010.00,0.0151
2009.00,0.0151
2008.00,0.0151
2007.00,0.0149
2006.00,0.0148
2005.00,0.0146
2004.00,0.0146
2003.00,0.0146
2002.00,0.0147
2001.00,0.0150
2000.00,0.0152
1999.00,0.0154
1998.00,0.0154
1997.00,0.0154
1996.00,0.0153
1995.00,0.0153
1994.00,0.0152
1993.00,0.0152
1992.00,0.0152
1991.00,0.0152
1990.00,0.0152
1989.00,0.0151
1988.00,0.0150
1987.00,0.0149
1986.00,0.0150
1985.00,0.0152
1984.00,0.0154
1983.00,0.0156
1982.00,0.0156
1981.00,0.0157
1980.00,0.0157
1979.00,0.0157
1978.00,0.0155
1977.00,0.0153
1976.00,0.0151
1975.00,0.0149
1974.00,0.0149
1973.00,0.0148
1972.00,0.0147
1971.00,0.0145
1970.00,0.0144
1969.00,0.0143
1968.00,0.0143
1967.00,0.0143
1966.00,0.0145
1965.00,0.0147
1964.00,0.0149
1963.00,0.0150
1962.00,0.0148
1961.00,0.0146
1960.00,0.0144
1959.00,0.0142
1958.00,0.0141
1957.00,0.0141
1956.00,0.0141
1955.00,0.0140
1954.00,0.0140
1953.00,0.0140
1952.00,0.0140
1951.00,0.0139
1950.00,0.0139
1949.00,0.0139
1948.00,0.0139
1947.00,0.0140
1946.00,0.0141
1945.00,0.0141
1944.00,0.0141
1943.00,0.0141
1942.00,0.0140
1941.00,0.0140
1940.00,0.0140
1939.00,0.0140
1938.00,0.0140
1937.00,0.0140
1936.00,0.0140
1935.00,0.0140
1934.00,0.0140
1933.00,0.0139
1932.00,0.0139
1931.00,0.0138
1930.00,0.0138
1929.00,0.0138
1928.00,0.0138
1927.00,0.0138
1926.00,0.0139
1925.00,0.0139
1924.00,0.0138
1923.00,0.0137
1922.00,0.0137
1921.00,0.0138
1920.00,0.0138
1919.00,0.0137
1918.00,0.0136
1917.00,0.0135
1916.00,0.0135
1915.00,0.0136
1914.00,0.0136
1913.00,0.0136
1912.00,0.0136
1911.00,0.0135
1910.00,0.0134
1909.00,0.0134
1908.00,0.0133
1907.00,0.0133
1906.00,0.0134
1905.00,0.0134
1904.00,0.0133
1903.00,0.0133
1902.00,0.0132
1901.00,0.0132
1900.00,0.0132
1899.00,0.0132
1898.00,0.0133
1897.00,0.0133
1896.00,0.0132
1895.00,0.0131
1894.00,0.0131
1893.00,0.0131
1892.00,0.0131
1891.00,0.0131
1890.00,0.0130
1889.00,0.0130
1888.00,0.0130
1887.00,0.0130
1886.00,0.0130
1885.00,0.0130
1884.00,0.0130
1883.00,0.0129
1882.00,0.0129
1881.00,0.0128
1880.00,0.0128
1879.00,0.0127
1878.00,0.0127
1877.00,0.0128
1876.00,0.0128
1875.00,0.0128
1874.00,0.0128
1873.00,0.0128
1872.00,0.0128
1871.00,0.0128
1870.00,0.0128
1869.00,0.0126
1868.00,0.0124
1867.00,0.0124
1866.00,0.0124
1865.00,0.0125
1864.00,0.0126
1863.00,0.0125
1862.00,0.0125
1861.00,0.0124
1860.00,0.0123
1859.00,0.0123
1858.00,0.0123
1857.00,0.0123
1856.00,0.0123
1855.00,0.0123
1854.00,0.0123
1853.00,0.0122
1852.00,0.0122
1851.00,0.0122
1850.00,0.0122
1849.00,0.0122
1848.00,0.0122
1847.00,0.0122
1846.00,0.0122
1845.00,0.0121
1844.00,0.0119
1843.00,0.0117
1842.00,0.0117
1841.00,0.0118
1840.00,0.0118
1839.00,0.0118
1838.00,0.0118
1837.00,0.0117
1836.00,0.0117
1835.00,0.0117
1834.00,0.0118
1833.00,0.0118
1832.00,0.0119
1831.00,0.0118
1830.00,0.0116
1829.00,0.0114
1828.00,0.0114
1827.00,0.0114
1826.00,0.0114
1825.00,0.0113
1824.00,0.0112
1823.00,0.0112
1822.00,0.0113
1821.00,0.0113
1820.00,0.0113
1819.00,0.0113
1818.00,0.0112
1817.00,0.0111
1816.00,0.0111
1815.00,0.0110
1814.00,0.0110
1813.00,0.0111
1812.00,0.0110
1811.00,0.0109
1810.00,0.0109
1809.00,0.0109
1808.00,0.0109
1807.00,0.0109
1806.00,0.0109
1805.00,0.0109
1804.00,0.0109
1803.00,0.0109
1802.00,0.0109
1801.00,0.0109
1800.00,0.0109
1799.00,0.0108
1798.00,0.0109
1797.00,0.0109
1796.00,0.0110
1795.00,0.0111
1794.00,0.0112
1793.00,0.0112
1792.00,0.0110
1791.00,0.0107
1790.00,0.0107
1789.00,0.0107
1788.00,0.0109
1787.00,0.0109
1786.00,0.0110
1785.00,0.0110
1784.00,0.0111
1783.00,0.0111
1782.00,0.0111
1781.00,0.0111
1780.00,0.0111
1779.00,0.0111
1778.00,0.0113
1777.00,0.0114
1776.00,0.0116
1775.00,0.0117
1774.00,0.0118
1773.00,0.0118
1772.00,0.0117
1771.00,0.0116
1770.00,0.0117
1769.00,0.0118
1768.00,0.0119
1767.00,0.0119
1766.00,0.0120
1765.00,0.0121
1764.00,0.0122
1763.00,0.0122
1762.00,0.0121
1761.00,0.0121
1760.00,0.0122
1759.00,0.0123
1758.00,0.0124
1757.00,0.0124
1756.00,0.0124
1755.00,0.0125
1754.00,0.0126
1753.00,0.0128
1752.00,0.0129
1751.00,0.0130
1750.00,0.0130
1749.00,0.0129
1748.00,0.0129
1747.00,0.0129
1746.00,0.0131
1745.00,0.0132
1744.00,0.0133
1743.00,0.0135
1742.00,0.0136
1741.00,0.0138
1740.00,0.0140
1739.00,0.0141
1738.00,0.0143
1737.00,0.0146
1736.00,0.0149
1735.00,0.0152
1734.00,0.0153
1733.00,0.0152
1732.00,0.0152
1731.00,0.0152
1730.00,0.0153
1729.00,0.0155
1728.00,0.0157
1727.00,0.0160
1726.00,0.0162
1725.00,0.0164
1724.00,0.0165
1723.00,0.0167
1722.00,0.0168
1721.00,0.0170
1720.00,0.0171
1719.00,0.0172
1718.00,0.0173
1717.00,0.0175
1716.00,0.0175
1715.00,0.0175
1714.00,0.0176
1713.00,0.0177
1712.00,0.0179
1711.00,0.0180
1710.00,0.0182
1709.00,0.0183
1708.00,0.0185
1707.00,0.0186
1706.00,0.0186
1705.00,0.0187
1704.00,0.0188
1703.00,0.0190
1702.00,0.0191
1701.00,0.0194
1700.00,0.0197
1699.00,0.0199
1698.00,0.0200
1697.00,0.0200
1696.00,0.0200
1695.00,0.0200
1694.00,0.0201
1693.00,0.0203
1692.00,0.0204
1691.00,0.0205
1690.00,0.0206
1689.00,0.0208
1688.00,0.0210
1687.00,0.0210
1686.00,0.0211
1685.00,0.0211
1684.00,0.0212
1683.00,0.0213
1682.00,0.0215
1681.00,0.0218
1680.00,0.0219
1679.00,0.0221
1678.00,0.0223
1677.00,0.0224
1676.00,0.0227
1675.00,0.0229
1674.00,0.0231
1673.00,0.0233
1672.00,0.0234
1671.00,0.0235
1670.00,0.0237
1669.00,0.0238
1668.00,0.0239
1667.00,0.0241
1666.00,0.0243
1665.00,0.0244
1664.00,0.0246
1663.00,0.0248
1662.00,0.0249
1661.00,0.0251
1660.00,0.0252
1659.00,0.0254
1658.00,0.0255
1657.00,0.0256
1656.00,0.0256
1655.00,0.0256
1654.00,0.0258
1653.00,0.0261
1652.00,0.0263
1651.00,0.0265
1650.00,0.0266
1649.00,0.0267
1648.00,0.0269
1647.00,0.0272
1646.00,0.0274
1645.00,0.0275
1644.00,0.0276
1643.00,0.0277
1642.00,0.0278
1641.00,0.0278
1640.00,0.0279
1639.00,0.0280
1638.00,0.0280
1637.00,0.0282
1636.00,0.0284
1635.00,0.0285
1634.00,0.0287
1633.00,0.0289
1632.00,0.0289
1631.00,0.0290
1630.00,0.0290
1629.00,0.0291
1628.00,0.0292
1627.00,0.0293
1626.00,0.0294
1625.00,0.0295
1624.00,0.0297
1623.00,0.0299
1622.00,0.0300
1621.00,0.0300
1620.00,0.0300
1619.00,0.0300
1618.00,0.0301
1617.00,0.0303
1616.00,0.0304
1615.00,0.0305
1614.00,0.0305
1613.00,0.0305
1612.00,0.0305
1611.00,0.0306
1610.00,0.0307
1609.00,0.0308
1608.00,0.0308
1607.00,0.0309
1606.00,0.0310
1605.00,0.0309
1604.00,0.0309
1603.00,0.0310
1602.00,0.0310
1601.00,0.0310
1600.00,0.0311
1599.00,0.0311
1598.00,0.0312
1597.00,0.0312
1596.00,0.0312
1595.00,0.0312
1594.00,0.0312
1593.00,0.0312
1592.00,0.0312
1591.00,0.0312
1590.00,0.0312
1589.00,0.0312
1588.00,0.0312
1587.00,0.0313
1586.00,0.0313
1585.00,0.0312
1584.00,0.0312
1583.00,0.0312
1582.00,0.0313
1581.00,0.0312
1580.00,0.0312
1579.00,0.0311
1578.00,0.0311
1577.00,0.0312
1576.00,0.0313
1575.00,0.0313
1574.00,0.0313
1573.00,0.0311
1572.00,0.0310
1571.00,0.0309
1570.00,0.0309
1569.00,0.0310
1568.00,0.0310
1567.00,0.0310
1566.00,0.0309
1565.00,0.0308
1564.00,0.0307
1563.00,0.0306
1562.00,0.0304
1561.00,0.0300
1560.00,0.0300
1559.00,0.0304
1558.00,0.0304
1557.00,0.0305
1556.00,0.0305
1555.00,0.0303
1554.00,0.0302
1553.00,0.0300
1552.00,0.0299
1551.00,0.0297
1550.00,0.0297
1549.00,0.0296
1548.00,0.0295
1547.00,0.0295
1546.00,0.0293
1545.00,0.0292
1544.00,0.0291
1543.00,0.0290
1542.00,0.0289
1541.00,0.0288
1540.00,0.0284
1539.00,0.0280
1538.00,0.0280
1537.00,0.0281
1536.00,0.0280
1535.00,0.0280
1534.00,0.0280
1533.00,0.0280
1532.00,0.0280
1531.00,0.0280
1530.00,0.0279
1529.00,0.0279
1528.00,0.0279
1527.00,0.0278
1526.00,0.0278
1525.00,0.0278
1524.00,0.0278
1523.00,0.0276
1522.00,0.0275
1521.00,0.0274
1520.00,0.0272
1519.00,0.0270
1518.00,0.0268
1517.00,0.0267
1516.00,0.0266
1515.00,0.0266
1514.00,0.0266
1513.00,0.0266
1512.00,0.0266
1511.00,0.0265
1510.00,0.0263
1509.00,0.0262
1508.00,0.0261
1507.00,0.0259
1506.00,0.0256
1505.00,0.0256
1504.00,0.0257
1503.00,0.0256
1502.00,0.0254
1501.00,0.0253
1500.00,0.0253
1499.00,0.0253
1498.00,0.0252
1497.00,0.0251
1496.00,0.0250
1495.00,0.0250
1494.00,0.0250
1493.00,0.0251
1492.00,0.0251
1491.00,0.0251
1490.00,0.0250
1489.00,0.0248
1488.00,0.0247
1487.00,0.0246
1486.00,0.0245
1485.00,0.0246
1484.00,0.0246
1483.00,0.0246
1482.00,0.0246
1481.00,0.0246
1480.00,0.0246
1479.00,0.0247
1478.00,0.0247
1477.00,0.0247
1476.00,0.0248
1475.00,0.0249
1474.00,0.0251
1473.00,0.0252
1472.00,0.0251
1471.00,0.0250
1470.00,0.0249
1469.00,0.0249
1468.00,0.0249
1467.00,0.0249
1466.00,0.0249
1465.00,0.0250
1464.00,0.0251
1463.00,0.0251
1462.00,0.0251
1461.00,0.0251
1460.00,0.0251
1459.00,0.0252
1458.00,0.0253
1457.00,0.0254
1456.00,0.0255
1455.00,0.0255
1454.00,0.0255
1453.00,0.0255
1452.00,0.0256
1451.00,0.0257
1450.00,0.0258
1449.00,0.0258
1448.00,0.0259
1447.00,0.0259
1446.00,0.0259
1445.00,0.0259
1444.00,0.0259
1443.00,0.0260
1442.00,0.0260
1441.00,0.0261
1440.00,0.0261
1439.00,0.0261
1438.00,0.0262
1437.00,0.0263
1436.00,0.0264
1435.00,0.0264
1434.00,0.0264
1433.00,0.0265
1432.00,0.0265
1431.00,0.0266
1430.00,0.0266
1429.00,0.0266
1428.00,0.0267
1427.00,0.0267
1426.00,0.0267
1425.00,0.0268
1424.00,0.0268
1423.00,0.0268
1422.00,0.0268
1421.00,0.0268
1420.00,0.0269
1419.00,0.0270
1418.00,0.0270
1417.00,0.0270
1416.00,0.0271
1415.00,0.0271
1414.00,0.0272
1413.00,0.0272
1412.00,0.0272
1411.00,0.0272
1410.00,0.0273
1409.00,0.0273
1408.00,0.0273
1407.00,0.0273
1406.00,0.0273
1405.00,0.0273
1404.00,0.0274
1403.00,0.0275
1402.00,0.0275
1401.00,0.0275
1400.00,0.0276
1399.00,0.0277
1398.00,0.0278
1397.00,0.0278
1396.00,0.0278
1395.00,0.0279
1394.00,0.0279
1393.00,0.0279
1392.00,0.0280
1391.00,0.0280
1390.00,0.0280
1389.00,0.0281
1388.00,0.0281
1387.00,0.0282
1386.00,0.0282
1385.00,0.0282
1384.00,0.0282
1383.00,0.0283
1382.00,0.0283
1381.00,0.0283
1380.00,0.0283
1379.00,0.0283
1378.00,0.0283
1377.00,0.0283
1376.00,0.0283
1375.00,0.0283
1374.00,0.0283
1373.00,0.0283
1372.00,0.0283
1371.00,0.0283
1370.00,0.0283
1369.00,0.0282
1368.00,0.0282
1367.00,0.0282
1366.00,0.0282
1365.00,0.0281
1364.00,0.0281
1363.00,0.0280
1362.00,0.0280
1361.00,0.0280
1360.00,0.0280
1359.00,0.0279
1358.00,0.0279
1357.00,0.0279
1356.00,0.0279
1355.00,0.0279
1354.00,0.0278
1353.00,0.0278
1352.00,0.0278
1351.00,0.0277
1350.00,0.0277
1349.00,0.0277
1348.00,0.0277
1347.00,0.0276
1346.00,0.0276
1345.00,0.0276
1344.00,0.0276
1343.00,0.0276
1342.00,0.0276
1341.00,0.0275
1340.00,0.0275
1339.00,0.0275
1338.00,0.0274
1337.00,0.0274
1336.00,0.0274
1335.00,0.0274
1334.00,0.0274
1333.00,0.0273
1332.00,0.0273
1331.00,0.0273
1330.00,0.0273
1329.00,0.0273
1328.00,0.0273
1327.00,0.0273
1326.00,0.0272
1325.00,0.0272
1324.00,0.0272
1323.00,0.0273
1322.00,0.0273
1321.00,0.0273
1320.00,0.0273
1319.00,0.0273
1318.00,0.0273
1317.00,0.0273
1316.00,0.0273
1315.00,0.0274
1314.00,0.0273
1313.00,0.0273
1312.00,0.0273
1311.00,0.0273
1310.00,0.0273
1309.00,0.0273
1308.00,0.0274
1307.00,0.0274
1306.00,0.0274
1305.00,0.0274
1304.00,0.0274
1303.00,0.0274
1302.00,0.0274
1301.00,0.0274
1300.00,0.0274
1299.00,0.0274
1298.00,0.0274
1297.00,0.0275
1296.00,0.0275
1295.00,0.0275
1294.00,0.0276
1293.00,0.0276
1292.00,0.0276
1291.00,0.0276
1290.00,0.0276
1289.00,0.0276
1288.00,0.0277
1287.00,0.0277
1286.00,0.0277
1285.00,0.0277
1284.00,0.0278
1283.00,0.0278
1282.00,0.0279
1281.00,0.0279
1280.00,0.0280
1279.00,0.0280
1278.00,0.0281
1277.00,0.0282
1276.00,0.0282
1275.00,0.0283
1274.00,0.0284
1273.00,0.0284
1272.00,0.0285
1271.00,0.0285
1270.00,0.0286
1269.00,0.0288
1268.00,0.0289
1267.00,0.0290
1266.00,0.0290
1265.00,0.0291
1264.00,0.0291
1263.00,0.0292
1262.00,0.0293
1261.00,0.0295
1260.00,0.0297
1259.00,0.0298
1258.00,0.0300
1257.00,0.0302
1256.00,0.0303
1255.00,0.0304
1254.00,0.0305
1253.00,0.0306
1252.00,0.0307
1251.00,0.0309
1250.00,0.0310
1249.00,0.0312
1248.00,0.0314
1247.00,0.0316
1246.00,0.0318
1245.00,0.0318
1244.00,0.0320
1243.00,0.0321
1242.00,0.0322
1241.00,0.0324
1240.00,0.0325
1239.00,0.0326
1238.00,0.0327
1237.00,0.0328
1236.00,0.0330
1235.00,0.0331
1234.00,0.0332
1233.00,0.0333
1232.00,0.0334
1231.00,0.0335
1230.00,0.0336
1229.00,0.0337
1228.00,0.0338
1227.00,0.0339
1226.00,0.0339
1225.00,0.0340
1224.00,0.0341
1223.00,0.0342
1222.00,0.0343
1221.00,0.0344
1220.00,0.0345
1219.00,0.0346
1218.00,0.0346
1217.00,0.0346
1216.00,0.0347
1215.00,0.0348
1214.00,0.0350
1213.00,0.0351
1212.00,0.0352
1211.00,0.0353
1210.00,0.0354
1209.00,0.0356
1208.00,0.0357
1207.00,0.0359
1206.00,0.0360
1205.00,0.0361
1204.00,0.0362
1203.00,0.0363
1202.00,0.0363
1201.00,0.0364
1200.00,0.0366
1199.00,0.0367
1198.00,0.0368
1197.00,0.0369
1196.00,0.0371
1195.00,0.0372
1194.00,0.0373
1193.00,0.0374
1192.00,0.0375
1191.00,0.0376
1190.00,0.0377
1189.00,0.0377
1188.00,0.0378
1187.00,0.0380
1186.00,0.0381
1185.00,0.0383
1184.00,0.0385
1183.00,0.0387
1182.00,0.0388
1181.00,0.0389
1180.00,0.0391
1179.00,0.0393
1178.00,0.0395
1177.00,0.0397
1176.00,0.0399
1175.00,0.0401
1174.00,0.0402
1173.00,0.0403
1172.00,0.0404
1171.00,0.0405
1170.00,0.0407
1169.00,0.0409
1168.00,0.0411
1167.00,0.0413
1166.00,0.0415
1165.00,0.0416
1164.00,0.0417
1163.00,0.0418
1162.00,0.0418
1161.00,0.0419
1160.00,0.0419
1159.00,0.0419
1158.00,0.0420
1157.00,0.0421
1156.00,0.0422
1155.00,0.0423
1154.00,0.0424
1153.00,0.0425
1152.00,0.0427
1151.00,0.0428
1150.00,0.0431
1149.00,0.0433
1148.00,0.0436
1147.00,0.0438
1146.00,0.0441
1145.00,0.0443
1144.00,0.0445
1143.00,0.0447
1142.00,0.0449
1141.00,0.0451
1140.00,0.0454
1139.00,0.0457
1138.00,0.0460
1137.00,0.0463
1136.00,0.0467
1135.00,0.0471
1134.00,0.0475
1133.00,0.0479
1132.00,0.0483
1131.00,0.0487
1130.00,0.0491
1129.00,0.0495
1128.00,0.0501
1127.00,0.0507
1126.00,0.0513
1125.00,0.0521
1124.00,0.0531
1123.00,0.0541
1122.00,0.0551
1121.00,0.0561
1120.00,0.0571
1119.00,0.0580
1118.00,0.0588
1117.00,0.0594
1116.00,0.0600
1115.00,0.0603
1114.00,0.0604
1113.00,0.0604
1112.00,0.0605
1111.00,0.0607
1110.00,0.0610
1109.00,0.0613
1108.00,0.0618
1107.00,0.0623
1106.00,0.0628
1105.00,0.0632
1104.00,0.0637
1103.00,0.0641
1102.00,0.0645
1101.00,0.0650
1100.00,0.0653
1099.00,0.0657
1098.00,0.0660
1097.00,0.0663
1096.00,0.0667
1095.00,0.0671
1094.00,0.0674
1093.00,0.0677
1092.00,0.0680
1091.00,0.0682
1090.00,0.0684
1089.00,0.0686
1088.00,0.0688
1087.00,0.0690
1086.00,0.0692
1085.00,0.0694
1084.00,0.0697
1083.00,0.0699
1082.00,0.0701
1081.00,0.0702
1080.00,0.0704
1079.00,0.0706
1078.00,0.0707
1077.00,0.0709
1076.00,0.0712
1075.00,0.0715
1074.00,0.0718
1073.00,0.0721
1072.00,0.0725
1071.00,0.0728
1070.00,0.0731
1069.00,0.0735
1068.00,0.0739
1067.00,0.0743
1066.00,0.0747
1065.00,0.0751
1064.00,0.0756
1063.00,0.0761
1062.00,0.0766
1061.00,0.0771
1060.00,0.0777
1059.00,0.0782
1058.00,0.0787
1057.00,0.0792
1056.00,0.0798
1055.00,0.0803
1054.00,0.0809
1053.00,0.0816
1052.00,0.0824
1051.00,0.0833
1050.00,0.0841
1049.00,0.0849
1048.00,0.0857
1047.00,0.0864
1046.00,0.0872
1045.00,0.0880
1044.00,0.0888
1043.00,0.0898
1042.00,0.0907
1041.00,0.0918
1040.00,0.0928
1039.00,0.0938
1038.00,0.0948
1037.00,0.0958
1036.00,0.0967
1035.00,0.0974
1034.00,0.0979
1033.00,0.0982
1032.00,0.0983
1031.00,0.0983
1030.00,0.0980
1029.00,0.0974
1028.00,0.0967
1027.00,0.0958
1026.00,0.0948
1025.00,0.0939
1024.00,0.0931
1023.00,0.0925
1022.00,0.0920
1021.00,0.0916
1020.00,0.0914
1019.00,0.0913
1018.00,0.0913
1017.00,0.0915
1016.00,0.0918
1015.00,0.0921
1014.00,0.0926
1013.00,0.0931
1012.00,0.0937
1011.00,0.0943
1010.00,0.0948
1009.00,0.0953
1008.00,0.0957
1007.00,0.0960
1006.00,0.0960
1005.00,0.0959
1004.00,0.0957
1003.00,0.0954
1002.00,0.0949
1001.00,0.0943
1000.00,0.0935
999.00,0.0926
998.00,0.0915
997.00,0.0904
996.00,0.0893
995.00,0.0881
994.00,0.0868
993.00,0.0856
992.00,0.0845
991.00,0.0834
990.00,0.0823
989.00,0.0812
988.00,0.0802
987.00,0.0793
986.00,0.0784
985.00,0.0775
984.00,0.0767
983.00,0.0758
982.00,0.0750
981.00,0.0743
980.00,0.0736
979.00,0.0730
978.00,0.0723
977.00,0.0716
976.00,0.0710
975.00,0.0704
974.00,0.0698
973.00,0.0693
972.00,0.0688
971.00,0.0684
970.00,0.0680
969.00,0.0676
968.00,0.0672
967.00,0.0669
966.00,0.0665
965.00,0.0662
964.00,0.0658
963.00,0.0654
962.00,0.0650
961.00,0.0647
960.00,0.0644
959.00,0.0641
958.00,0.0639
957.00,0.0637
956.00,0.0637
955.00,0.0636
954.00,0.0635
953.00,0.0634
952.00,0.0633
951.00,0.0632
950.00,0.0633
949.00,0.0634
948.00,0.0637
947.00,0.0640
946.00,0.0643
945.00,0.0646
944.00,0.0650
943.00,0.0654
942.00,0.0658
941.00,0.0663
940.00,0.0666
939.00,0.0668
938.00,0.0669
937.00,0.0669
936.00,0.0669
935.00,0.0667
934.00,0.0664
933.00,0.0660
932.00,0.0656
931.00,0.0654
930.00,0.0651
929.00,0.0650
928.00,0.0649
927.00,0.0650
926.00,0.0652
925.00,0.0655
924.00,0.0658
923.00,0.0662
922.00,0.0666
921.00,0.0672
920.00,0.0678
919.00,0.0686
918.00,0.0696
917.00,0.0706
916.00,0.0715
915.00,0.0721
914.00,0.0723
913.00,0.0722
912.00,0.0718
911.00,0.0713
910.00,0.0707
909.00,0.0700
908.00,0.0692
907.00,0.0684
906.00,0.0676
905.00,0.0668
904.00,0.0659
903.00,0.0651
902.00,0.0643
901.00,0.0635
900.00,0.0628
899.00,0.0621
898.00,0.0613
897.00,0.0606
896.00,0.0598
895.00,0.0591
894.00,0.0585
893.00,0.0580
892.00,0.0576
891.00,0.0572
890.00,0.0567
889.00,0.0562
888.00,0.0557
887.00,0.0553
886.00,0.0549
885.00,0.0545
884.00,0.0541
883.00,0.0538
882.00,0.0535
881.00,0.0532
880.00,0.0530
879.00,0.0528
878.00,0.0527
877.00,0.0525
876.00,0.0523
875.00,0.0519
874.00,0.0516
873.00,0.0512
872.00,0.0509
871.00,0.0507
870.00,0.0504
869.00,0.0502
868.00,0.0499
867.00,0.0496
866.00,0.0492
865.00,0.0488
864.00,0.0486
863.00,0.0484
862.00,0.0483
861.00,0.0481
860.00,0.0479
859.00,0.0477
858.00,0.0474
857.00,0.0472
856.00,0.0471
855.00,0.0470
854.00,0.0469
853.00,0.0468
852.00,0.0468
851.00,0.0467
850.00,0.0467
849.00,0.0467
848.00,0.0466
847.00,0.0465
846.00,0.0465
845.00,0.0465
844.00,0.0466
843.00,0.0466
842.00,0.0465
841.00,0.0465
840.00,0.0466
839.00,0.0469
838.00,0.0472
837.00,0.0473
836.00,0.0473
835.00,0.0472
834.00,0.0471
833.00,0.0472
832.00,0.0474
831.00,0.0478
830.00,0.0481
829.00,0.0483
828.00,0.0484
827.00,0.0484
826.00,0.0484
825.00,0.0484
824.00,0.0486
823.00,0.0490
822.00,0.0493
821.00,0.0496
820.00,0.0496
819.00,0.0496
818.00,0.0497
817.00,0.0498
816.00,0.0501
815.00,0.0503
814.00,0.0505
813.00,0.0507
812.00,0.0510
811.00,0.0513
810.00,0.0517
809.00,0.0522
808.00,0.0528
807.00,0.0534
806.00,0.0541
805.00,0.0549
804.00,0.0559
803.00,0.0568
802.00,0.0576
801.00,0.0583
800.00,0.0589
799.00,0.0594
798.00,0.0599
797.00,0.0601
796.00,0.0601
795.00,0.0600
794.00,0.0596
793.00,0.0593
792.00,0.0591
791.00,0.0590
790.00,0.0591
789.00,0.0591
788.00,0.0590
787.00,0.0589
786.00,0.0587
785.00,0.0585
784.00,0.0584
783.00,0.0584
782.00,0.0585
781.00,0.0587
780.00,0.0589
779.00,0.0589
778.00,0.0587
777.00,0.0585
776.00,0.0582
775.00,0.0579
774.00,0.0575
773.00,0.0572
772.00,0.0569
771.00,0.0567
770.00,0.0566
769.00,0.0567
768.00,0.0569
767.00,0.0571
766.00,0.0571
765.00,0.0571
764.00,0.0570
763.00,0.0570
762.00,0.0571
761.00,0.0573
760.00,0.0576
759.00,0.0579
758.00,0.0581
757.00,0.0583
756.00,0.0585
755.00,0.0587
754.00,0.0588
753.00,0.0588
752.00,0.0587
751.00,0.0585
750.00,0.0584
749.00,0.0584
748.00,0.0584
747.00,0.0584
746.00,0.0583
745.00,0.0581
744.00,0.0579
743.00,0.0576
742.00,0.0573
741.00,0.0570
740.00,0.0568
739.00,0.0566
738.00,0.0563
737.00,0.0561
736.00,0.0559
735.00,0.0557
734.00,0.0555
733.00,0.0555
732.00,0.0556
731.00,0.0556
730.00,0.0555
729.00,0.0554
728.00,0.0553
727.00,0.0553
726.00,0.0552
725.00,0.0550
724.00,0.0548
723.00,0.0547
722.00,0.0548
721.00,0.0550
720.00,0.0552
719.00,0.0553
718.00,0.0553
717.00,0.0554
716.00,0.0554
715.00,0.0555
714.00,0.0557
713.00,0.0560
712.00,0.0564
711.00,0.0568
710.00,0.0572
709.00,0.0577
708.00,0.0583
707.00,0.0589
706.00,0.0596
705.00,0.0602
704.00,0.0608
703.00,0.0614
702.00,0.0620
701.00,0.0628
700.00,0.0637
699.00,0.0645
698.00,0.0651
697.00,0.0656
696.00,0.0661
695.00,0.0665
694.00,0.0669
693.00,0.0672
692.00,0.0672
691.00,0.0671
690.00,0.0669
689.00,0.0668
688.00,0.0668
687.00,0.0670
686.00,0.0671
685.00,0.0673
684.00,0.0674
683.00,0.0673
682.00,0.0671
681.00,0.0669
680.00,0.0668
679.00,0.0666
678.00,0.0664
677.00,0.0663
676.00,0.0663
675.00,0.0664
674.00,0.0664
673.00,0.0664
672.00,0.0663
671.00,0.0658
670.00,0.0649
669.00,0.0637
668.00,0.0630
667.00,0.0634
666.00,0.0644
665.00,0.0651
664.00,0.0655
663.00,0.0657
662.00,0.0657
661.00,0.0656
660.00,0.0655
659.00,0.0655
658.00,0.0655
657.00,0.0656
656.00,0.0656
655.00,0.0657
654.00,0.0660
653.00,0.0664
652.00,0.0668
651.00,0.0670
650.00,0.0669
