Created as New Dataset,Monday, April 03 2023
cm-1,A
4000.00,0.0053
3999.00,0.0053
3998.00,0.0053
3997.00,0.0053
3996.00,0.0053
3995.00,0.0053
3994.00,0.0052
3993.00,0.0052
3992.00,0.0052
3991.00,0.0052
3990.00,0.0052
3989.00,0.0052
3988.00,0.0052
3987.00,0.0052
3986.00,0.0052
3985.00,0.0052
3984.00,0.0052
3983.00,0.0052
3982.00,0.0052
3981.00,0.0052
3980.00,0.0052
3979.00,0.0052
3978.00,0.0052
3977.00,0.0052
3976.00,0.0052
3975.00,0.0052
3974.00,0.0052
3973.00,0.0052
3972.00,0.0052
3971.00,0.0052
3970.00,0.0052
3969.00,0.0051
3968.00,0.0051
3967.00,0.0051
3966.00,0.0052
3965.00,0.0052
3964.00,0.0052
3963.00,0.0052
3962.00,0.0052
3961.00,0.0052
3960.00,0.0051
3959.00,0.0051
3958.00,0.0051
3957.00,0.0051
3956.00,0.0051
3955.00,0.0051
3954.00,0.0051
3953.00,0.0051
3952.00,0.0051
3951.00,0.0051
3950.00,0.0051
3949.00,0.0051
3948.00,0.0051
3947.00,0.0052
3946.00,0.0052
3945.00,0.0052
3944.00,0.0051
3943.00,0.0050
3942.00,0.0050
3941.00,0.0050
3940.00,0.0050
3939.00,0.0050
3938.00,0.0051
3937.00,0.0051
3936.00,0.0052
3935.00,0.0052
3934.00,0.0052
3933.00,0.0052
3932.00,0.0052
3931.00,0.0051
3930.00,0.0050
3929.00,0.0050
3928.00,0.0050
3927.00,0.0049
3926.00,0.0049
3925.00,0.0049
3924.00,0.0049
3923.00,0.0049
3922.00,0.0050
3921.00,0.0050
3920.00,0.0050
3919.00,0.0050
3918.00,0.0050
3917.00,0.0050
3916.00,0.0049
3915.00,0.0049
3914.00,0.0049
3913.00,0.0049
3912.00,0.0049
3911.00,0.0049
3910.00,0.0049
3909.00,0.0050
3908.00,0.0051
3907.00,0.0051
3906.00,0.0051
3905.00,0.0051
3904.00,0.0051
3903.00,0.0052
3902.00,0.0052
3901.00,0.0051
3900.00,0.0050
3899.00,0.0049
3898.00,0.0049
3897.00,0.0050
3896.00,0.0051
3895.00,0.0051
3894.00,0.0050
3893.00,0.0049
3892.00,0.0048
3891.00,0.0048
3890.00,0.0049
3889.00,0.0050
3888.00,0.0050
3887.00,0.0051
3886.00,0.0051
3885.00,0.0051
3884.00,0.0051
3883.00,0.0050
3882.00,0.0048
3881.00,0.0046
3880.00,0.0046
3879.00,0.0047
3878.00,0.0049
3877.00,0.0049
3876.00,0.0050
3875.00,0.0049
3874.00,0.0049
3873.00,0.0050
3872.00,0.0049
3871.00,0.0048
3870.00,0.0047
3869.00,0.0047
3868.00,0.0049
3867.00,0.0050
3866.00,0.0050
3865.00,0.0049
3864.00,0.0048
3863.00,0.0048
3862.00,0.0048
3861.00,0.0049
3860.00,0.0050
3859.00,0.0050
3858.00,0.0050
3857.00,0.0050
3856.00,0.0051
3855.00,0.0052
3854.00,0.0051
3853.00,0.0050
3852.00,0.0050
3851.00,0.0049
3850.00,0.0049
3849.00,0.0049
3848.00,0.0049
3847.00,0.0049
3846.00,0.0049
3845.00,0.0049
3844.00,0.0049
3843.00,0.0049
3842.00,0.0049
3841.00,0.0050
3840.00,0.0050
3839.00,0.0049
3838.00,0.0048
3837.00,0.0047
3836.00,0.0047
3835.00,0.0046
3834.00,0.0046
3833.00,0.0046
3832.00,0.0046
3831.00,0.0047
3830.00,0.0048
3829.00,0.0048
3828.00,0.0048
3827.00,0.0047
3826.00,0.0047
3825.00,0.0048
3824.00,0.0049
3823.00,0.0049
3822.00,0.0049
3821.00,0.0048
3820.00,0.0048
3819.00,0.0049
3818.00,0.0049
3817.00,0.0048
3816.00,0.0047
3815.00,0.0047
3814.00,0.0047
3813.00,0.0047
3812.00,0.0047
3811.00,0.0046
3810.00,0.0046
3809.00,0.0046
3808.00,0.0046
3807.00,0.0047
3806.00,0.0048
3805.00,0.0049
3804.00,0.0050
3803.00,0.0049
3802.00,0.0048
3801.00,0.0048
3800.00,0.0047
3799.00,0.0047
3798.00,0.0046
3797.00,0.0045
3796.00,0.0044
3795.00,0.0044
3794.00,0.0045
3793.00,0.0045
3792.00,0.0045
3791.00,0.0045
3790.00,0.0045
3789.00,0.0045
3788.00,0.0046
3787.00,0.0046
3786.00,0.0045
3785.00,0.0045
3784.00,0.0045
3783.00,0.0045
3782.00,0.0045
3781.00,0.0045
3780.00,0.0044
3779.00,0.0044
3778.00,0.0044
3777.00,0.0044
3776.00,0.0045
3775.00,0.0046
3774.00,0.0046
3773.00,0.0046
3772.00,0.0047
3771.00,0.0047
3770.00,0.0047
3769.00,0.0047
3768.00,0.0047
3767.00,0.0046
3766.00,0.0046
3765.00,0.0046
3764.00,0.0047
3763.00,0.0048
3762.00,0.0048
3761.00,0.0048
3760.00,0.0048
3759.00,0.0047
3758.00,0.0047
3757.00,0.0047
3756.00,0.0048
3755.00,0.0050
3754.00,0.0052
3753.00,0.0054
3752.00,0.0055
3751.00,0.0055
3750.00,0.0055
3749.00,0.0055
3748.00,0.0054
3747.00,0.0052
3746.00,0.0050
3745.00,0.0050
3744.00,0.0051
3743.00,0.0053
3742.00,0.0054
3741.00,0.0055
3740.00,0.0055
3739.00,0.0056
3738.00,0.0057
3737.00,0.0057
3736.00,0.0057
3735.00,0.0055
3734.00,0.0053
3733.00,0.0053
3732.00,0.0053
3731.00,0.0055
3730.00,0.0056
3729.00,0.0057
3728.00,0.0059
3727.00,0.0060
3726.00,0.0060
3725.00,0.0061
3724.00,0.0061
3723.00,0.0061
3722.00,0.0062
3721.00,0.0064
3720.00,0.0065
3719.00,0.0067
3718.00,0.0069
3717.00,0.0072
3716.00,0.0076
3715.00,0.0079
3714.00,0.0084
3713.00,0.0089
3712.00,0.0094
3711.00,0.0099
3710.00,0.0103
3709.00,0.0108
3708.00,0.0113
3707.00,0.0118
3706.00,0.0123
3705.00,0.0128
3704.00,0.0133
3703.00,0.0139
3702.00,0.0146
3701.00,0.0154
3700.00,0.0160
3699.00,0.0166
3698.00,0.0170
3697.00,0.0173
3696.00,0.0175
3695.00,0.0176
3694.00,0.0176
3693.00,0.0176
3692.00,0.0175
3691.00,0.0173
3690.00,0.0171
3689.00,0.0170
3688.00,0.0168
3687.00,0.0166
3686.00,0.0163
3685.00,0.0159
3684.00,0.0155
3683.00,0.0151
3682.00,0.0148
3681.00,0.0145
3680.00,0.0142
3679.00,0.0139
3678.00,0.0137
3677.00,0.0136
3676.00,0.0136
3675.00,0.0138
3674.00,0.0140
3673.00,0.0141
3672.00,0.0141
3671.00,0.0141
3670.00,0.0141
3669.00,0.0142
3668.00,0.0143
3667.00,0.0144
3666.00,0.0145
3665.00,0.0145
3664.00,0.0147
3663.00,0.0149
3662.00,0.0151
3661.00,0.0153
3660.00,0.0156
3659.00,0.0159
3658.00,0.0163
3657.00,0.0168
3656.00,0.0173
3655.00,0.0177
3654.00,0.0179
3653.00,0.0179
3652.00,0.0180
3651.00,0.0183
3650.00,0.0187
3649.00,0.0188
3648.00,0.0187
3647.00,0.0186
3646.00,0.0185
3645.00,0.0183
3644.00,0.0180
3643.00,0.0178
3642.00,0.0176
3641.00,0.0174
3640.00,0.0173
3639.00,0.0172
3638.00,0.0170
3637.00,0.0169
3636.00,0.0168
3635.00,0.0168
3634.00,0.0168
3633.00,0.0169
3632.00,0.0169
3631.00,0.0171
3630.00,0.0175
3629.00,0.0181
3628.00,0.0189
3627.00,0.0196
3626.00,0.0202
3625.00,0.0209
3624.00,0.0216
3623.00,0.0224
3622.00,0.0230
3621.00,0.0234
3620.00,0.0234
3619.00,0.0230
3618.00,0.0223
3617.00,0.0215
3616.00,0.0207
3615.00,0.0199
3614.00,0.0193
3613.00,0.0188
3612.00,0.0185
3611.00,0.0184
3610.00,0.0182
3609.00,0.0180
3608.00,0.0177
3607.00,0.0175
3606.00,0.0174
3605.00,0.0173
3604.00,0.0172
3603.00,0.0171
3602.00,0.0169
3601.00,0.0168
3600.00,0.0167
3599.00,0.0166
3598.00,0.0165
3597.00,0.0165
3596.00,0.0165
3595.00,0.0165
3594.00,0.0165
3593.00,0.0165
3592.00,0.0165
3591.00,0.0165
3590.00,0.0164
3589.00,0.0163
3588.00,0.0162
3587.00,0.0162
3586.00,0.0162
3585.00,0.0162
3584.00,0.0162
3583.00,0.0162
3582.00,0.0162
3581.00,0.0161
3580.00,0.0161
3579.00,0.0161
3578.00,0.0161
3577.00,0.0161
3576.00,0.0162
3575.00,0.0162
3574.00,0.0162
3573.00,0.0162
3572.00,0.0162
3571.00,0.0162
3570.00,0.0162
3569.00,0.0162
3568.00,0.0163
3567.00,0.0164
3566.00,0.0164
3565.00,0.0164
3564.00,0.0164
3563.00,0.0164
3562.00,0.0163
3561.00,0.0163
3560.00,0.0163
3559.00,0.0163
3558.00,0.0163
3557.00,0.0164
3556.00,0.0164
3555.00,0.0164
3554.00,0.0165
3553.00,0.0165
3552.00,0.0165
3551.00,0.0166
3550.00,0.0166
3549.00,0.0166
3548.00,0.0167
3547.00,0.0168
3546.00,0.0168
3545.00,0.0169
3544.00,0.0169
3543.00,0.0169
3542.00,0.0168
3541.00,0.0168
3540.00,0.0168
3539.00,0.0168
3538.00,0.0169
3537.00,0.0169
3536.00,0.0169
3535.00,0.0170
3534.00,0.0170
3533.00,0.0171
3532.00,0.0171
3531.00,0.0171
3530.00,0.0171
3529.00,0.0171
3528.00,0.0172
3527.00,0.0173
3526.00,0.0174
3525.00,0.0174
3524.00,0.0174
3523.00,0.0174
3522.00,0.0174
3521.00,0.0174
3520.00,0.0174
3519.00,0.0174
3518.00,0.0174
3517.00,0.0174
3516.00,0.0175
3515.00,0.0175
3514.00,0.0175
3513.00,0.0175
3512.00,0.0175
3511.00,0.0176
3510.00,0.0176
3509.00,0.0177
3508.00,0.0178
3507.00,0.0178
3506.00,0.0178
3505.00,0.0178
3504.00,0.0179
3503.00,0.0179
3502.00,0.0180
3501.00,0.0180
3500.00,0.0180
3499.00,0.0180
3498.00,0.0181
3497.00,0.0181
3496.00,0.0182
3495.00,0.0182
3494.00,0.0182
3493.00,0.0182
3492.00,0.0182
3491.00,0.0182
3490.00,0.0182
3489.00,0.0182
3488.00,0.0182
3487.00,0.0182
3486.00,0.0183
3485.00,0.0184
3484.00,0.0184
3483.00,0.0185
3482.00,0.0185
3481.00,0.0185
3480.00,0.0185
3479.00,0.0185
3478.00,0.0185
3477.00,0.0185
3476.00,0.0186
3475.00,0.0186
3474.00,0.0187
3473.00,0.0188
3472.00,0.0188
3471.00,0.0188
3470.00,0.0188
3469.00,0.0188
3468.00,0.0189
3467.00,0.0189
3466.00,0.0189
3465.00,0.0190
3464.00,0.0190
3463.00,0.0190
3462.00,0.0190
3461.00,0.0191
3460.00,0.0191
3459.00,0.0191
3458.00,0.0191
3457.00,0.0191
3456.00,0.0191
3455.00,0.0191
3454.00,0.0191
3453.00,0.0192
3452.00,0.0193
3451.00,0.0193
3450.00,0.0194
3449.00,0.0194
3448.00,0.0194
3447.00,0.0194
3446.00,0.0194
3445.00,0.0194
3444.00,0.0195
3443.00,0.0195
3442.00,0.0195
3441.00,0.0196
3440.00,0.0196
3439.00,0.0196
3438.00,0.0196
3437.00,0.0197
3436.00,0.0197
3435.00,0.0198
3434.00,0.0198
3433.00,0.0198
3432.00,0.0197
3431.00,0.0197
3430.00,0.0198
3429.00,0.0198
3428.00,0.0198
3427.00,0.0198
3426.00,0.0198
3425.00,0.0198
3424.00,0.0198
3423.00,0.0198
3422.00,0.0198
3421.00,0.0199
3420.00,0.0199
3419.00,0.0199
3418.00,0.0199
3417.00,0.0199
3416.00,0.0200
3415.00,0.0200
3414.00,0.0199
3413.00,0.0199
3412.00,0.0199
3411.00,0.0199
3410.00,0.0198
3409.00,0.0199
3408.00,0.0199
3407.00,0.0199
3406.00,0.0200
3405.00,0.0200
3404.00,0.0201
3403.00,0.0201
3402.00,0.0201
3401.00,0.0201
3400.00,0.0200
3399.00,0.0200
3398.00,0.0199
3397.00,0.0199
3396.00,0.0200
3395.00,0.0200
3394.00,0.0201
3393.00,0.0201
3392.00,0.0202
3391.00,0.0202
3390.00,0.0202
3389.00,0.0202
3388.00,0.0202
3387.00,0.0202
3386.00,0.0202
3385.00,0.0202
3384.00,0.0201
3383.00,0.0201
3382.00,0.0201
3381.00,0.0201
3380.00,0.0202
3379.00,0.0202
3378.00,0.0203
3377.00,0.0203
3376.00,0.0203
3375.00,0.0203
3374.00,0.0203
3373.00,0.0203
3372.00,0.0203
3371.00,0.0202
3370.00,0.0202
3369.00,0.0201
3368.00,0.0202
3367.00,0.0202
3366.00,0.0203
3365.00,0.0203
3364.00,0.0204
3363.00,0.0204
3362.00,0.0204
3361.00,0.0204
3360.00,0.0203
3359.00,0.0203
3358.00,0.0203
3357.00,0.0203
3356.00,0.0203
3355.00,0.0203
3354.00,0.0203
3353.00,0.0203
3352.00,0.0203
3351.00,0.0203
3350.00,0.0204
3349.00,0.0204
3348.00,0.0203
3347.00,0.0203
3346.00,0.0202
3345.00,0.0202
3344.00,0.0202
3343.00,0.0202
3342.00,0.0202
3341.00,0.0202
3340.00,0.0203
3339.00,0.0203
3338.00,0.0203
3337.00,0.0203
3336.00,0.0203
3335.00,0.0203
3334.00,0.0203
3333.00,0.0203
3332.00,0.0203
3331.00,0.0203
3330.00,0.0203
3329.00,0.0203
3328.00,0.0203
3327.00,0.0203
3326.00,0.0203
3325.00,0.0202
3324.00,0.0202
3323.00,0.0202
3322.00,0.0201
3321.00,0.0202
3320.00,0.0202
3319.00,0.0202
3318.00,0.0202
3317.00,0.0202
3316.00,0.0202
3315.00,0.0202
3314.00,0.0202
3313.00,0.0202
3312.00,0.0202
3311.00,0.0202
3310.00,0.0202
3309.00,0.0202
3308.00,0.0202
3307.00,0.0201
3306.00,0.0201
3305.00,0.0201
3304.00,0.0201
3303.00,0.0201
3302.00,0.0201
3301.00,0.0201
3300.00,0.0202
3299.00,0.0202
3298.00,0.0202
3297.00,0.0202
3296.00,0.0202
3295.00,0.0201
3294.00,0.0201
3293.00,0.0201
3292.00,0.0201
3291.00,0.0201
3290.00,0.0201
3289.00,0.0201
3288.00,0.0200
3287.00,0.0200
3286.00,0.0200
3285.00,0.0200
3284.00,0.0200
3283.00,0.0200
3282.00,0.0200
3281.00,0.0200
3280.00,0.0200
3279.00,0.0200
3278.00,0.0200
3277.00,0.0200
3276.00,0.0200
3275.00,0.0200
3274.00,0.0200
3273.00,0.0200
3272.00,0.0200
3271.00,0.0200
3270.00,0.0200
3269.00,0.0200
3268.00,0.0200
3267.00,0.0200
3266.00,0.0200
3265.00,0.0200
3264.00,0.0199
3263.00,0.0199
3262.00,0.0199
3261.00,0.0199
3260.00,0.0199
3259.00,0.0199
3258.00,0.0198
3257.00,0.0198
3256.00,0.0199
3255.00,0.0199
3254.00,0.0199
3253.00,0.0199
3252.00,0.0199
3251.00,0.0199
3250.00,0.0199
3249.00,0.0199
3248.00,0.0199
3247.00,0.0199
3246.00,0.0199
3245.00,0.0199
3244.00,0.0198
3243.00,0.0198
3242.00,0.0198
3241.00,0.0198
3240.00,0.0198
3239.00,0.0198
3238.00,0.0198
3237.00,0.0198
3236.00,0.0198
3235.00,0.0198
3234.00,0.0198
3233.00,0.0198
3232.00,0.0198
3231.00,0.0198
3230.00,0.0198
3229.00,0.0198
3228.00,0.0198
3227.00,0.0197
3226.00,0.0197
3225.00,0.0197
3224.00,0.0197
3223.00,0.0197
3222.00,0.0197
3221.00,0.0196
3220.00,0.0196
3219.00,0.0196
3218.00,0.0196
3217.00,0.0196
3216.00,0.0196
3215.00,0.0195
3214.00,0.0195
3213.00,0.0195
3212.00,0.0195
3211.00,0.0195
3210.00,0.0195
3209.00,0.0195
3208.00,0.0195
3207.00,0.0195
3206.00,0.0195
3205.00,0.0195
3204.00,0.0195
3203.00,0.0194
3202.00,0.0194
3201.00,0.0194
3200.00,0.0194
3199.00,0.0194
3198.00,0.0194
3197.00,0.0194
3196.00,0.0194
3195.00,0.0194
3194.00,0.0193
3193.00,0.0193
3192.00,0.0193
3191.00,0.0193
3190.00,0.0193
3189.00,0.0193
3188.00,0.0193
3187.00,0.0193
3186.00,0.0193
3185.00,0.0192
3184.00,0.0192
3183.00,0.0192
3182.00,0.0191
3181.00,0.0191
3180.00,0.0191
3179.00,0.0191
3178.00,0.0190
3177.00,0.0190
3176.00,0.0190
3175.00,0.0190
3174.00,0.0190
3173.00,0.0190
3172.00,0.0191
3171.00,0.0191
3170.00,0.0190
3169.00,0.0189
3168.00,0.0189
3167.00,0.0188
3166.00,0.0188
3165.00,0.0188
3164.00,0.0188
3163.00,0.0188
3162.00,0.0188
3161.00,0.0188
3160.00,0.0188
3159.00,0.0188
3158.00,0.0187
3157.00,0.0187
3156.00,0.0186
3155.00,0.0186
3154.00,0.0186
3153.00,0.0186
3152.00,0.0185
3151.00,0.0185
3150.00,0.0185
3149.00,0.0185
3148.00,0.0186
3147.00,0.0185
3146.00,0.0185
3145.00,0.0185
3144.00,0.0185
3143.00,0.0184
3142.00,0.0184
3141.00,0.0184
3140.00,0.0184
3139.00,0.0185
3138.00,0.0184
3137.00,0.0184
3136.00,0.0184
3135.00,0.0183
3134.00,0.0183
3133.00,0.0183
3132.00,0.0183
3131.00,0.0183
3130.00,0.0183
3129.00,0.0183
3128.00,0.0182
3127.00,0.0182
3126.00,0.0182
3125.00,0.0181
3124.00,0.0181
3123.00,0.0181
3122.00,0.0181
3121.00,0.0181
3120.00,0.0181
3119.00,0.0181
3118.00,0.0181
3117.00,0.0181
3116.00,0.0180
3115.00,0.0180
3114.00,0.0180
3113.00,0.0180
3112.00,0.0179
3111.00,0.0179
3110.00,0.0178
3109.00,0.0178
3108.00,0.0178
3107.00,0.0178
3106.00,0.0178
3105.00,0.0178
3104.00,0.0178
3103.00,0.0178
3102.00,0.0178
3101.00,0.0177
3100.00,0.0177
3099.00,0.0177
3098.00,0.0176
3097.00,0.0176
3096.00,0.0176
3095.00,0.0176
3094.00,0.0176
3093.00,0.0176
3092.00,0.0177
3091.00,0.0177
3090.00,0.0177
3089.00,0.0177
3088.00,0.0177
3087.00,0.0176
3086.00,0.0176
3085.00,0.0176
3084.00,0.0176
3083.00,0.0175
3082.00,0.0175
3081.00,0.0175
3080.00,0.0175
3079.00,0.0176
3078.00,0.0175
3077.00,0.0175
3076.00,0.0174
3075.00,0.0174
3074.00,0.0174
3073.00,0.0174
3072.00,0.0173
3071.00,0.0173
3070.00,0.0173
3069.00,0.0173
3068.00,0.0173
3067.00,0.0172
3066.00,0.0173
3065.00,0.0173
3064.00,0.0173
3063.00,0.0173
3062.00,0.0172
3061.00,0.0172
3060.00,0.0171
3059.00,0.0171
3058.00,0.0170
3057.00,0.0170
3056.00,0.0170
3055.00,0.0170
3054.00,0.0170
3053.00,0.0170
3052.00,0.0170
3051.00,0.0169
3050.00,0.0169
3049.00,0.0169
3048.00,0.0169
3047.00,0.0169
3046.00,0.0169
3045.00,0.0168
3044.00,0.0168
3043.00,0.0168
3042.00,0.0167
3041.00,0.0167
3040.00,0.0166
3039.00,0.0166
3038.00,0.0166
3037.00,0.0166
3036.00,0.0166
3035.00,0.0166
3034.00,0.0166
3033.00,0.0166
3032.00,0.0165
3031.00,0.0165
3030.00,0.0165
3029.00,0.0164
3028.00,0.0164
3027.00,0.0163
3026.00,0.0163
3025.00,0.0163
3024.00,0.0163
3023.00,0.0162
3022.00,0.0162
3021.00,0.0162
3020.00,0.0162
3019.00,0.0161
3018.00,0.0161
3017.00,0.0161
3016.00,0.0161
3015.00,0.0161
3014.00,0.0161
3013.00,0.0161
3012.00,0.0160
3011.00,0.0160
3010.00,0.0159
3009.00,0.0158
3008.00,0.0158
3007.00,0.0158
3006.00,0.0158
3005.00,0.0158
3004.00,0.0158
3003.00,0.0158
3002.00,0.0157
3001.00,0.0157
3000.00,0.0157
2999.00,0.0156
2998.00,0.0156
2997.00,0.0155
2996.00,0.0155
2995.00,0.0155
2994.00,0.0155
2993.00,0.0155
2992.00,0.0155
2991.00,0.0155
2990.00,0.0154
2989.00,0.0153
2988.00,0.0153
2987.00,0.0153
2986.00,0.0153
2985.00,0.0152
2984.00,0.0152
2983.00,0.0151
2982.00,0.0151
2981.00,0.0151
2980.00,0.0150
2979.00,0.0150
2978.00,0.0150
2977.00,0.0150
2976.00,0.0150
2975.00,0.0150
2974.00,0.0150
2973.00,0.0149
2972.00,0.0149
2971.00,0.0149
2970.00,0.0148
2969.00,0.0148
2968.00,0.0148
2967.00,0.0147
2966.00,0.0147
2965.00,0.0146
2964.00,0.0146
2963.00,0.0146
2962.00,0.0145
2961.00,0.0145
2960.00,0.0144
2959.00,0.0144
2958.00,0.0144
2957.00,0.0143
2956.00,0.0143
2955.00,0.0144
2954.00,0.0144
2953.00,0.0144
2952.00,0.0145
2951.00,0.0145
2950.00,0.0145
2949.00,0.0145
2948.00,0.0145
2947.00,0.0145
2946.00,0.0145
2945.00,0.0145
2944.00,0.0144
2943.00,0.0144
2942.00,0.0143
2941.00,0.0143
2940.00,0.0142
2939.00,0.0141
2938.00,0.0141
2937.00,0.0140
2936.00,0.0139
2935.00,0.0138
2934.00,0.0136
2933.00,0.0135
2932.00,0.0134
2931.00,0.0133
2930.00,0.0131
2929.00,0.0130
2928.00,0.0128
2927.00,0.0127
2926.00,0.0126
2925.00,0.0125
2924.00,0.0125
2923.00,0.0124
2922.00,0.0124
2921.00,0.0124
2920.00,0.0124
2919.00,0.0124
2918.00,0.0123
2917.00,0.0123
2916.00,0.0123
2915.00,0.0124
2914.00,0.0126
2913.00,0.0128
2912.00,0.0129
2911.00,0.0130
2910.00,0.0131
2909.00,0.0131
2908.00,0.0131
2907.00,0.0132
2906.00,0.0132
2905.00,0.0133
2904.00,0.0133
2903.00,0.0133
2902.00,0.0133
2901.00,0.0134
2900.00,0.0134
2899.00,0.0134
2898.00,0.0133
2897.00,0.0133
2896.00,0.0133
2895.00,0.0133
2894.00,0.0133
2893.00,0.0132
2892.00,0.0132
2891.00,0.0132
2890.00,0.0132
2889.00,0.0132
2888.00,0.0132
2887.00,0.0132
2886.00,0.0132
2885.00,0.0132
2884.00,0.0132
2883.00,0.0132
2882.00,0.0132
2881.00,0.0132
2880.00,0.0132
2879.00,0.0132
2878.00,0.0132
2877.00,0.0131
2876.00,0.0131
2875.00,0.0131
2874.00,0.0130
2873.00,0.0130
2872.00,0.0129
2871.00,0.0129
2870.00,0.0129
2869.00,0.0128
2868.00,0.0128
2867.00,0.0128
2866.00,0.0127
2865.00,0.0127
2864.00,0.0126
2863.00,0.0126
2862.00,0.0125
2861.00,0.0124
2860.00,0.0123
2859.00,0.0122
2858.00,0.0121
2857.00,0.0120
2856.00,0.0119
2855.00,0.0118
2854.00,0.0117
2853.00,0.0117
2852.00,0.0117
2851.00,0.0117
2850.00,0.0117
2849.00,0.0118
2848.00,0.0118
2847.00,0.0119
2846.00,0.0120
2845.00,0.0121
2844.00,0.0122
2843.00,0.0122
2842.00,0.0123
2841.00,0.0123
2840.00,0.0123
2839.00,0.0123
2838.00,0.0124
2837.00,0.0124
2836.00,0.0123
2835.00,0.0123
2834.00,0.0123
2833.00,0.0123
2832.00,0.0122
2831.00,0.0122
2830.00,0.0122
2829.00,0.0122
2828.00,0.0122
2827.00,0.0122
2826.00,0.0122
2825.00,0.0121
2824.00,0.0121
2823.00,0.0121
2822.00,0.0121
2821.00,0.0121
2820.00,0.0121
2819.00,0.0121
2818.00,0.0121
2817.00,0.0121
2816.00,0.0121
2815.00,0.0120
2814.00,0.0120
2813.00,0.0120
2812.00,0.0120
2811.00,0.0119
2810.00,0.0119
2809.00,0.0118
2808.00,0.0118
2807.00,0.0118
2806.00,0.0117
2805.00,0.0117
2804.00,0.0117
2803.00,0.0117
2802.00,0.0117
2801.00,0.0117
2800.00,0.0116
2799.00,0.0116
2798.00,0.0116
2797.00,0.0116
2796.00,0.0116
2795.00,0.0116
2794.00,0.0116
2793.00,0.0115
2792.00,0.0114
2791.00,0.0114
2790.00,0.0114
2789.00,0.0114
2788.00,0.0114
2787.00,0.0113
2786.00,0.0113
2785.00,0.0113
2784.00,0.0113
2783.00,0.0112
2782.00,0.0112
2781.00,0.0112
2780.00,0.0112
2779.00,0.0112
2778.00,0.0111
2777.00,0.0111
2776.00,0.0111
2775.00,0.0111
2774.00,0.0111
2773.00,0.0111
2772.00,0.0110
2771.00,0.0111
2770.00,0.0111
2769.00,0.0111
2768.00,0.0110
2767.00,0.0110
2766.00,0.0110
2765.00,0.0110
2764.00,0.0109
2763.00,0.0109
2762.00,0.0109
2761.00,0.0109
2760.00,0.0108
2759.00,0.0108
2758.00,0.0108
2757.00,0.0108
2756.00,0.0108
2755.00,0.0108
2754.00,0.0108
2753.00,0.0107
2752.00,0.0107
2751.00,0.0107
2750.00,0.0106
2749.00,0.0106
2748.00,0.0106
2747.00,0.0106
2746.00,0.0105
2745.00,0.0105
2744.00,0.0105
2743.00,0.0104
2742.00,0.0104
2741.00,0.0104
2740.00,0.0104
2739.00,0.0104
2738.00,0.0104
2737.00,0.0104
2736.00,0.0103
2735.00,0.0103
2734.00,0.0103
2733.00,0.0102
2732.00,0.0102
2731.00,0.0102
2730.00,0.0102
2729.00,0.0102
2728.00,0.0101
2727.00,0.0101
2726.00,0.0101
2725.00,0.0101
2724.00,0.0101
2723.00,0.0100
2722.00,0.0100
2721.00,0.0100
2720.00,0.0100
2719.00,0.0100
2718.00,0.0100
2717.00,0.0100
2716.00,0.0100
2715.00,0.0099
2714.00,0.0099
2713.00,0.0099
2712.00,0.0099
2711.00,0.0099
2710.00,0.0098
2709.00,0.0098
2708.00,0.0098
2707.00,0.0098
2706.00,0.0098
2705.00,0.0097
2704.00,0.0097
2703.00,0.0097
2702.00,0.0096
2701.00,0.0096
2700.00,0.0096
2699.00,0.0096
2698.00,0.0096
2697.00,0.0096
2696.00,0.0096
2695.00,0.0096
2694.00,0.0096
2693.00,0.0095
2692.00,0.0095
2691.00,0.0095
2690.00,0.0095
2689.00,0.0095
2688.00,0.0094
2687.00,0.0094
2686.00,0.0094
2685.00,0.0094
2684.00,0.0094
2683.00,0.0094
2682.00,0.0094
2681.00,0.0094
2680.00,0.0094
2679.00,0.0093
2678.00,0.0093
2677.00,0.0093
2676.00,0.0093
2675.00,0.0093
2674.00,0.0093
2673.00,0.0093
2672.00,0.0093
2671.00,0.0092
2670.00,0.0092
2669.00,0.0092
2668.00,0.0092
2667.00,0.0092
2666.00,0.0092
2665.00,0.0092
2664.00,0.0093
2663.00,0.0093
2662.00,0.0092
2661.00,0.0092
2660.00,0.0093
2659.00,0.0093
2658.00,0.0092
2657.00,0.0093
2656.00,0.0093
2655.00,0.0093
2654.00,0.0093
2653.00,0.0093
2652.00,0.0093
2651.00,0.0093
2650.00,0.0093
2649.00,0.0092
2648.00,0.0092
2647.00,0.0092
2646.00,0.0092
2645.00,0.0092
2644.00,0.0092
2643.00,0.0092
2642.00,0.0091
2641.00,0.0091
2640.00,0.0091
2639.00,0.0091
2638.00,0.0091
2637.00,0.0091
2636.00,0.0091
2635.00,0.0090
2634.00,0.0090
2633.00,0.0090
2632.00,0.0090
2631.00,0.0091
2630.00,0.0091
2629.00,0.0091
2628.00,0.0091
2627.00,0.0091
2626.00,0.0091
2625.00,0.0090
2624.00,0.0090
2623.00,0.0090
2622.00,0.0089
2621.00,0.0089
2620.00,0.0089
2619.00,0.0089
2618.00,0.0089
2617.00,0.0089
2616.00,0.0089
2615.00,0.0089
2614.00,0.0089
2613.00,0.0089
2612.00,0.0089
2611.00,0.0089
2610.00,0.0089
2609.00,0.0089
2608.00,0.0089
2607.00,0.0089
2606.00,0.0089
2605.00,0.0089
2604.00,0.0089
2603.00,0.0088
2602.00,0.0088
2601.00,0.0088
2600.00,0.0088
2599.00,0.0088
2598.00,0.0087
2597.00,0.0087
2596.00,0.0086
2595.00,0.0086
2594.00,0.0086
2593.00,0.0086
2592.00,0.0086
2591.00,0.0087
2590.00,0.0087
2589.00,0.0087
2588.00,0.0087
2587.00,0.0087
2586.00,0.0086
2585.00,0.0086
2584.00,0.0086
2583.00,0.0086
2582.00,0.0086
2581.00,0.0087
2580.00,0.0087
2579.00,0.0087
2578.00,0.0087
2577.00,0.0086
2576.00,0.0086
2575.00,0.0086
2574.00,0.0086
2573.00,0.0086
2572.00,0.0085
2571.00,0.0085
2570.00,0.0084
2569.00,0.0084
2568.00,0.0084
2567.00,0.0084
2566.00,0.0085
2565.00,0.0085
2564.00,0.0085
2563.00,0.0085
2562.00,0.0084
2561.00,0.0083
2560.00,0.0083
2559.00,0.0083
2558.00,0.0083
2557.00,0.0083
2556.00,0.0084
2555.00,0.0084
2554.00,0.0084
2553.00,0.0085
2552.00,0.0085
2551.00,0.0085
2550.00,0.0084
2549.00,0.0084
2548.00,0.0083
2547.00,0.0083
2546.00,0.0083
2545.00,0.0083
2544.00,0.0083
2543.00,0.0082
2542.00,0.0082
2541.00,0.0082
2540.00,0.0082
2539.00,0.0083
2538.00,0.0083
2537.00,0.0083
2536.00,0.0083
2535.00,0.0082
2534.00,0.0081
2533.00,0.0081
2532.00,0.0080
2531.00,0.0080
2530.00,0.0080
2529.00,0.0080
2528.00,0.0080
2527.00,0.0081
2526.00,0.0081
2525.00,0.0081
2524.00,0.0082
2523.00,0.0081
2522.00,0.0081
2521.00,0.0081
2520.00,0.0081
2519.00,0.0081
2518.00,0.0080
2517.00,0.0080
2516.00,0.0081
2515.00,0.0081
2514.00,0.0081
2513.00,0.0081
2512.00,0.0081
2511.00,0.0081
2510.00,0.0080
2509.00,0.0080
2508.00,0.0079
2507.00,0.0079
2506.00,0.0079
2505.00,0.0080
2504.00,0.0080
2503.00,0.0080
2502.00,0.0080
2501.00,0.0079
2500.00,0.0079
2499.00,0.0079
2498.00,0.0079
2497.00,0.0079
2496.00,0.0079
2495.00,0.0079
2494.00,0.0080
2493.00,0.0080
2492.00,0.0080
2491.00,0.0080
2490.00,0.0080
2489.00,0.0080
2488.00,0.0080
2487.00,0.0079
2486.00,0.0079
2485.00,0.0079
2484.00,0.0079
2483.00,0.0079
2482.00,0.0078
2481.00,0.0078
2480.00,0.0078
2479.00,0.0078
2478.00,0.0078
2477.00,0.0078
2476.00,0.0078
2475.00,0.0078
2474.00,0.0078
2473.00,0.0078
2472.00,0.0077
2471.00,0.0077
2470.00,0.0077
2469.00,0.0077
2468.00,0.0077
2467.00,0.0077
2466.00,0.0077
2465.00,0.0077
2464.00,0.0077
2463.00,0.0078
2462.00,0.0078
2461.00,0.0078
2460.00,0.0078
2459.00,0.0078
2458.00,0.0077
2457.00,0.0077
2456.00,0.0077
2455.00,0.0077
2454.00,0.0077
2453.00,0.0077
2452.00,0.0077
2451.00,0.0078
2450.00,0.0078
2449.00,0.0077
2448.00,0.0077
2447.00,0.0077
2446.00,0.0077
2445.00,0.0076
2444.00,0.0076
2443.00,0.0076
2442.00,0.0076
2441.00,0.0076
2440.00,0.0076
2439.00,0.0075
2438.00,0.0075
2437.00,0.0074
2436.00,0.0074
2435.00,0.0074
2434.00,0.0074
2433.00,0.0074
2432.00,0.0074
2431.00,0.0073
2430.00,0.0074
2429.00,0.0074
2428.00,0.0074
2427.00,0.0074
2426.00,0.0074
2425.00,0.0074
2424.00,0.0074
2423.00,0.0073
2422.00,0.0073
2421.00,0.0073
2420.00,0.0073
2419.00,0.0073
2418.00,0.0073
2417.00,0.0073
2416.00,0.0073
2415.00,0.0073
2414.00,0.0073
2413.00,0.0073
2412.00,0.0072
2411.00,0.0072
2410.00,0.0071
2409.00,0.0070
2408.00,0.0070
2407.00,0.0070
2406.00,0.0071
2405.00,0.0071
2404.00,0.0071
2403.00,0.0071
2402.00,0.0071
2401.00,0.0071
2400.00,0.0070
2399.00,0.0070
2398.00,0.0070
2397.00,0.0070
2396.00,0.0070
2395.00,0.0070
2394.00,0.0069
2393.00,0.0069
2392.00,0.0068
2391.00,0.0068
2390.00,0.0068
2389.00,0.0069
2388.00,0.0069
2387.00,0.0069
2386.00,0.0069
2385.00,0.0069
2384.00,0.0069
2383.00,0.0069
2382.00,0.0069
2381.00,0.0069
2380.00,0.0067
2379.00,0.0065
2378.00,0.0064
2377.00,0.0062
2376.00,0.0062
2375.00,0.0062
2374.00,0.0062
2373.00,0.0063
2372.00,0.0064
2371.00,0.0065
2370.00,0.0065
2369.00,0.0065
2368.00,0.0064
2367.00,0.0064
2366.00,0.0064
2365.00,0.0064
2364.00,0.0064
2363.00,0.0065
2362.00,0.0065
2361.00,0.0066
2360.00,0.0067
2359.00,0.0067
2358.00,0.0066
2357.00,0.0064
2356.00,0.0062
2355.00,0.0061
2354.00,0.0061
2353.00,0.0062
2352.00,0.0062
2351.00,0.0063
2350.00,0.0063
2349.00,0.0063
2348.00,0.0063
2347.00,0.0063
2346.00,0.0064
2345.00,0.0065
2344.00,0.0065
2343.00,0.0066
2342.00,0.0066
2341.00,0.0066
2340.00,0.0065
2339.00,0.0064
2338.00,0.0063
2337.00,0.0062
2336.00,0.0061
2335.00,0.0060
2334.00,0.0060
2333.00,0.0060
2332.00,0.0059
2331.00,0.0059
2330.00,0.0059
2329.00,0.0061
2328.00,0.0064
2327.00,0.0066
2326.00,0.0068
2325.00,0.0068
2324.00,0.0067
2323.00,0.0066
2322.00,0.0065
2321.00,0.0064
2320.00,0.0063
2319.00,0.0063
2318.00,0.0064
2317.00,0.0065
2316.00,0.0065
2315.00,0.0065
2314.00,0.0064
2313.00,0.0064
2312.00,0.0065
2311.00,0.0065
2310.00,0.0066
2309.00,0.0066
2308.00,0.0066
2307.00,0.0065
2306.00,0.0064
2305.00,0.0064
2304.00,0.0064
2303.00,0.0064
2302.00,0.0064
2301.00,0.0064
2300.00,0.0064
2299.00,0.0064
2298.00,0.0064
2297.00,0.0064
2296.00,0.0064
2295.00,0.0064
2294.00,0.0065
2293.00,0.0065
2292.00,0.0066
2291.00,0.0066
2290.00,0.0066
2289.00,0.0066
2288.00,0.0066
2287.00,0.0066
2286.00,0.0066
2285.00,0.0066
2284.00,0.0065
2283.00,0.0065
2282.00,0.0065
2281.00,0.0065
2280.00,0.0065
2279.00,0.0064
2278.00,0.0062
2277.00,0.0062
2276.00,0.0061
2275.00,0.0061
2274.00,0.0062
2273.00,0.0062
2272.00,0.0062
2271.00,0.0062
2270.00,0.0063
2269.00,0.0063
2268.00,0.0063
2267.00,0.0062
2266.00,0.0063
2265.00,0.0063
2264.00,0.0064
2263.00,0.0064
2262.00,0.0063
2261.00,0.0063
2260.00,0.0062
2259.00,0.0062
2258.00,0.0062
2257.00,0.0061
2256.00,0.0061
2255.00,0.0060
2254.00,0.0060
2253.00,0.0061
2252.00,0.0061
2251.00,0.0060
2250.00,0.0060
2249.00,0.0060
2248.00,0.0060
2247.00,0.0060
2246.00,0.0060
2245.00,0.0060
2244.00,0.0060
2243.00,0.0060
2242.00,0.0060
2241.00,0.0060
2240.00,0.0060
2239.00,0.0060
2238.00,0.0060
2237.00,0.0060
2236.00,0.0060
2235.00,0.0059
2234.00,0.0059
2233.00,0.0059
2232.00,0.0060
2231.00,0.0060
2230.00,0.0060
2229.00,0.0060
2228.00,0.0060
2227.00,0.0060
2226.00,0.0059
2225.00,0.0058
2224.00,0.0058
2223.00,0.0058
2222.00,0.0058
2221.00,0.0058
2220.00,0.0058
2219.00,0.0058
2218.00,0.0057
2217.00,0.0057
2216.00,0.0058
2215.00,0.0058
2214.00,0.0059
2213.00,0.0060
2212.00,0.0061
2211.00,0.0061
2210.00,0.0060
2209.00,0.0059
2208.00,0.0058
2207.00,0.0057
2206.00,0.0055
2205.00,0.0055
2204.00,0.0055
2203.00,0.0055
2202.00,0.0056
2201.00,0.0057
2200.00,0.0059
2199.00,0.0060
2198.00,0.0061
2197.00,0.0060
2196.00,0.0059
2195.00,0.0058
2194.00,0.0057
2193.00,0.0056
2192.00,0.0056
2191.00,0.0056
2190.00,0.0057
2189.00,0.0058
2188.00,0.0059
2187.00,0.0060
2186.00,0.0061
2185.00,0.0061
2184.00,0.0059
2183.00,0.0057
2182.00,0.0056
2181.00,0.0056
2180.00,0.0056
2179.00,0.0056
2178.00,0.0055
2177.00,0.0053
2176.00,0.0053
2175.00,0.0054
2174.00,0.0056
2173.00,0.0059
2172.00,0.0061
2171.00,0.0062
2170.00,0.0063
2169.00,0.0063
2168.00,0.0063
2167.00,0.0062
2166.00,0.0061
2165.00,0.0062
2164.00,0.0063
2163.00,0.0063
2162.00,0.0062
2161.00,0.0058
2160.00,0.0053
2159.00,0.0047
2158.00,0.0044
2157.00,0.0044
2156.00,0.0044
2155.00,0.0044
2154.00,0.0044
2153.00,0.0044
2152.00,0.0044
2151.00,0.0044
2150.00,0.0044
2149.00,0.0045
2148.00,0.0045
2147.00,0.0045
2146.00,0.0045
2145.00,0.0044
2144.00,0.0044
2143.00,0.0044
2142.00,0.0045
2141.00,0.0045
2140.00,0.0046
2139.00,0.0046
2138.00,0.0045
2137.00,0.0044
2136.00,0.0042
2135.00,0.0040
2134.00,0.0039
2133.00,0.0039
2132.00,0.0040
2131.00,0.0041
2130.00,0.0042
2129.00,0.0043
2128.00,0.0045
2127.00,0.0045
2126.00,0.0046
2125.00,0.0046
2124.00,0.0045
2123.00,0.0045
2122.00,0.0045
2121.00,0.0046
2120.00,0.0047
2119.00,0.0048
2118.00,0.0048
2117.00,0.0048
2116.00,0.0048
2115.00,0.0048
2114.00,0.0048
2113.00,0.0049
2112.00,0.0050
2111.00,0.0051
2110.00,0.0051
2109.00,0.0051
2108.00,0.0050
2107.00,0.0048
2106.00,0.0047
2105.00,0.0047
2104.00,0.0047
2103.00,0.0047
2102.00,0.0048
2101.00,0.0048
2100.00,0.0048
2099.00,0.0047
2098.00,0.0046
2097.00,0.0046
2096.00,0.0045
2095.00,0.0045
2094.00,0.0044
2093.00,0.0044
2092.00,0.0045
2091.00,0.0045
2090.00,0.0046
2089.00,0.0046
2088.00,0.0046
2087.00,0.0046
2086.00,0.0046
2085.00,0.0045
2084.00,0.0045
2083.00,0.0045
2082.00,0.0046
2081.00,0.0046
2080.00,0.0047
2079.00,0.0048
2078.00,0.0048
2077.00,0.0049
2076.00,0.0049
2075.00,0.0048
2074.00,0.0047
2073.00,0.0047
2072.00,0.0046
2071.00,0.0046
2070.00,0.0047
2069.00,0.0047
2068.00,0.0046
2067.00,0.0046
2066.00,0.0045
2065.00,0.0045
2064.00,0.0045
2063.00,0.0044
2062.00,0.0044
2061.00,0.0044
2060.00,0.0044
2059.00,0.0044
2058.00,0.0044
2057.00,0.0045
2056.00,0.0045
2055.00,0.0046
2054.00,0.0047
2053.00,0.0048
2052.00,0.0050
2051.00,0.0050
2050.00,0.0050
2049.00,0.0048
2048.00,0.0047
2047.00,0.0046
2046.00,0.0047
2045.00,0.0048
2044.00,0.0048
2043.00,0.0047
2042.00,0.0047
2041.00,0.0047
2040.00,0.0048
2039.00,0.0049
2038.00,0.0050
2037.00,0.0052
2036.00,0.0053
2035.00,0.0052
2034.00,0.0050
2033.00,0.0048
2032.00,0.0046
2031.00,0.0045
2030.00,0.0046
2029.00,0.0047
2028.00,0.0047
2027.00,0.0047
2026.00,0.0046
2025.00,0.0045
2024.00,0.0044
2023.00,0.0044
2022.00,0.0043
2021.00,0.0044
2020.00,0.0045
2019.00,0.0046
2018.00,0.0046
2017.00,0.0046
2016.00,0.0046
2015.00,0.0045
2014.00,0.0045
2013.00,0.0046
2012.00,0.0047
2011.00,0.0048
2010.00,0.0048
2009.00,0.0048
2008.00,0.0047
2007.00,0.0045
2006.00,0.0042
2005.00,0.0040
2004.00,0.0040
2003.00,0.0040
2002.00,0.0041
2001.00,0.0042
2000.00,0.0043
1999.00,0.0044
1998.00,0.0045
1997.00,0.0046
1996.00,0.0046
1995.00,0.0047
1994.00,0.0047
1993.00,0.0048
1992.00,0.0048
1991.00,0.0049
1990.00,0.0048
1989.00,0.0047
1988.00,0.0046
1987.00,0.0045
1986.00,0.0045
1985.00,0.0046
1984.00,0.0048
1983.00,0.0050
1982.00,0.0052
1981.00,0.0053
1980.00,0.0054
1979.00,0.0052
1978.00,0.0048
1977.00,0.0045
1976.00,0.0043
1975.00,0.0042
1974.00,0.0041
1973.00,0.0042
1972.00,0.0042
1971.00,0.0043
1970.00,0.0043
1969.00,0.0043
1968.00,0.0043
1967.00,0.0043
1966.00,0.0044
1965.00,0.0044
1964.00,0.0044
1963.00,0.0044
1962.00,0.0043
1961.00,0.0042
1960.00,0.0042
1959.00,0.0041
1958.00,0.0040
1957.00,0.0040
1956.00,0.0041
1955.00,0.0042
1954.00,0.0042
1953.00,0.0042
1952.00,0.0041
1951.00,0.0039
1950.00,0.0038
1949.00,0.0037
1948.00,0.0038
1947.00,0.0039
1946.00,0.0040
1945.00,0.0041
1944.00,0.0041
1943.00,0.0040
1942.00,0.0040
1941.00,0.0039
1940.00,0.0039
1939.00,0.0038
1938.00,0.0038
1937.00,0.0038
1936.00,0.0039
1935.00,0.0039
1934.00,0.0040
1933.00,0.0040
1932.00,0.0041
1931.00,0.0041
1930.00,0.0040
1929.00,0.0040
1928.00,0.0040
1927.00,0.0040
1926.00,0.0040
1925.00,0.0040
1924.00,0.0039
1923.00,0.0038
1922.00,0.0038
1921.00,0.0039
1920.00,0.0039
1919.00,0.0039
1918.00,0.0038
1917.00,0.0037
1916.00,0.0037
1915.00,0.0038
1914.00,0.0039
1913.00,0.0039
1912.00,0.0039
1911.00,0.0038
1910.00,0.0037
1909.00,0.0037
1908.00,0.0037
1907.00,0.0037
1906.00,0.0037
1905.00,0.0037
1904.00,0.0037
1903.00,0.0037
1902.00,0.0037
1901.00,0.0038
1900.00,0.0038
1899.00,0.0038
1898.00,0.0038
1897.00,0.0037
1896.00,0.0036
1895.00,0.0036
1894.00,0.0036
1893.00,0.0036
1892.00,0.0037
1891.00,0.0037
1890.00,0.0036
1889.00,0.0035
1888.00,0.0035
1887.00,0.0036
1886.00,0.0037
1885.00,0.0037
1884.00,0.0037
1883.00,0.0037
1882.00,0.0037
1881.00,0.0037
1880.00,0.0037
1879.00,0.0036
1878.00,0.0036
1877.00,0.0036
1876.00,0.0037
1875.00,0.0037
1874.00,0.0037
1873.00,0.0037
1872.00,0.0038
1871.00,0.0038
1870.00,0.0037
1869.00,0.0036
1868.00,0.0035
1867.00,0.0034
1866.00,0.0035
1865.00,0.0036
1864.00,0.0036
1863.00,0.0036
1862.00,0.0036
1861.00,0.0035
1860.00,0.0035
1859.00,0.0035
1858.00,0.0035
1857.00,0.0035
1856.00,0.0035
1855.00,0.0034
1854.00,0.0034
1853.00,0.0034
1852.00,0.0034
1851.00,0.0034
1850.00,0.0034
1849.00,0.0035
1848.00,0.0035
1847.00,0.0036
1846.00,0.0036
1845.00,0.0036
1844.00,0.0034
1843.00,0.0033
1842.00,0.0033
1841.00,0.0034
1840.00,0.0034
1839.00,0.0034
1838.00,0.0034
1837.00,0.0034
1836.00,0.0034
1835.00,0.0034
1834.00,0.0035
1833.00,0.0036
1832.00,0.0036
1831.00,0.0035
1830.00,0.0033
1829.00,0.0032
1828.00,0.0031
1827.00,0.0031
1826.00,0.0032
1825.00,0.0032
1824.00,0.0032
1823.00,0.0033
1822.00,0.0034
1821.00,0.0034
1820.00,0.0035
1819.00,0.0035
1818.00,0.0035
1817.00,0.0034
1816.00,0.0034
1815.00,0.0034
1814.00,0.0034
1813.00,0.0034
1812.00,0.0034
1811.00,0.0033
1810.00,0.0033
1809.00,0.0034
1808.00,0.0035
1807.00,0.0036
1806.00,0.0037
1805.00,0.0037
1804.00,0.0038
1803.00,0.0038
1802.00,0.0037
1801.00,0.0037
1800.00,0.0037
1799.00,0.0038
1798.00,0.0039
1797.00,0.0040
1796.00,0.0041
1795.00,0.0043
1794.00,0.0043
1793.00,0.0044
1792.00,0.0043
1791.00,0.0042
1790.00,0.0043
1789.00,0.0044
1788.00,0.0046
1787.00,0.0047
1786.00,0.0048
1785.00,0.0049
1784.00,0.0050
1783.00,0.0050
1782.00,0.0051
1781.00,0.0052
1780.00,0.0053
1779.00,0.0054
1778.00,0.0056
1777.00,0.0057
1776.00,0.0059
1775.00,0.0060
1774.00,0.0062
1773.00,0.0062
1772.00,0.0062
1771.00,0.0062
1770.00,0.0063
1769.00,0.0065
1768.00,0.0067
1767.00,0.0068
1766.00,0.0069
1765.00,0.0071
1764.00,0.0072
1763.00,0.0073
1762.00,0.0073
1761.00,0.0073
1760.00,0.0074
1759.00,0.0075
1758.00,0.0076
1757.00,0.0077
1756.00,0.0078
1755.00,0.0080
1754.00,0.0082
1753.00,0.0083
1752.00,0.0085
1751.00,0.0086
1750.00,0.0087
1749.00,0.0087
1748.00,0.0088
1747.00,0.0090
1746.00,0.0091
1745.00,0.0093
1744.00,0.0095
1743.00,0.0097
1742.00,0.0100
1741.00,0.0102
1740.00,0.0105
1739.00,0.0108
1738.00,0.0110
1737.00,0.0112
1736.00,0.0116
1735.00,0.0120
1734.00,0.0123
1733.00,0.0125
1732.00,0.0126
1731.00,0.0127
1730.00,0.0129
1729.00,0.0132
1728.00,0.0135
1727.00,0.0138
1726.00,0.0141
1725.00,0.0143
1724.00,0.0146
1723.00,0.0148
1722.00,0.0149
1721.00,0.0150
1720.00,0.0150
1719.00,0.0151
1718.00,0.0153
1717.00,0.0156
1716.00,0.0157
1715.00,0.0158
1714.00,0.0159
1713.00,0.0161
1712.00,0.0163
1711.00,0.0164
1710.00,0.0165
1709.00,0.0166
1708.00,0.0167
1707.00,0.0167
1706.00,0.0168
1705.00,0.0169
1704.00,0.0170
1703.00,0.0172
1702.00,0.0173
1701.00,0.0176
1700.00,0.0179
1699.00,0.0180
1698.00,0.0180
1697.00,0.0181
1696.00,0.0181
1695.00,0.0182
1694.00,0.0183
1693.00,0.0184
1692.00,0.0185
1691.00,0.0185
1690.00,0.0187
1689.00,0.0188
1688.00,0.0189
1687.00,0.0189
1686.00,0.0190
1685.00,0.0192
1684.00,0.0193
1683.00,0.0195
1682.00,0.0197
1681.00,0.0199
1680.00,0.0201
1679.00,0.0202
1678.00,0.0204
1677.00,0.0206
1676.00,0.0209
1675.00,0.0212
1674.00,0.0214
1673.00,0.0215
1672.00,0.0215
1671.00,0.0217
1670.00,0.0219
1669.00,0.0223
1668.00,0.0225
1667.00,0.0228
1666.00,0.0229
1665.00,0.0231
1664.00,0.0233
1663.00,0.0235
1662.00,0.0238
1661.00,0.0240
1660.00,0.0242
1659.00,0.0244
1658.00,0.0246
1657.00,0.0246
1656.00,0.0246
1655.00,0.0247
1654.00,0.0251
1653.00,0.0257
1652.00,0.0261
1651.00,0.0263
1650.00,0.0263
1649.00,0.0263
1648.00,0.0266
1647.00,0.0271
1646.00,0.0275
1645.00,0.0278
1644.00,0.0280
1643.00,0.0282
1642.00,0.0283
1641.00,0.0285
1640.00,0.0286
1639.00,0.0286
1638.00,0.0287
1637.00,0.0290
1636.00,0.0294
1635.00,0.0298
1634.00,0.0301
1633.00,0.0302
1632.00,0.0304
1631.00,0.0305
1630.00,0.0307
1629.00,0.0308
1628.00,0.0310
1627.00,0.0312
1626.00,0.0314
1625.00,0.0316
1624.00,0.0318
1623.00,0.0321
1622.00,0.0323
1621.00,0.0323
1620.00,0.0324
1619.00,0.0325
1618.00,0.0327
1617.00,0.0330
1616.00,0.0332
1615.00,0.0334
1614.00,0.0334
1613.00,0.0334
1612.00,0.0334
1611.00,0.0335
1610.00,0.0337
1609.00,0.0338
1608.00,0.0339
1607.00,0.0340
1606.00,0.0341
1605.00,0.0341
1604.00,0.0341
1603.00,0.0342
1602.00,0.0343
1601.00,0.0343
1600.00,0.0344
1599.00,0.0344
1598.00,0.0345
1597.00,0.0345
1596.00,0.0345
1595.00,0.0345
1594.00,0.0345
1593.00,0.0345
1592.00,0.0345
1591.00,0.0345
1590.00,0.0345
1589.00,0.0345
1588.00,0.0346
1587.00,0.0346
1586.00,0.0345
1585.00,0.0344
1584.00,0.0343
1583.00,0.0342
1582.00,0.0342
1581.00,0.0341
1580.00,0.0340
1579.00,0.0339
1578.00,0.0338
1577.00,0.0338
1576.00,0.0339
1575.00,0.0339
1574.00,0.0337
1573.00,0.0335
1572.00,0.0333
1571.00,0.0331
1570.00,0.0330
1569.00,0.0329
1568.00,0.0328
1567.00,0.0327
1566.00,0.0325
1565.00,0.0323
1564.00,0.0322
1563.00,0.0320
1562.00,0.0316
1561.00,0.0311
1560.00,0.0310
1559.00,0.0313
1558.00,0.0313
1557.00,0.0311
1556.00,0.0309
1555.00,0.0307
1554.00,0.0305
1553.00,0.0302
1552.00,0.0299
1551.00,0.0296
1550.00,0.0293
1549.00,0.0292
1548.00,0.0290
1547.00,0.0288
1546.00,0.0285
1545.00,0.0283
1544.00,0.0280
1543.00,0.0278
1542.00,0.0276
1541.00,0.0272
1540.00,0.0268
1539.00,0.0265
1538.00,0.0264
1537.00,0.0263
1536.00,0.0261
1535.00,0.0259
1534.00,0.0256
1533.00,0.0255
1532.00,0.0253
1531.00,0.0252
1530.00,0.0251
1529.00,0.0249
1528.00,0.0247
1527.00,0.0246
1526.00,0.0245
1525.00,0.0244
1524.00,0.0243
1523.00,0.0241
1522.00,0.0239
1521.00,0.0235
1520.00,0.0232
1519.00,0.0230
1518.00,0.0228
1517.00,0.0226
1516.00,0.0225
1515.00,0.0225
1514.00,0.0225
1513.00,0.0224
1512.00,0.0223
1511.00,0.0221
1510.00,0.0219
1509.00,0.0217
1508.00,0.0216
1507.00,0.0214
1506.00,0.0212
1505.00,0.0213
1504.00,0.0213
1503.00,0.0212
1502.00,0.0211
1501.00,0.0210
1500.00,0.0209
1499.00,0.0208
1498.00,0.0208
1497.00,0.0208
1496.00,0.0208
1495.00,0.0208
1494.00,0.0208
1493.00,0.0209
1492.00,0.0209
1491.00,0.0209
1490.00,0.0208
1489.00,0.0207
1488.00,0.0206
1487.00,0.0206
1486.00,0.0207
1485.00,0.0208
1484.00,0.0209
1483.00,0.0209
1482.00,0.0210
1481.00,0.0211
1480.00,0.0212
1479.00,0.0212
1478.00,0.0212
1477.00,0.0213
1476.00,0.0214
1475.00,0.0216
1474.00,0.0218
1473.00,0.0220
1472.00,0.0220
1471.00,0.0219
1470.00,0.0219
1469.00,0.0220
1468.00,0.0220
1467.00,0.0221
1466.00,0.0222
1465.00,0.0223
1464.00,0.0224
1463.00,0.0225
1462.00,0.0225
1461.00,0.0224
1460.00,0.0224
1459.00,0.0224
1458.00,0.0227
1457.00,0.0230
1456.00,0.0232
1455.00,0.0232
1454.00,0.0232
1453.00,0.0233
1452.00,0.0234
1451.00,0.0234
1450.00,0.0235
1449.00,0.0236
1448.00,0.0237
1447.00,0.0238
1446.00,0.0239
1445.00,0.0240
1444.00,0.0240
1443.00,0.0241
1442.00,0.0242
1441.00,0.0242
1440.00,0.0243
1439.00,0.0244
1438.00,0.0244
1437.00,0.0246
1436.00,0.0247
1435.00,0.0247
1434.00,0.0247
1433.00,0.0248
1432.00,0.0248
1431.00,0.0249
1430.00,0.0249
1429.00,0.0250
1428.00,0.0251
1427.00,0.0251
1426.00,0.0252
1425.00,0.0252
1424.00,0.0253
1423.00,0.0253
1422.00,0.0253
1421.00,0.0253
1420.00,0.0253
1419.00,0.0254
1418.00,0.0255
1417.00,0.0256
1416.00,0.0257
1415.00,0.0258
1414.00,0.0259
1413.00,0.0259
1412.00,0.0259
1411.00,0.0259
1410.00,0.0259
1409.00,0.0260
1408.00,0.0260
1407.00,0.0260
1406.00,0.0259
1405.00,0.0260
1404.00,0.0260
1403.00,0.0261
1402.00,0.0261
1401.00,0.0261
1400.00,0.0262
1399.00,0.0263
1398.00,0.0264
1397.00,0.0264
1396.00,0.0264
1395.00,0.0264
1394.00,0.0265
1393.00,0.0265
1392.00,0.0265
1391.00,0.0265
1390.00,0.0265
1389.00,0.0265
1388.00,0.0266
1387.00,0.0267
1386.00,0.0267
1385.00,0.0267
1384.00,0.0267
1383.00,0.0267
1382.00,0.0267
1381.00,0.0267
1380.00,0.0267
1379.00,0.0267
1378.00,0.0266
1377.00,0.0266
1376.00,0.0265
1375.00,0.0265
1374.00,0.0265
1373.00,0.0265
1372.00,0.0265
1371.00,0.0265
1370.00,0.0264
1369.00,0.0263
1368.00,0.0263
1367.00,0.0263
1366.00,0.0262
1365.00,0.0260
1364.00,0.0259
1363.00,0.0258
1362.00,0.0258
1361.00,0.0257
1360.00,0.0257
1359.00,0.0257
1358.00,0.0256
1357.00,0.0255
1356.00,0.0254
1355.00,0.0253
1354.00,0.0252
1353.00,0.0251
1352.00,0.0250
1351.00,0.0249
1350.00,0.0248
1349.00,0.0247
1348.00,0.0246
1347.00,0.0245
1346.00,0.0244
1345.00,0.0243
1344.00,0.0242
1343.00,0.0241
1342.00,0.0239
1341.00,0.0238
1340.00,0.0237
1339.00,0.0237
1338.00,0.0236
1337.00,0.0235
1336.00,0.0234
1335.00,0.0233
1334.00,0.0232
1333.00,0.0231
1332.00,0.0230
1331.00,0.0230
1330.00,0.0229
1329.00,0.0228
1328.00,0.0228
1327.00,0.0227
1326.00,0.0226
1325.00,0.0225
1324.00,0.0224
1323.00,0.0224
1322.00,0.0224
1321.00,0.0223
1320.00,0.0223
1319.00,0.0223
1318.00,0.0222
1317.00,0.0222
1316.00,0.0222
1315.00,0.0221
1314.00,0.0221
1313.00,0.0220
1312.00,0.0220
1311.00,0.0220
1310.00,0.0219
1309.00,0.0219
1308.00,0.0219
1307.00,0.0219
1306.00,0.0219
1305.00,0.0219
1304.00,0.0219
1303.00,0.0219
1302.00,0.0219
1301.00,0.0218
1300.00,0.0218
1299.00,0.0218
1298.00,0.0218
1297.00,0.0218
1296.00,0.0218
1295.00,0.0218
1294.00,0.0219
1293.00,0.0219
1292.00,0.0219
1291.00,0.0220
1290.00,0.0220
1289.00,0.0219
1288.00,0.0219
1287.00,0.0219
1286.00,0.0219
1285.00,0.0219
1284.00,0.0219
1283.00,0.0220
1282.00,0.0220
1281.00,0.0221
1280.00,0.0221
1279.00,0.0221
1278.00,0.0221
1277.00,0.0221
1276.00,0.0221
1275.00,0.0221
1274.00,0.0222
1273.00,0.0222
1272.00,0.0222
1271.00,0.0223
1270.00,0.0223
1269.00,0.0224
1268.00,0.0224
1267.00,0.0225
1266.00,0.0226
1265.00,0.0226
1264.00,0.0226
1263.00,0.0227
1262.00,0.0228
1261.00,0.0229
1260.00,0.0230
1259.00,0.0231
1258.00,0.0232
1257.00,0.0233
1256.00,0.0234
1255.00,0.0235
1254.00,0.0236
1253.00,0.0237
1252.00,0.0238
1251.00,0.0239
1250.00,0.0240
1249.00,0.0241
1248.00,0.0243
1247.00,0.0244
1246.00,0.0245
1245.00,0.0246
1244.00,0.0247
1243.00,0.0248
1242.00,0.0249
1241.00,0.0251
1240.00,0.0252
1239.00,0.0253
1238.00,0.0254
1237.00,0.0254
1236.00,0.0255
1235.00,0.0256
1234.00,0.0257
1233.00,0.0258
1232.00,0.0259
1231.00,0.0260
1230.00,0.0260
1229.00,0.0261
1228.00,0.0262
1227.00,0.0263
1226.00,0.0264
1225.00,0.0264
1224.00,0.0265
1223.00,0.0266
1222.00,0.0267
1221.00,0.0268
1220.00,0.0268
1219.00,0.0269
1218.00,0.0269
1217.00,0.0270
1216.00,0.0271
1215.00,0.0272
1214.00,0.0273
1213.00,0.0274
1212.00,0.0275
1211.00,0.0277
1210.00,0.0278
1209.00,0.0280
1208.00,0.0281
1207.00,0.0283
1206.00,0.0284
1205.00,0.0285
1204.00,0.0286
1203.00,0.0288
1202.00,0.0289
1201.00,0.0290
1200.00,0.0291
1199.00,0.0292
1198.00,0.0293
1197.00,0.0295
1196.00,0.0297
1195.00,0.0299
1194.00,0.0300
1193.00,0.0301
1192.00,0.0302
1191.00,0.0304
1190.00,0.0305
1189.00,0.0306
1188.00,0.0306
1187.00,0.0308
1186.00,0.0309
1185.00,0.0311
1184.00,0.0314
1183.00,0.0316
1182.00,0.0318
1181.00,0.0320
1180.00,0.0322
1179.00,0.0324
1178.00,0.0326
1177.00,0.0327
1176.00,0.0328
1175.00,0.0330
1174.00,0.0331
1173.00,0.0332
1172.00,0.0334
1171.00,0.0336
1170.00,0.0339
1169.00,0.0341
1168.00,0.0344
1167.00,0.0347
1166.00,0.0348
1165.00,0.0349
1164.00,0.0350
1163.00,0.0351
1162.00,0.0351
1161.00,0.0350
1160.00,0.0349
1159.00,0.0348
1158.00,0.0348
1157.00,0.0349
1156.00,0.0350
1155.00,0.0351
1154.00,0.0352
1153.00,0.0354
1152.00,0.0356
1151.00,0.0358
1150.00,0.0360
1149.00,0.0363
1148.00,0.0366
1147.00,0.0369
1146.00,0.0372
1145.00,0.0375
1144.00,0.0379
1143.00,0.0382
1142.00,0.0386
1141.00,0.0389
1140.00,0.0392
1139.00,0.0396
1138.00,0.0400
1137.00,0.0405
1136.00,0.0410
1135.00,0.0416
1134.00,0.0422
1133.00,0.0429
1132.00,0.0435
1131.00,0.0442
1130.00,0.0450
1129.00,0.0458
1128.00,0.0466
1127.00,0.0476
1126.00,0.0486
1125.00,0.0497
1124.00,0.0511
1123.00,0.0526
1122.00,0.0543
1121.00,0.0561
1120.00,0.0579
1119.00,0.0595
1118.00,0.0609
1117.00,0.0620
1116.00,0.0628
1115.00,0.0632
1114.00,0.0632
1113.00,0.0632
1112.00,0.0633
1111.00,0.0636
1110.00,0.0639
1109.00,0.0645
1108.00,0.0652
1107.00,0.0659
1106.00,0.0667
1105.00,0.0673
1104.00,0.0680
1103.00,0.0688
1102.00,0.0695
1101.00,0.0702
1100.00,0.0708
1099.00,0.0713
1098.00,0.0718
1097.00,0.0722
1096.00,0.0726
1095.00,0.0729
1094.00,0.0732
1093.00,0.0736
1092.00,0.0740
1091.00,0.0744
1090.00,0.0748
1089.00,0.0751
1088.00,0.0753
1087.00,0.0753
1086.00,0.0753
1085.00,0.0754
1084.00,0.0756
1083.00,0.0757
1082.00,0.0758
1081.00,0.0759
1080.00,0.0760
1079.00,0.0762
1078.00,0.0765
1077.00,0.0769
1076.00,0.0773
1075.00,0.0777
1074.00,0.0780
1073.00,0.0783
1072.00,0.0786
1071.00,0.0789
1070.00,0.0792
1069.00,0.0796
1068.00,0.0802
1067.00,0.0808
1066.00,0.0813
1065.00,0.0820
1064.00,0.0826
1063.00,0.0833
1062.00,0.0839
1061.00,0.0846
1060.00,0.0853
1059.00,0.0860
1058.00,0.0868
1057.00,0.0876
1056.00,0.0885
1055.00,0.0895
1054.00,0.0905
1053.00,0.0915
1052.00,0.0928
1051.00,0.0940
1050.00,0.0952
1049.00,0.0965
1048.00,0.0980
1047.00,0.0994
1046.00,0.1008
1045.00,0.1023
1044.00,0.1037
1043.00,0.1053
1042.00,0.1069
1041.00,0.1086
1040.00,0.1106
1039.00,0.1126
1038.00,0.1145
1037.00,0.1164
1036.00,0.1182
1035.00,0.1198
1034.00,0.1209
1033.00,0.1216
1032.00,0.1219
1031.00,0.1217
1030.00,0.1210
1029.00,0.1201
1028.00,0.1189
1027.00,0.1174
1026.00,0.1158
1025.00,0.1143
1024.00,0.1129
1023.00,0.1118
1022.00,0.1109
1021.00,0.1103
1020.00,0.1100
1019.00,0.1099
1018.00,0.1101
1017.00,0.1104
1016.00,0.1110
1015.00,0.1118
1014.00,0.1127
1013.00,0.1137
1012.00,0.1147
1011.00,0.1158
1010.00,0.1169
1009.00,0.1180
1008.00,0.1189
1007.00,0.1196
1006.00,0.1199
1005.00,0.1200
1004.00,0.1198
1003.00,0.1194
1002.00,0.1186
1001.00,0.1176
1000.00,0.1162
999.00,0.1146
998.00,0.1127
997.00,0.1107
996.00,0.1087
995.00,0.1067
994.00,0.1047
993.00,0.1028
992.00,0.1010
991.00,0.0992
990.00,0.0975
989.00,0.0958
988.00,0.0942
987.00,0.0927
986.00,0.0913
985.00,0.0900
984.00,0.0887
983.00,0.0875
982.00,0.0863
981.00,0.0851
980.00,0.0841
979.00,0.0830
978.00,0.0819
977.00,0.0809
976.00,0.0799
975.00,0.0790
974.00,0.0781
973.00,0.0773
972.00,0.0766
971.00,0.0760
970.00,0.0753
969.00,0.0748
968.00,0.0743
967.00,0.0738
966.00,0.0734
965.00,0.0729
964.00,0.0725
963.00,0.0719
962.00,0.0713
961.00,0.0708
960.00,0.0703
959.00,0.0700
958.00,0.0696
957.00,0.0694
956.00,0.0692
955.00,0.0690
954.00,0.0689
953.00,0.0689
952.00,0.0689
951.00,0.0688
950.00,0.0689
949.00,0.0690
948.00,0.0692
947.00,0.0696
946.00,0.0701
945.00,0.0707
944.00,0.0714
943.00,0.0722
942.00,0.0729
941.00,0.0735
940.00,0.0741
939.00,0.0746
938.00,0.0749
937.00,0.0750
936.00,0.0749
935.00,0.0746
934.00,0.0743
933.00,0.0739
932.00,0.0736
931.00,0.0733
930.00,0.0731
929.00,0.0729
928.00,0.0729
927.00,0.0730
926.00,0.0733
925.00,0.0738
924.00,0.0744
923.00,0.0751
922.00,0.0759
921.00,0.0768
920.00,0.0779
919.00,0.0791
918.00,0.0806
917.00,0.0822
916.00,0.0837
915.00,0.0849
914.00,0.0856
913.00,0.0859
912.00,0.0858
911.00,0.0854
910.00,0.0846
909.00,0.0835
908.00,0.0822
907.00,0.0808
906.00,0.0794
905.00,0.0781
904.00,0.0769
903.00,0.0757
902.00,0.0745
901.00,0.0733
900.00,0.0721
899.00,0.0710
898.00,0.0699
897.00,0.0687
896.00,0.0676
895.00,0.0665
894.00,0.0654
893.00,0.0644
892.00,0.0635
891.00,0.0626
890.00,0.0618
889.00,0.0612
888.00,0.0606
887.00,0.0600
886.00,0.0595
885.00,0.0589
884.00,0.0583
883.00,0.0577
882.00,0.0570
881.00,0.0564
880.00,0.0559
879.00,0.0555
878.00,0.0551
877.00,0.0546
876.00,0.0542
875.00,0.0538
874.00,0.0534
873.00,0.0531
872.00,0.0528
871.00,0.0525
870.00,0.0521
869.00,0.0517
868.00,0.0512
867.00,0.0508
866.00,0.0503
865.00,0.0498
864.00,0.0494
863.00,0.0490
862.00,0.0487
861.00,0.0485
860.00,0.0485
859.00,0.0484
858.00,0.0483
857.00,0.0481
856.00,0.0478
855.00,0.0476
854.00,0.0473
853.00,0.0471
852.00,0.0469
851.00,0.0467
850.00,0.0466
849.00,0.0466
848.00,0.0466
847.00,0.0465
846.00,0.0465
845.00,0.0466
844.00,0.0468
843.00,0.0470
842.00,0.0470
841.00,0.0471
840.00,0.0471
839.00,0.0471
838.00,0.0471
837.00,0.0471
836.00,0.0471
835.00,0.0472
834.00,0.0474
833.00,0.0477
832.00,0.0480
831.00,0.0483
830.00,0.0485
829.00,0.0486
828.00,0.0485
827.00,0.0484
826.00,0.0482
825.00,0.0483
824.00,0.0485
823.00,0.0488
822.00,0.0491
821.00,0.0493
820.00,0.0495
819.00,0.0495
818.00,0.0496
817.00,0.0497
816.00,0.0499
815.00,0.0501
814.00,0.0502
813.00,0.0505
812.00,0.0509
811.00,0.0512
810.00,0.0517
809.00,0.0522
808.00,0.0530
807.00,0.0540
806.00,0.0552
805.00,0.0566
804.00,0.0582
803.00,0.0598
802.00,0.0611
801.00,0.0621
800.00,0.0629
799.00,0.0635
798.00,0.0639
797.00,0.0642
796.00,0.0644
795.00,0.0644
794.00,0.0643
793.00,0.0641
792.00,0.0639
791.00,0.0638
790.00,0.0637
789.00,0.0635
788.00,0.0633
787.00,0.0630
786.00,0.0627
785.00,0.0624
784.00,0.0623
783.00,0.0623
782.00,0.0625
781.00,0.0629
780.00,0.0633
779.00,0.0636
778.00,0.0635
777.00,0.0631
776.00,0.0625
775.00,0.0619
774.00,0.0614
773.00,0.0610
772.00,0.0607
771.00,0.0604
770.00,0.0602
769.00,0.0601
768.00,0.0601
767.00,0.0602
766.00,0.0604
765.00,0.0605
764.00,0.0607
763.00,0.0607
762.00,0.0609
761.00,0.0611
760.00,0.0614
759.00,0.0617
758.00,0.0621
757.00,0.0624
756.00,0.0626
755.00,0.0627
754.00,0.0627
753.00,0.0628
752.00,0.0629
751.00,0.0630
750.00,0.0632
749.00,0.0633
748.00,0.0633
747.00,0.0632
746.00,0.0628
745.00,0.0625
744.00,0.0621
743.00,0.0617
742.00,0.0613
741.00,0.0608
740.00,0.0603
739.00,0.0599
738.00,0.0595
737.00,0.0591
736.00,0.0589
735.00,0.0586
734.00,0.0584
733.00,0.0583
732.00,0.0583
731.00,0.0583
730.00,0.0581
729.00,0.0579
728.00,0.0576
727.00,0.0572
726.00,0.0568
725.00,0.0566
724.00,0.0565
723.00,0.0566
722.00,0.0568
721.00,0.0570
720.00,0.0571
719.00,0.0571
718.00,0.0570
717.00,0.0570
716.00,0.0569
715.00,0.0569
714.00,0.0570
713.00,0.0573
712.00,0.0578
711.00,0.0585
710.00,0.0593
709.00,0.0603
708.00,0.0613
707.00,0.0624
706.00,0.0634
705.00,0.0643
704.00,0.0651
703.00,0.0659
702.00,0.0667
701.00,0.0677
700.00,0.0690
699.00,0.0703
698.00,0.0714
697.00,0.0725
696.00,0.0736
695.00,0.0746
694.00,0.0753
693.00,0.0756
692.00,0.0755
691.00,0.0752
690.00,0.0747
689.00,0.0743
688.00,0.0742
687.00,0.0745
686.00,0.0750
685.00,0.0755
684.00,0.0758
683.00,0.0758
682.00,0.0756
681.00,0.0753
680.00,0.0751
679.00,0.0748
678.00,0.0744
677.00,0.0740
676.00,0.0739
675.00,0.0739
674.00,0.0741
673.00,0.0742
672.00,0.0742
671.00,0.0738
670.00,0.0732
669.00,0.0728
668.00,0.0729
667.00,0.0734
666.00,0.0738
665.00,0.0739
664.00,0.0738
663.00,0.0735
662.00,0.0733
661.00,0.0732
660.00,0.0733
659.00,0.0736
658.00,0.0738
657.00,0.0740
656.00,0.0743
655.00,0.0745
654.00,0.0747
653.00,0.0749
652.00,0.0751
651.00,0.0750
650.00,0.0744
