Created as New Dataset,
cm-1,A
4000.00,0.0091
3999.00,0.0091
3998.00,0.0091
3997.00,0.0091
3996.00,0.0091
3995.00,0.0092
3994.00,0.0092
3993.00,0.0091
3992.00,0.0091
3991.00,0.0091
3990.00,0.0090
3989.00,0.0090
3988.00,0.0090
3987.00,0.0090
3986.00,0.0090
3985.00,0.0090
3984.00,0.0091
3983.00,0.0091
3982.00,0.0091
3981.00,0.0091
3980.00,0.0091
3979.00,0.0091
3978.00,0.0091
3977.00,0.0090
3976.00,0.0090
3975.00,0.0090
3974.00,0.0090
3973.00,0.0090
3972.00,0.0090
3971.00,0.0089
3970.00,0.0089
3969.00,0.0088
3968.00,0.0088
3967.00,0.0088
3966.00,0.0088
3965.00,0.0088
3964.00,0.0088
3963.00,0.0089
3962.00,0.0089
3961.00,0.0089
3960.00,0.0089
3959.00,0.0089
3958.00,0.0089
3957.00,0.0089
3956.00,0.0088
3955.00,0.0088
3954.00,0.0087
3953.00,0.0087
3952.00,0.0087
3951.00,0.0086
3950.00,0.0086
3949.00,0.0086
3948.00,0.0086
3947.00,0.0086
3946.00,0.0086
3945.00,0.0086
3944.00,0.0086
3943.00,0.0086
3942.00,0.0086
3941.00,0.0086
3940.00,0.0087
3939.00,0.0088
3938.00,0.0088
3937.00,0.0087
3936.00,0.0087
3935.00,0.0086
3934.00,0.0086
3933.00,0.0086
3932.00,0.0085
3931.00,0.0085
3930.00,0.0085
3929.00,0.0085
3928.00,0.0085
3927.00,0.0085
3926.00,0.0085
3925.00,0.0084
3924.00,0.0084
3923.00,0.0083
3922.00,0.0083
3921.00,0.0082
3920.00,0.0082
3919.00,0.0082
3918.00,0.0083
3917.00,0.0083
3916.00,0.0083
3915.00,0.0083
3914.00,0.0084
3913.00,0.0085
3912.00,0.0086
3911.00,0.0086
3910.00,0.0086
3909.00,0.0084
3908.00,0.0083
3907.00,0.0081
3906.00,0.0079
3905.00,0.0078
3904.00,0.0077
3903.00,0.0077
3902.00,0.0077
3901.00,0.0078
3900.00,0.0079
3899.00,0.0079
3898.00,0.0079
3897.00,0.0080
3896.00,0.0081
3895.00,0.0081
3894.00,0.0081
3893.00,0.0081
3892.00,0.0082
3891.00,0.0081
3890.00,0.0079
3889.00,0.0078
3888.00,0.0079
3887.00,0.0080
3886.00,0.0081
3885.00,0.0080
3884.00,0.0078
3883.00,0.0078
3882.00,0.0079
3881.00,0.0080
3880.00,0.0079
3879.00,0.0078
3878.00,0.0078
3877.00,0.0079
3876.00,0.0080
3875.00,0.0080
3874.00,0.0078
3873.00,0.0075
3872.00,0.0075
3871.00,0.0076
3870.00,0.0076
3869.00,0.0075
3868.00,0.0073
3867.00,0.0074
3866.00,0.0076
3865.00,0.0077
3864.00,0.0078
3863.00,0.0078
3862.00,0.0078
3861.00,0.0079
3860.00,0.0078
3859.00,0.0077
3858.00,0.0075
3857.00,0.0072
3856.00,0.0069
3855.00,0.0069
3854.00,0.0072
3853.00,0.0072
3852.00,0.0069
3851.00,0.0067
3850.00,0.0071
3849.00,0.0075
3848.00,0.0077
3847.00,0.0078
3846.00,0.0077
3845.00,0.0076
3844.00,0.0075
3843.00,0.0073
3842.00,0.0072
3841.00,0.0071
3840.00,0.0071
3839.00,0.0072
3838.00,0.0072
3837.00,0.0072
3836.00,0.0071
3835.00,0.0072
3834.00,0.0073
3833.00,0.0075
3832.00,0.0076
3831.00,0.0076
3830.00,0.0076
3829.00,0.0077
3828.00,0.0077
3827.00,0.0077
3826.00,0.0076
3825.00,0.0074
3824.00,0.0072
3823.00,0.0072
3822.00,0.0072
3821.00,0.0072
3820.00,0.0069
3819.00,0.0068
3818.00,0.0071
3817.00,0.0074
3816.00,0.0075
3815.00,0.0074
3814.00,0.0073
3813.00,0.0075
3812.00,0.0076
3811.00,0.0076
3810.00,0.0075
3809.00,0.0074
3808.00,0.0075
3807.00,0.0074
3806.00,0.0072
3805.00,0.0069
3804.00,0.0069
3803.00,0.0071
3802.00,0.0072
3801.00,0.0072
3800.00,0.0070
3799.00,0.0069
3798.00,0.0071
3797.00,0.0073
3796.00,0.0074
3795.00,0.0074
3794.00,0.0075
3793.00,0.0076
3792.00,0.0077
3791.00,0.0078
3790.00,0.0077
3789.00,0.0077
3788.00,0.0076
3787.00,0.0075
3786.00,0.0075
3785.00,0.0075
3784.00,0.0074
3783.00,0.0073
3782.00,0.0073
3781.00,0.0073
3780.00,0.0074
3779.00,0.0074
3778.00,0.0074
3777.00,0.0074
3776.00,0.0075
3775.00,0.0076
3774.00,0.0075
3773.00,0.0073
3772.00,0.0072
3771.00,0.0072
3770.00,0.0072
3769.00,0.0071
3768.00,0.0070
3767.00,0.0071
3766.00,0.0073
3765.00,0.0073
3764.00,0.0072
3763.00,0.0072
3762.00,0.0073
3761.00,0.0073
3760.00,0.0073
3759.00,0.0072
3758.00,0.0071
3757.00,0.0069
3756.00,0.0067
3755.00,0.0066
3754.00,0.0064
3753.00,0.0063
3752.00,0.0063
3751.00,0.0064
3750.00,0.0064
3749.00,0.0063
3748.00,0.0061
3747.00,0.0061
3746.00,0.0063
3745.00,0.0065
3744.00,0.0064
3743.00,0.0061
3742.00,0.0060
3741.00,0.0063
3740.00,0.0065
3739.00,0.0064
3738.00,0.0062
3737.00,0.0061
3736.00,0.0060
3735.00,0.0060
3734.00,0.0061
3733.00,0.0062
3732.00,0.0063
3731.00,0.0064
3730.00,0.0065
3729.00,0.0066
3728.00,0.0068
3727.00,0.0068
3726.00,0.0067
3725.00,0.0066
3724.00,0.0066
3723.00,0.0066
3722.00,0.0067
3721.00,0.0068
3720.00,0.0069
3719.00,0.0070
3718.00,0.0071
3717.00,0.0071
3716.00,0.0070
3715.00,0.0068
3714.00,0.0067
3713.00,0.0065
3712.00,0.0065
3711.00,0.0065
3710.00,0.0066
3709.00,0.0067
3708.00,0.0068
3707.00,0.0069
3706.00,0.0070
3705.00,0.0070
3704.00,0.0070
3703.00,0.0071
3702.00,0.0072
3701.00,0.0072
3700.00,0.0072
3699.00,0.0072
3698.00,0.0073
3697.00,0.0074
3696.00,0.0074
3695.00,0.0073
3694.00,0.0072
3693.00,0.0070
3692.00,0.0068
3691.00,0.0068
3690.00,0.0069
3689.00,0.0071
3688.00,0.0071
3687.00,0.0070
3686.00,0.0072
3685.00,0.0074
3684.00,0.0076
3683.00,0.0076
3682.00,0.0076
3681.00,0.0074
3680.00,0.0071
3679.00,0.0068
3678.00,0.0066
3677.00,0.0067
3676.00,0.0070
3675.00,0.0070
3674.00,0.0068
3673.00,0.0067
3672.00,0.0070
3671.00,0.0073
3670.00,0.0075
3669.00,0.0075
3668.00,0.0076
3667.00,0.0079
3666.00,0.0082
3665.00,0.0084
3664.00,0.0085
3663.00,0.0086
3662.00,0.0086
3661.00,0.0086
3660.00,0.0086
3659.00,0.0086
3658.00,0.0086
3657.00,0.0088
3656.00,0.0089
3655.00,0.0088
3654.00,0.0087
3653.00,0.0085
3652.00,0.0083
3651.00,0.0081
3650.00,0.0082
3649.00,0.0086
3648.00,0.0089
3647.00,0.0091
3646.00,0.0093
3645.00,0.0096
3644.00,0.0100
3643.00,0.0103
3642.00,0.0105
3641.00,0.0106
3640.00,0.0106
3639.00,0.0107
3638.00,0.0107
3637.00,0.0108
3636.00,0.0108
3635.00,0.0108
3634.00,0.0108
3633.00,0.0106
3632.00,0.0104
3631.00,0.0104
3630.00,0.0107
3629.00,0.0110
3628.00,0.0111
3627.00,0.0111
3626.00,0.0112
3625.00,0.0115
3624.00,0.0117
3623.00,0.0117
3622.00,0.0117
3621.00,0.0118
3620.00,0.0120
3619.00,0.0121
3618.00,0.0122
3617.00,0.0122
3616.00,0.0122
3615.00,0.0123
3614.00,0.0125
3613.00,0.0125
3612.00,0.0126
3611.00,0.0126
3610.00,0.0127
3609.00,0.0129
3608.00,0.0130
3607.00,0.0131
3606.00,0.0132
3605.00,0.0133
3604.00,0.0134
3603.00,0.0135
3602.00,0.0136
3601.00,0.0136
3600.00,0.0137
3599.00,0.0137
3598.00,0.0137
3597.00,0.0137
3596.00,0.0138
3595.00,0.0140
3594.00,0.0141
3593.00,0.0141
3592.00,0.0141
3591.00,0.0140
3590.00,0.0140
3589.00,0.0140
3588.00,0.0142
3587.00,0.0145
3586.00,0.0146
3585.00,0.0147
3584.00,0.0149
3583.00,0.0151
3582.00,0.0152
3581.00,0.0153
3580.00,0.0154
3579.00,0.0155
3578.00,0.0155
3577.00,0.0155
3576.00,0.0155
3575.00,0.0155
3574.00,0.0156
3573.00,0.0155
3572.00,0.0154
3571.00,0.0152
3570.00,0.0150
3569.00,0.0149
3568.00,0.0150
3567.00,0.0153
3566.00,0.0156
3565.00,0.0157
3564.00,0.0159
3563.00,0.0161
3562.00,0.0163
3561.00,0.0164
3560.00,0.0165
3559.00,0.0165
3558.00,0.0165
3557.00,0.0165
3556.00,0.0165
3555.00,0.0164
3554.00,0.0165
3553.00,0.0166
3552.00,0.0167
3551.00,0.0167
3550.00,0.0167
3549.00,0.0167
3548.00,0.0167
3547.00,0.0168
3546.00,0.0170
3545.00,0.0171
3544.00,0.0173
3543.00,0.0173
3542.00,0.0174
3541.00,0.0174
3540.00,0.0174
3539.00,0.0175
3538.00,0.0175
3537.00,0.0176
3536.00,0.0177
3535.00,0.0177
3534.00,0.0177
3533.00,0.0177
3532.00,0.0177
3531.00,0.0177
3530.00,0.0177
3529.00,0.0178
3528.00,0.0179
3527.00,0.0179
3526.00,0.0180
3525.00,0.0181
3524.00,0.0181
3523.00,0.0182
3522.00,0.0183
3521.00,0.0184
3520.00,0.0184
3519.00,0.0185
3518.00,0.0186
3517.00,0.0187
3516.00,0.0187
3515.00,0.0187
3514.00,0.0188
3513.00,0.0188
3512.00,0.0188
3511.00,0.0188
3510.00,0.0189
3509.00,0.0190
3508.00,0.0190
3507.00,0.0190
3506.00,0.0190
3505.00,0.0191
3504.00,0.0191
3503.00,0.0192
3502.00,0.0193
3501.00,0.0194
3500.00,0.0195
3499.00,0.0195
3498.00,0.0195
3497.00,0.0195
3496.00,0.0196
3495.00,0.0196
3494.00,0.0197
3493.00,0.0197
3492.00,0.0197
3491.00,0.0197
3490.00,0.0197
3489.00,0.0197
3488.00,0.0198
3487.00,0.0198
3486.00,0.0199
3485.00,0.0200
3484.00,0.0200
3483.00,0.0201
3482.00,0.0201
3481.00,0.0202
3480.00,0.0203
3479.00,0.0203
3478.00,0.0203
3477.00,0.0203
3476.00,0.0204
3475.00,0.0204
3474.00,0.0205
3473.00,0.0206
3472.00,0.0207
3471.00,0.0207
3470.00,0.0207
3469.00,0.0207
3468.00,0.0207
3467.00,0.0207
3466.00,0.0207
3465.00,0.0207
3464.00,0.0208
3463.00,0.0209
3462.00,0.0209
3461.00,0.0209
3460.00,0.0209
3459.00,0.0210
3458.00,0.0210
3457.00,0.0210
3456.00,0.0211
3455.00,0.0212
3454.00,0.0212
3453.00,0.0213
3452.00,0.0213
3451.00,0.0213
3450.00,0.0213
3449.00,0.0213
3448.00,0.0213
3447.00,0.0214
3446.00,0.0214
3445.00,0.0215
3444.00,0.0215
3443.00,0.0216
3442.00,0.0216
3441.00,0.0217
3440.00,0.0217
3439.00,0.0217
3438.00,0.0217
3437.00,0.0217
3436.00,0.0217
3435.00,0.0217
3434.00,0.0218
3433.00,0.0218
3432.00,0.0218
3431.00,0.0219
3430.00,0.0219
3429.00,0.0219
3428.00,0.0219
3427.00,0.0219
3426.00,0.0220
3425.00,0.0220
3424.00,0.0221
3423.00,0.0221
3422.00,0.0221
3421.00,0.0221
3420.00,0.0222
3419.00,0.0222
3418.00,0.0223
3417.00,0.0223
3416.00,0.0223
3415.00,0.0223
3414.00,0.0223
3413.00,0.0224
3412.00,0.0224
3411.00,0.0225
3410.00,0.0225
3409.00,0.0225
3408.00,0.0225
3407.00,0.0226
3406.00,0.0226
3405.00,0.0227
3404.00,0.0227
3403.00,0.0227
3402.00,0.0227
3401.00,0.0227
3400.00,0.0227
3399.00,0.0227
3398.00,0.0227
3397.00,0.0227
3396.00,0.0226
3395.00,0.0226
3394.00,0.0227
3393.00,0.0227
3392.00,0.0228
3391.00,0.0229
3390.00,0.0229
3389.00,0.0229
3388.00,0.0229
3387.00,0.0229
3386.00,0.0229
3385.00,0.0230
3384.00,0.0230
3383.00,0.0229
3382.00,0.0229
3381.00,0.0229
3380.00,0.0229
3379.00,0.0229
3378.00,0.0230
3377.00,0.0230
3376.00,0.0230
3375.00,0.0230
3374.00,0.0231
3373.00,0.0231
3372.00,0.0231
3371.00,0.0231
3370.00,0.0231
3369.00,0.0231
3368.00,0.0231
3367.00,0.0231
3366.00,0.0232
3365.00,0.0232
3364.00,0.0233
3363.00,0.0233
3362.00,0.0233
3361.00,0.0233
3360.00,0.0233
3359.00,0.0233
3358.00,0.0233
3357.00,0.0234
3356.00,0.0234
3355.00,0.0234
3354.00,0.0233
3353.00,0.0233
3352.00,0.0233
3351.00,0.0233
3350.00,0.0233
3349.00,0.0233
3348.00,0.0233
3347.00,0.0233
3346.00,0.0233
3345.00,0.0233
3344.00,0.0233
3343.00,0.0233
3342.00,0.0233
3341.00,0.0233
3340.00,0.0234
3339.00,0.0234
3338.00,0.0235
3337.00,0.0235
3336.00,0.0235
3335.00,0.0235
3334.00,0.0235
3333.00,0.0235
3332.00,0.0235
3331.00,0.0235
3330.00,0.0235
3329.00,0.0235
3328.00,0.0235
3327.00,0.0235
3326.00,0.0235
3325.00,0.0235
3324.00,0.0235
3323.00,0.0235
3322.00,0.0235
3321.00,0.0235
3320.00,0.0235
3319.00,0.0235
3318.00,0.0235
3317.00,0.0235
3316.00,0.0235
3315.00,0.0235
3314.00,0.0234
3313.00,0.0234
3312.00,0.0234
3311.00,0.0234
3310.00,0.0235
3309.00,0.0235
3308.00,0.0236
3307.00,0.0236
3306.00,0.0237
3305.00,0.0237
3304.00,0.0238
3303.00,0.0238
3302.00,0.0238
3301.00,0.0237
3300.00,0.0236
3299.00,0.0235
3298.00,0.0235
3297.00,0.0235
3296.00,0.0235
3295.00,0.0236
3294.00,0.0236
3293.00,0.0236
3292.00,0.0236
3291.00,0.0236
3290.00,0.0237
3289.00,0.0237
3288.00,0.0237
3287.00,0.0237
3286.00,0.0237
3285.00,0.0237
3284.00,0.0237
3283.00,0.0237
3282.00,0.0237
3281.00,0.0237
3280.00,0.0237
3279.00,0.0237
3278.00,0.0237
3277.00,0.0237
3276.00,0.0237
3275.00,0.0237
3274.00,0.0238
3273.00,0.0238
3272.00,0.0238
3271.00,0.0238
3270.00,0.0237
3269.00,0.0237
3268.00,0.0237
3267.00,0.0237
3266.00,0.0237
3265.00,0.0238
3264.00,0.0238
3263.00,0.0238
3262.00,0.0238
3261.00,0.0238
3260.00,0.0238
3259.00,0.0238
3258.00,0.0238
3257.00,0.0238
3256.00,0.0238
3255.00,0.0238
3254.00,0.0238
3253.00,0.0238
3252.00,0.0238
3251.00,0.0238
3250.00,0.0238
3249.00,0.0238
3248.00,0.0238
3247.00,0.0239
3246.00,0.0239
3245.00,0.0240
3244.00,0.0240
3243.00,0.0239
3242.00,0.0239
3241.00,0.0239
3240.00,0.0239
3239.00,0.0238
3238.00,0.0238
3237.00,0.0239
3236.00,0.0239
3235.00,0.0240
3234.00,0.0240
3233.00,0.0241
3232.00,0.0241
3231.00,0.0242
3230.00,0.0241
3229.00,0.0241
3228.00,0.0241
3227.00,0.0241
3226.00,0.0241
3225.00,0.0241
3224.00,0.0241
3223.00,0.0241
3222.00,0.0241
3221.00,0.0241
3220.00,0.0241
3219.00,0.0241
3218.00,0.0241
3217.00,0.0240
3216.00,0.0240
3215.00,0.0239
3214.00,0.0240
3213.00,0.0240
3212.00,0.0241
3211.00,0.0241
3210.00,0.0241
3209.00,0.0241
3208.00,0.0241
3207.00,0.0241
3206.00,0.0241
3205.00,0.0241
3204.00,0.0241
3203.00,0.0241
3202.00,0.0241
3201.00,0.0242
3200.00,0.0242
3199.00,0.0242
3198.00,0.0242
3197.00,0.0242
3196.00,0.0241
3195.00,0.0241
3194.00,0.0241
3193.00,0.0241
3192.00,0.0241
3191.00,0.0241
3190.00,0.0241
3189.00,0.0240
3188.00,0.0240
3187.00,0.0241
3186.00,0.0241
3185.00,0.0241
3184.00,0.0242
3183.00,0.0242
3182.00,0.0242
3181.00,0.0241
3180.00,0.0241
3179.00,0.0241
3178.00,0.0241
3177.00,0.0241
3176.00,0.0241
3175.00,0.0241
3174.00,0.0241
3173.00,0.0241
3172.00,0.0241
3171.00,0.0241
3170.00,0.0241
3169.00,0.0241
3168.00,0.0240
3167.00,0.0240
3166.00,0.0240
3165.00,0.0240
3164.00,0.0240
3163.00,0.0240
3162.00,0.0240
3161.00,0.0240
3160.00,0.0240
3159.00,0.0240
3158.00,0.0241
3157.00,0.0240
3156.00,0.0240
3155.00,0.0239
3154.00,0.0239
3153.00,0.0239
3152.00,0.0239
3151.00,0.0239
3150.00,0.0239
3149.00,0.0239
3148.00,0.0239
3147.00,0.0239
3146.00,0.0239
3145.00,0.0240
3144.00,0.0240
3143.00,0.0240
3142.00,0.0240
3141.00,0.0240
3140.00,0.0240
3139.00,0.0240
3138.00,0.0240
3137.00,0.0239
3136.00,0.0239
3135.00,0.0239
3134.00,0.0239
3133.00,0.0238
3132.00,0.0238
3131.00,0.0239
3130.00,0.0239
3129.00,0.0239
3128.00,0.0239
3127.00,0.0239
3126.00,0.0238
3125.00,0.0238
3124.00,0.0238
3123.00,0.0238
3122.00,0.0237
3121.00,0.0237
3120.00,0.0237
3119.00,0.0237
3118.00,0.0236
3117.00,0.0236
3116.00,0.0237
3115.00,0.0237
3114.00,0.0238
3113.00,0.0238
3112.00,0.0238
3111.00,0.0238
3110.00,0.0237
3109.00,0.0236
3108.00,0.0236
3107.00,0.0236
3106.00,0.0237
3105.00,0.0237
3104.00,0.0237
3103.00,0.0237
3102.00,0.0237
3101.00,0.0237
3100.00,0.0237
3099.00,0.0237
3098.00,0.0237
3097.00,0.0237
3096.00,0.0237
3095.00,0.0237
3094.00,0.0237
3093.00,0.0237
3092.00,0.0237
3091.00,0.0236
3090.00,0.0236
3089.00,0.0236
3088.00,0.0236
3087.00,0.0237
3086.00,0.0237
3085.00,0.0236
3084.00,0.0236
3083.00,0.0236
3082.00,0.0236
3081.00,0.0236
3080.00,0.0236
3079.00,0.0236
3078.00,0.0236
3077.00,0.0236
3076.00,0.0236
3075.00,0.0235
3074.00,0.0235
3073.00,0.0235
3072.00,0.0235
3071.00,0.0235
3070.00,0.0235
3069.00,0.0235
3068.00,0.0235
3067.00,0.0235
3066.00,0.0235
3065.00,0.0235
3064.00,0.0235
3063.00,0.0235
3062.00,0.0234
3061.00,0.0234
3060.00,0.0234
3059.00,0.0234
3058.00,0.0234
3057.00,0.0234
3056.00,0.0234
3055.00,0.0234
3054.00,0.0234
3053.00,0.0234
3052.00,0.0234
3051.00,0.0233
3050.00,0.0233
3049.00,0.0233
3048.00,0.0232
3047.00,0.0232
3046.00,0.0232
3045.00,0.0232
3044.00,0.0232
3043.00,0.0232
3042.00,0.0232
3041.00,0.0231
3040.00,0.0231
3039.00,0.0231
3038.00,0.0231
3037.00,0.0231
3036.00,0.0230
3035.00,0.0230
3034.00,0.0230
3033.00,0.0229
3032.00,0.0230
3031.00,0.0230
3030.00,0.0230
3029.00,0.0230
3028.00,0.0230
3027.00,0.0229
3026.00,0.0229
3025.00,0.0228
3024.00,0.0228
3023.00,0.0228
3022.00,0.0228
3021.00,0.0228
3020.00,0.0228
3019.00,0.0228
3018.00,0.0227
3017.00,0.0227
3016.00,0.0226
3015.00,0.0226
3014.00,0.0226
3013.00,0.0227
3012.00,0.0227
3011.00,0.0227
3010.00,0.0227
3009.00,0.0226
3008.00,0.0225
3007.00,0.0225
3006.00,0.0225
3005.00,0.0225
3004.00,0.0225
3003.00,0.0224
3002.00,0.0224
3001.00,0.0224
3000.00,0.0224
2999.00,0.0223
2998.00,0.0223
2997.00,0.0222
2996.00,0.0222
2995.00,0.0222
2994.00,0.0222
2993.00,0.0221
2992.00,0.0221
2991.00,0.0220
2990.00,0.0220
2989.00,0.0220
2988.00,0.0220
2987.00,0.0220
2986.00,0.0219
2985.00,0.0219
2984.00,0.0219
2983.00,0.0218
2982.00,0.0217
2981.00,0.0217
2980.00,0.0217
2979.00,0.0217
2978.00,0.0217
2977.00,0.0217
2976.00,0.0217
2975.00,0.0217
2974.00,0.0216
2973.00,0.0216
2972.00,0.0215
2971.00,0.0214
2970.00,0.0213
2969.00,0.0213
2968.00,0.0212
2967.00,0.0212
2966.00,0.0212
2965.00,0.0211
2964.00,0.0211
2963.00,0.0210
2962.00,0.0210
2961.00,0.0209
2960.00,0.0209
2959.00,0.0209
2958.00,0.0209
2957.00,0.0208
2956.00,0.0208
2955.00,0.0208
2954.00,0.0208
2953.00,0.0209
2952.00,0.0209
2951.00,0.0209
2950.00,0.0209
2949.00,0.0209
2948.00,0.0209
2947.00,0.0209
2946.00,0.0209
2945.00,0.0209
2944.00,0.0209
2943.00,0.0208
2942.00,0.0208
2941.00,0.0207
2940.00,0.0206
2939.00,0.0205
2938.00,0.0204
2937.00,0.0203
2936.00,0.0202
2935.00,0.0201
2934.00,0.0200
2933.00,0.0199
2932.00,0.0197
2931.00,0.0196
2930.00,0.0195
2929.00,0.0194
2928.00,0.0193
2927.00,0.0192
2926.00,0.0191
2925.00,0.0190
2924.00,0.0190
2923.00,0.0189
2922.00,0.0189
2921.00,0.0189
2920.00,0.0189
2919.00,0.0188
2918.00,0.0187
2917.00,0.0187
2916.00,0.0188
2915.00,0.0190
2914.00,0.0192
2913.00,0.0194
2912.00,0.0196
2911.00,0.0197
2910.00,0.0199
2909.00,0.0199
2908.00,0.0200
2907.00,0.0201
2906.00,0.0201
2905.00,0.0200
2904.00,0.0200
2903.00,0.0201
2902.00,0.0201
2901.00,0.0201
2900.00,0.0202
2899.00,0.0202
2898.00,0.0202
2897.00,0.0201
2896.00,0.0201
2895.00,0.0201
2894.00,0.0201
2893.00,0.0201
2892.00,0.0201
2891.00,0.0202
2890.00,0.0202
2889.00,0.0202
2888.00,0.0202
2887.00,0.0202
2886.00,0.0202
2885.00,0.0202
2884.00,0.0202
2883.00,0.0202
2882.00,0.0203
2881.00,0.0203
2880.00,0.0202
2879.00,0.0201
2878.00,0.0201
2877.00,0.0200
2876.00,0.0200
2875.00,0.0199
2874.00,0.0199
2873.00,0.0198
2872.00,0.0197
2871.00,0.0197
2870.00,0.0196
2869.00,0.0196
2868.00,0.0196
2867.00,0.0195
2866.00,0.0195
2865.00,0.0195
2864.00,0.0194
2863.00,0.0194
2862.00,0.0194
2861.00,0.0193
2860.00,0.0193
2859.00,0.0192
2858.00,0.0191
2857.00,0.0190
2856.00,0.0189
2855.00,0.0188
2854.00,0.0187
2853.00,0.0187
2852.00,0.0187
2851.00,0.0187
2850.00,0.0187
2849.00,0.0187
2848.00,0.0188
2847.00,0.0189
2846.00,0.0190
2845.00,0.0191
2844.00,0.0192
2843.00,0.0193
2842.00,0.0193
2841.00,0.0194
2840.00,0.0194
2839.00,0.0195
2838.00,0.0195
2837.00,0.0195
2836.00,0.0195
2835.00,0.0195
2834.00,0.0194
2833.00,0.0194
2832.00,0.0194
2831.00,0.0194
2830.00,0.0194
2829.00,0.0194
2828.00,0.0195
2827.00,0.0195
2826.00,0.0195
2825.00,0.0194
2824.00,0.0194
2823.00,0.0193
2822.00,0.0193
2821.00,0.0193
2820.00,0.0193
2819.00,0.0193
2818.00,0.0193
2817.00,0.0193
2816.00,0.0192
2815.00,0.0192
2814.00,0.0192
2813.00,0.0191
2812.00,0.0191
2811.00,0.0191
2810.00,0.0191
2809.00,0.0191
2808.00,0.0191
2807.00,0.0190
2806.00,0.0190
2805.00,0.0190
2804.00,0.0190
2803.00,0.0189
2802.00,0.0189
2801.00,0.0189
2800.00,0.0189
2799.00,0.0188
2798.00,0.0188
2797.00,0.0188
2796.00,0.0188
2795.00,0.0188
2794.00,0.0187
2793.00,0.0187
2792.00,0.0187
2791.00,0.0186
2790.00,0.0186
2789.00,0.0186
2788.00,0.0186
2787.00,0.0186
2786.00,0.0186
2785.00,0.0186
2784.00,0.0186
2783.00,0.0186
2782.00,0.0186
2781.00,0.0186
2780.00,0.0185
2779.00,0.0185
2778.00,0.0185
2777.00,0.0185
2776.00,0.0185
2775.00,0.0185
2774.00,0.0185
2773.00,0.0184
2772.00,0.0184
2771.00,0.0183
2770.00,0.0183
2769.00,0.0183
2768.00,0.0182
2767.00,0.0182
2766.00,0.0182
2765.00,0.0182
2764.00,0.0183
2763.00,0.0183
2762.00,0.0182
2761.00,0.0182
2760.00,0.0182
2759.00,0.0181
2758.00,0.0181
2757.00,0.0181
2756.00,0.0180
2755.00,0.0180
2754.00,0.0180
2753.00,0.0180
2752.00,0.0180
2751.00,0.0180
2750.00,0.0179
2749.00,0.0179
2748.00,0.0179
2747.00,0.0179
2746.00,0.0179
2745.00,0.0178
2744.00,0.0178
2743.00,0.0177
2742.00,0.0177
2741.00,0.0177
2740.00,0.0177
2739.00,0.0177
2738.00,0.0177
2737.00,0.0176
2736.00,0.0176
2735.00,0.0176
2734.00,0.0175
2733.00,0.0175
2732.00,0.0175
2731.00,0.0175
2730.00,0.0175
2729.00,0.0175
2728.00,0.0175
2727.00,0.0175
2726.00,0.0174
2725.00,0.0174
2724.00,0.0174
2723.00,0.0174
2722.00,0.0174
2721.00,0.0173
2720.00,0.0173
2719.00,0.0173
2718.00,0.0173
2717.00,0.0173
2716.00,0.0173
2715.00,0.0172
2714.00,0.0172
2713.00,0.0172
2712.00,0.0172
2711.00,0.0172
2710.00,0.0172
2709.00,0.0172
2708.00,0.0171
2707.00,0.0171
2706.00,0.0170
2705.00,0.0170
2704.00,0.0170
2703.00,0.0170
2702.00,0.0170
2701.00,0.0170
2700.00,0.0169
2699.00,0.0169
2698.00,0.0169
2697.00,0.0169
2696.00,0.0169
2695.00,0.0168
2694.00,0.0168
2693.00,0.0168
2692.00,0.0168
2691.00,0.0168
2690.00,0.0168
2689.00,0.0168
2688.00,0.0168
2687.00,0.0168
2686.00,0.0167
2685.00,0.0167
2684.00,0.0167
2683.00,0.0167
2682.00,0.0166
2681.00,0.0166
2680.00,0.0167
2679.00,0.0166
2678.00,0.0166
2677.00,0.0166
2676.00,0.0166
2675.00,0.0166
2674.00,0.0166
2673.00,0.0166
2672.00,0.0165
2671.00,0.0165
2670.00,0.0164
2669.00,0.0164
2668.00,0.0164
2667.00,0.0164
2666.00,0.0164
2665.00,0.0164
2664.00,0.0164
2663.00,0.0165
2662.00,0.0165
2661.00,0.0165
2660.00,0.0165
2659.00,0.0165
2658.00,0.0165
2657.00,0.0165
2656.00,0.0165
2655.00,0.0165
2654.00,0.0165
2653.00,0.0165
2652.00,0.0165
2651.00,0.0164
2650.00,0.0165
2649.00,0.0165
2648.00,0.0165
2647.00,0.0165
2646.00,0.0165
2645.00,0.0165
2644.00,0.0165
2643.00,0.0165
2642.00,0.0165
2641.00,0.0165
2640.00,0.0165
2639.00,0.0164
2638.00,0.0164
2637.00,0.0164
2636.00,0.0164
2635.00,0.0164
2634.00,0.0164
2633.00,0.0163
2632.00,0.0163
2631.00,0.0163
2630.00,0.0163
2629.00,0.0163
2628.00,0.0163
2627.00,0.0163
2626.00,0.0163
2625.00,0.0163
2624.00,0.0163
2623.00,0.0163
2622.00,0.0162
2621.00,0.0162
2620.00,0.0161
2619.00,0.0161
2618.00,0.0162
2617.00,0.0163
2616.00,0.0163
2615.00,0.0163
2614.00,0.0163
2613.00,0.0162
2612.00,0.0162
2611.00,0.0161
2610.00,0.0161
2609.00,0.0161
2608.00,0.0162
2607.00,0.0162
2606.00,0.0162
2605.00,0.0162
2604.00,0.0162
2603.00,0.0162
2602.00,0.0162
2601.00,0.0162
2600.00,0.0162
2599.00,0.0162
2598.00,0.0162
2597.00,0.0161
2596.00,0.0161
2595.00,0.0161
2594.00,0.0160
2593.00,0.0160
2592.00,0.0160
2591.00,0.0161
2590.00,0.0161
2589.00,0.0160
2588.00,0.0160
2587.00,0.0159
2586.00,0.0159
2585.00,0.0159
2584.00,0.0159
2583.00,0.0160
2582.00,0.0160
2581.00,0.0160
2580.00,0.0160
2579.00,0.0160
2578.00,0.0160
2577.00,0.0160
2576.00,0.0160
2575.00,0.0160
2574.00,0.0160
2573.00,0.0159
2572.00,0.0159
2571.00,0.0159
2570.00,0.0158
2569.00,0.0158
2568.00,0.0157
2567.00,0.0158
2566.00,0.0158
2565.00,0.0159
2564.00,0.0159
2563.00,0.0159
2562.00,0.0159
2561.00,0.0159
2560.00,0.0159
2559.00,0.0159
2558.00,0.0158
2557.00,0.0158
2556.00,0.0159
2555.00,0.0159
2554.00,0.0159
2553.00,0.0160
2552.00,0.0159
2551.00,0.0159
2550.00,0.0159
2549.00,0.0159
2548.00,0.0158
2547.00,0.0158
2546.00,0.0157
2545.00,0.0157
2544.00,0.0157
2543.00,0.0157
2542.00,0.0158
2541.00,0.0158
2540.00,0.0158
2539.00,0.0158
2538.00,0.0158
2537.00,0.0158
2536.00,0.0158
2535.00,0.0158
2534.00,0.0158
2533.00,0.0158
2532.00,0.0158
2531.00,0.0158
2530.00,0.0158
2529.00,0.0158
2528.00,0.0158
2527.00,0.0157
2526.00,0.0157
2525.00,0.0158
2524.00,0.0158
2523.00,0.0158
2522.00,0.0158
2521.00,0.0158
2520.00,0.0157
2519.00,0.0157
2518.00,0.0156
2517.00,0.0155
2516.00,0.0155
2515.00,0.0155
2514.00,0.0155
2513.00,0.0155
2512.00,0.0156
2511.00,0.0156
2510.00,0.0156
2509.00,0.0156
2508.00,0.0155
2507.00,0.0155
2506.00,0.0155
2505.00,0.0154
2504.00,0.0155
2503.00,0.0155
2502.00,0.0155
2501.00,0.0155
2500.00,0.0155
2499.00,0.0155
2498.00,0.0155
2497.00,0.0154
2496.00,0.0154
2495.00,0.0154
2494.00,0.0153
2493.00,0.0153
2492.00,0.0153
2491.00,0.0153
2490.00,0.0153
2489.00,0.0154
2488.00,0.0154
2487.00,0.0154
2486.00,0.0154
2485.00,0.0153
2484.00,0.0153
2483.00,0.0153
2482.00,0.0153
2481.00,0.0153
2480.00,0.0153
2479.00,0.0153
2478.00,0.0153
2477.00,0.0152
2476.00,0.0152
2475.00,0.0151
2474.00,0.0151
2473.00,0.0152
2472.00,0.0152
2471.00,0.0152
2470.00,0.0152
2469.00,0.0152
2468.00,0.0151
2467.00,0.0151
2466.00,0.0151
2465.00,0.0151
2464.00,0.0151
2463.00,0.0151
2462.00,0.0150
2461.00,0.0150
2460.00,0.0151
2459.00,0.0151
2458.00,0.0152
2457.00,0.0152
2456.00,0.0152
2455.00,0.0151
2454.00,0.0150
2453.00,0.0150
2452.00,0.0150
2451.00,0.0150
2450.00,0.0150
2449.00,0.0150
2448.00,0.0150
2447.00,0.0149
2446.00,0.0149
2445.00,0.0149
2444.00,0.0148
2443.00,0.0148
2442.00,0.0148
2441.00,0.0148
2440.00,0.0148
2439.00,0.0148
2438.00,0.0148
2437.00,0.0148
2436.00,0.0148
2435.00,0.0147
2434.00,0.0147
2433.00,0.0147
2432.00,0.0147
2431.00,0.0148
2430.00,0.0148
2429.00,0.0148
2428.00,0.0147
2427.00,0.0147
2426.00,0.0147
2425.00,0.0147
2424.00,0.0147
2423.00,0.0146
2422.00,0.0146
2421.00,0.0145
2420.00,0.0145
2419.00,0.0145
2418.00,0.0145
2417.00,0.0145
2416.00,0.0145
2415.00,0.0145
2414.00,0.0145
2413.00,0.0145
2412.00,0.0145
2411.00,0.0145
2410.00,0.0145
2409.00,0.0144
2408.00,0.0144
2407.00,0.0144
2406.00,0.0144
2405.00,0.0144
2404.00,0.0144
2403.00,0.0143
2402.00,0.0143
2401.00,0.0142
2400.00,0.0142
2399.00,0.0142
2398.00,0.0142
2397.00,0.0142
2396.00,0.0141
2395.00,0.0141
2394.00,0.0141
2393.00,0.0141
2392.00,0.0141
2391.00,0.0141
2390.00,0.0141
2389.00,0.0141
2388.00,0.0141
2387.00,0.0140
2386.00,0.0140
2385.00,0.0139
2384.00,0.0138
2383.00,0.0138
2382.00,0.0137
2381.00,0.0136
2380.00,0.0136
2379.00,0.0135
2378.00,0.0135
2377.00,0.0135
2376.00,0.0135
2375.00,0.0135
2374.00,0.0135
2373.00,0.0135
2372.00,0.0134
2371.00,0.0134
2370.00,0.0134
2369.00,0.0133
2368.00,0.0133
2367.00,0.0132
2366.00,0.0131
2365.00,0.0129
2364.00,0.0127
2363.00,0.0127
2362.00,0.0128
2361.00,0.0130
2360.00,0.0131
2359.00,0.0131
2358.00,0.0131
2357.00,0.0132
2356.00,0.0132
2355.00,0.0132
2354.00,0.0132
2353.00,0.0131
2352.00,0.0132
2351.00,0.0135
2350.00,0.0135
2349.00,0.0133
2348.00,0.0125
2347.00,0.0117
2346.00,0.0111
2345.00,0.0111
2344.00,0.0115
2343.00,0.0119
2342.00,0.0122
2341.00,0.0124
2340.00,0.0126
2339.00,0.0128
2338.00,0.0129
2337.00,0.0130
2336.00,0.0131
2335.00,0.0133
2334.00,0.0134
2333.00,0.0135
2332.00,0.0135
2331.00,0.0136
2330.00,0.0138
2329.00,0.0139
2328.00,0.0141
2327.00,0.0142
2326.00,0.0142
2325.00,0.0142
2324.00,0.0142
2323.00,0.0142
2322.00,0.0142
2321.00,0.0142
2320.00,0.0142
2319.00,0.0142
2318.00,0.0142
2317.00,0.0142
2316.00,0.0141
2315.00,0.0140
2314.00,0.0138
2313.00,0.0137
2312.00,0.0137
2311.00,0.0136
2310.00,0.0135
2309.00,0.0134
2308.00,0.0133
2307.00,0.0133
2306.00,0.0133
2305.00,0.0133
2304.00,0.0133
2303.00,0.0133
2302.00,0.0132
2301.00,0.0132
2300.00,0.0131
2299.00,0.0131
2298.00,0.0130
2297.00,0.0130
2296.00,0.0129
2295.00,0.0128
2294.00,0.0128
2293.00,0.0129
2292.00,0.0129
2291.00,0.0130
2290.00,0.0130
2289.00,0.0130
2288.00,0.0130
2287.00,0.0130
2286.00,0.0130
2285.00,0.0130
2284.00,0.0129
2283.00,0.0129
2282.00,0.0129
2281.00,0.0129
2280.00,0.0129
2279.00,0.0129
2278.00,0.0129
2277.00,0.0129
2276.00,0.0129
2275.00,0.0128
2274.00,0.0128
2273.00,0.0127
2272.00,0.0126
2271.00,0.0125
2270.00,0.0125
2269.00,0.0125
2268.00,0.0125
2267.00,0.0126
2266.00,0.0126
2265.00,0.0126
2264.00,0.0125
2263.00,0.0125
2262.00,0.0125
2261.00,0.0125
2260.00,0.0125
2259.00,0.0126
2258.00,0.0127
2257.00,0.0127
2256.00,0.0127
2255.00,0.0126
2254.00,0.0125
2253.00,0.0124
2252.00,0.0123
2251.00,0.0123
2250.00,0.0123
2249.00,0.0123
2248.00,0.0123
2247.00,0.0123
2246.00,0.0122
2245.00,0.0121
2244.00,0.0122
2243.00,0.0123
2242.00,0.0124
2241.00,0.0125
2240.00,0.0125
2239.00,0.0124
2238.00,0.0123
2237.00,0.0122
2236.00,0.0121
2235.00,0.0121
2234.00,0.0122
2233.00,0.0123
2232.00,0.0123
2231.00,0.0124
2230.00,0.0124
2229.00,0.0123
2228.00,0.0123
2227.00,0.0122
2226.00,0.0122
2225.00,0.0121
2224.00,0.0120
2223.00,0.0120
2222.00,0.0121
2221.00,0.0121
2220.00,0.0122
2219.00,0.0121
2218.00,0.0121
2217.00,0.0120
2216.00,0.0121
2215.00,0.0121
2214.00,0.0122
2213.00,0.0122
2212.00,0.0121
2211.00,0.0120
2210.00,0.0119
2209.00,0.0118
2208.00,0.0118
2207.00,0.0119
2206.00,0.0121
2205.00,0.0122
2204.00,0.0124
2203.00,0.0124
2202.00,0.0123
2201.00,0.0123
2200.00,0.0123
2199.00,0.0123
2198.00,0.0123
2197.00,0.0122
2196.00,0.0121
2195.00,0.0121
2194.00,0.0121
2193.00,0.0120
2192.00,0.0119
2191.00,0.0119
2190.00,0.0119
2189.00,0.0120
2188.00,0.0121
2187.00,0.0120
2186.00,0.0119
2185.00,0.0119
2184.00,0.0118
2183.00,0.0118
2182.00,0.0118
2181.00,0.0119
2180.00,0.0119
2179.00,0.0118
2178.00,0.0117
2177.00,0.0116
2176.00,0.0115
2175.00,0.0115
2174.00,0.0115
2173.00,0.0117
2172.00,0.0117
2171.00,0.0117
2170.00,0.0116
2169.00,0.0115
2168.00,0.0114
2167.00,0.0115
2166.00,0.0117
2165.00,0.0119
2164.00,0.0120
2163.00,0.0120
2162.00,0.0119
2161.00,0.0117
2160.00,0.0113
2159.00,0.0109
2158.00,0.0106
2157.00,0.0104
2156.00,0.0104
2155.00,0.0106
2154.00,0.0109
2153.00,0.0112
2152.00,0.0113
2151.00,0.0112
2150.00,0.0109
2149.00,0.0107
2148.00,0.0105
2147.00,0.0104
2146.00,0.0104
2145.00,0.0104
2144.00,0.0104
2143.00,0.0105
2142.00,0.0105
2141.00,0.0105
2140.00,0.0104
2139.00,0.0103
2138.00,0.0102
2137.00,0.0102
2136.00,0.0101
2135.00,0.0101
2134.00,0.0100
2133.00,0.0100
2132.00,0.0100
2131.00,0.0100
2130.00,0.0100
2129.00,0.0099
2128.00,0.0099
2127.00,0.0099
2126.00,0.0100
2125.00,0.0100
2124.00,0.0101
2123.00,0.0101
2122.00,0.0102
2121.00,0.0103
2120.00,0.0104
2119.00,0.0105
2118.00,0.0106
2117.00,0.0106
2116.00,0.0106
2115.00,0.0106
2114.00,0.0105
2113.00,0.0103
2112.00,0.0102
2111.00,0.0101
2110.00,0.0100
2109.00,0.0101
2108.00,0.0101
2107.00,0.0102
2106.00,0.0102
2105.00,0.0101
2104.00,0.0101
2103.00,0.0101
2102.00,0.0101
2101.00,0.0101
2100.00,0.0100
2099.00,0.0100
2098.00,0.0100
2097.00,0.0100
2096.00,0.0100
2095.00,0.0099
2094.00,0.0099
2093.00,0.0099
2092.00,0.0100
2091.00,0.0101
2090.00,0.0101
2089.00,0.0102
2088.00,0.0101
2087.00,0.0101
2086.00,0.0101
2085.00,0.0100
2084.00,0.0100
2083.00,0.0100
2082.00,0.0099
2081.00,0.0099
2080.00,0.0099
2079.00,0.0098
2078.00,0.0098
2077.00,0.0098
2076.00,0.0098
2075.00,0.0098
2074.00,0.0097
2073.00,0.0096
2072.00,0.0096
2071.00,0.0096
2070.00,0.0097
2069.00,0.0098
2068.00,0.0098
2067.00,0.0098
2066.00,0.0098
2065.00,0.0098
2064.00,0.0098
2063.00,0.0097
2062.00,0.0097
2061.00,0.0097
2060.00,0.0098
2059.00,0.0097
2058.00,0.0097
2057.00,0.0097
2056.00,0.0097
2055.00,0.0098
2054.00,0.0098
2053.00,0.0098
2052.00,0.0099
2051.00,0.0099
2050.00,0.0099
2049.00,0.0099
2048.00,0.0098
2047.00,0.0099
2046.00,0.0100
2045.00,0.0100
2044.00,0.0100
2043.00,0.0098
2042.00,0.0097
2041.00,0.0096
2040.00,0.0096
2039.00,0.0097
2038.00,0.0098
2037.00,0.0099
2036.00,0.0099
2035.00,0.0097
2034.00,0.0095
2033.00,0.0094
2032.00,0.0094
2031.00,0.0094
2030.00,0.0094
2029.00,0.0093
2028.00,0.0092
2027.00,0.0091
2026.00,0.0090
2025.00,0.0091
2024.00,0.0091
2023.00,0.0091
2022.00,0.0091
2021.00,0.0092
2020.00,0.0092
2019.00,0.0091
2018.00,0.0091
2017.00,0.0091
2016.00,0.0091
2015.00,0.0091
2014.00,0.0091
2013.00,0.0091
2012.00,0.0091
2011.00,0.0089
2010.00,0.0089
2009.00,0.0088
2008.00,0.0087
2007.00,0.0087
2006.00,0.0087
2005.00,0.0087
2004.00,0.0088
2003.00,0.0088
2002.00,0.0088
2001.00,0.0089
2000.00,0.0089
1999.00,0.0088
1998.00,0.0089
1997.00,0.0091
1996.00,0.0093
1995.00,0.0094
1994.00,0.0095
1993.00,0.0095
1992.00,0.0093
1991.00,0.0091
1990.00,0.0089
1989.00,0.0089
1988.00,0.0088
1987.00,0.0087
1986.00,0.0086
1985.00,0.0086
1984.00,0.0087
1983.00,0.0089
1982.00,0.0091
1981.00,0.0093
1980.00,0.0092
1979.00,0.0091
1978.00,0.0089
1977.00,0.0090
1976.00,0.0091
1975.00,0.0092
1974.00,0.0092
1973.00,0.0091
1972.00,0.0089
1971.00,0.0087
1970.00,0.0087
1969.00,0.0087
1968.00,0.0088
1967.00,0.0087
1966.00,0.0085
1965.00,0.0083
1964.00,0.0083
1963.00,0.0084
1962.00,0.0085
1961.00,0.0086
1960.00,0.0085
1959.00,0.0084
1958.00,0.0082
1957.00,0.0080
1956.00,0.0078
1955.00,0.0076
1954.00,0.0076
1953.00,0.0076
1952.00,0.0077
1951.00,0.0076
1950.00,0.0075
1949.00,0.0074
1948.00,0.0075
1947.00,0.0076
1946.00,0.0077
1945.00,0.0077
1944.00,0.0077
1943.00,0.0076
1942.00,0.0074
1941.00,0.0074
1940.00,0.0074
1939.00,0.0075
1938.00,0.0075
1937.00,0.0075
1936.00,0.0076
1935.00,0.0076
1934.00,0.0077
1933.00,0.0077
1932.00,0.0077
1931.00,0.0076
1930.00,0.0076
1929.00,0.0076
1928.00,0.0075
1927.00,0.0075
1926.00,0.0075
1925.00,0.0077
1924.00,0.0077
1923.00,0.0075
1922.00,0.0073
1921.00,0.0073
1920.00,0.0074
1919.00,0.0075
1918.00,0.0074
1917.00,0.0072
1916.00,0.0071
1915.00,0.0071
1914.00,0.0071
1913.00,0.0071
1912.00,0.0071
1911.00,0.0071
1910.00,0.0070
1909.00,0.0070
1908.00,0.0069
1907.00,0.0069
1906.00,0.0069
1905.00,0.0069
1904.00,0.0070
1903.00,0.0070
1902.00,0.0069
1901.00,0.0069
1900.00,0.0068
1899.00,0.0068
1898.00,0.0068
1897.00,0.0068
1896.00,0.0067
1895.00,0.0067
1894.00,0.0066
1893.00,0.0066
1892.00,0.0067
1891.00,0.0066
1890.00,0.0065
1889.00,0.0063
1888.00,0.0063
1887.00,0.0063
1886.00,0.0064
1885.00,0.0065
1884.00,0.0065
1883.00,0.0064
1882.00,0.0064
1881.00,0.0064
1880.00,0.0064
1879.00,0.0063
1878.00,0.0063
1877.00,0.0062
1876.00,0.0062
1875.00,0.0062
1874.00,0.0062
1873.00,0.0062
1872.00,0.0063
1871.00,0.0064
1870.00,0.0062
1869.00,0.0059
1868.00,0.0057
1867.00,0.0056
1866.00,0.0057
1865.00,0.0059
1864.00,0.0060
1863.00,0.0060
1862.00,0.0060
1861.00,0.0059
1860.00,0.0059
1859.00,0.0059
1858.00,0.0059
1857.00,0.0059
1856.00,0.0060
1855.00,0.0060
1854.00,0.0059
1853.00,0.0058
1852.00,0.0057
1851.00,0.0056
1850.00,0.0056
1849.00,0.0056
1848.00,0.0056
1847.00,0.0057
1846.00,0.0058
1845.00,0.0058
1844.00,0.0055
1843.00,0.0053
1842.00,0.0053
1841.00,0.0054
1840.00,0.0056
1839.00,0.0056
1838.00,0.0055
1837.00,0.0054
1836.00,0.0054
1835.00,0.0054
1834.00,0.0054
1833.00,0.0055
1832.00,0.0056
1831.00,0.0056
1830.00,0.0053
1829.00,0.0051
1828.00,0.0051
1827.00,0.0053
1826.00,0.0054
1825.00,0.0053
1824.00,0.0052
1823.00,0.0052
1822.00,0.0053
1821.00,0.0054
1820.00,0.0055
1819.00,0.0054
1818.00,0.0053
1817.00,0.0053
1816.00,0.0053
1815.00,0.0054
1814.00,0.0054
1813.00,0.0054
1812.00,0.0053
1811.00,0.0052
1810.00,0.0052
1809.00,0.0052
1808.00,0.0053
1807.00,0.0054
1806.00,0.0055
1805.00,0.0056
1804.00,0.0058
1803.00,0.0059
1802.00,0.0059
1801.00,0.0059
1800.00,0.0058
1799.00,0.0058
1798.00,0.0058
1797.00,0.0060
1796.00,0.0062
1795.00,0.0064
1794.00,0.0065
1793.00,0.0066
1792.00,0.0065
1791.00,0.0065
1790.00,0.0066
1789.00,0.0068
1788.00,0.0070
1787.00,0.0072
1786.00,0.0072
1785.00,0.0073
1784.00,0.0074
1783.00,0.0075
1782.00,0.0077
1781.00,0.0077
1780.00,0.0078
1779.00,0.0079
1778.00,0.0081
1777.00,0.0083
1776.00,0.0086
1775.00,0.0088
1774.00,0.0090
1773.00,0.0090
1772.00,0.0088
1771.00,0.0088
1770.00,0.0091
1769.00,0.0095
1768.00,0.0098
1767.00,0.0099
1766.00,0.0100
1765.00,0.0102
1764.00,0.0105
1763.00,0.0106
1762.00,0.0106
1761.00,0.0106
1760.00,0.0107
1759.00,0.0109
1758.00,0.0111
1757.00,0.0112
1756.00,0.0112
1755.00,0.0113
1754.00,0.0115
1753.00,0.0117
1752.00,0.0118
1751.00,0.0119
1750.00,0.0118
1749.00,0.0119
1748.00,0.0120
1747.00,0.0123
1746.00,0.0126
1745.00,0.0128
1744.00,0.0130
1743.00,0.0133
1742.00,0.0135
1741.00,0.0138
1740.00,0.0141
1739.00,0.0142
1738.00,0.0144
1737.00,0.0149
1736.00,0.0154
1735.00,0.0158
1734.00,0.0160
1733.00,0.0159
1732.00,0.0161
1731.00,0.0165
1730.00,0.0169
1729.00,0.0173
1728.00,0.0176
1727.00,0.0179
1726.00,0.0182
1725.00,0.0185
1724.00,0.0187
1723.00,0.0189
1722.00,0.0191
1721.00,0.0194
1720.00,0.0196
1719.00,0.0196
1718.00,0.0196
1717.00,0.0197
1716.00,0.0199
1715.00,0.0202
1714.00,0.0205
1713.00,0.0207
1712.00,0.0209
1711.00,0.0210
1710.00,0.0211
1709.00,0.0212
1708.00,0.0213
1707.00,0.0214
1706.00,0.0215
1705.00,0.0215
1704.00,0.0217
1703.00,0.0221
1702.00,0.0224
1701.00,0.0226
1700.00,0.0225
1699.00,0.0222
1698.00,0.0224
1697.00,0.0228
1696.00,0.0229
1695.00,0.0226
1694.00,0.0225
1693.00,0.0228
1692.00,0.0230
1691.00,0.0230
1690.00,0.0229
1689.00,0.0229
1688.00,0.0230
1687.00,0.0231
1686.00,0.0230
1685.00,0.0231
1684.00,0.0232
1683.00,0.0231
1682.00,0.0234
1681.00,0.0239
1680.00,0.0241
1679.00,0.0242
1678.00,0.0244
1677.00,0.0246
1676.00,0.0248
1675.00,0.0249
1674.00,0.0249
1673.00,0.0250
1672.00,0.0251
1671.00,0.0253
1670.00,0.0255
1669.00,0.0257
1668.00,0.0259
1667.00,0.0261
1666.00,0.0264
1665.00,0.0266
1664.00,0.0268
1663.00,0.0270
1662.00,0.0272
1661.00,0.0274
1660.00,0.0276
1659.00,0.0278
1658.00,0.0279
1657.00,0.0280
1656.00,0.0280
1655.00,0.0281
1654.00,0.0287
1653.00,0.0294
1652.00,0.0293
1651.00,0.0293
1650.00,0.0297
1649.00,0.0299
1648.00,0.0301
1647.00,0.0306
1646.00,0.0311
1645.00,0.0316
1644.00,0.0320
1643.00,0.0324
1642.00,0.0327
1641.00,0.0328
1640.00,0.0329
1639.00,0.0329
1638.00,0.0329
1637.00,0.0333
1636.00,0.0340
1635.00,0.0346
1634.00,0.0349
1633.00,0.0354
1632.00,0.0357
1631.00,0.0359
1630.00,0.0361
1629.00,0.0364
1628.00,0.0366
1627.00,0.0369
1626.00,0.0372
1625.00,0.0375
1624.00,0.0379
1623.00,0.0382
1622.00,0.0385
1621.00,0.0386
1620.00,0.0388
1619.00,0.0389
1618.00,0.0391
1617.00,0.0394
1616.00,0.0397
1615.00,0.0399
1614.00,0.0403
1613.00,0.0406
1612.00,0.0407
1611.00,0.0408
1610.00,0.0410
1609.00,0.0413
1608.00,0.0415
1607.00,0.0417
1606.00,0.0419
1605.00,0.0420
1604.00,0.0422
1603.00,0.0424
1602.00,0.0426
1601.00,0.0427
1600.00,0.0429
1599.00,0.0430
1598.00,0.0431
1597.00,0.0432
1596.00,0.0433
1595.00,0.0435
1594.00,0.0436
1593.00,0.0436
1592.00,0.0437
1591.00,0.0438
1590.00,0.0439
1589.00,0.0440
1588.00,0.0441
1587.00,0.0441
1586.00,0.0442
1585.00,0.0442
1584.00,0.0442
1583.00,0.0443
1582.00,0.0443
1581.00,0.0442
1580.00,0.0441
1579.00,0.0440
1578.00,0.0440
1577.00,0.0440
1576.00,0.0442
1575.00,0.0443
1574.00,0.0443
1573.00,0.0443
1572.00,0.0442
1571.00,0.0441
1570.00,0.0441
1569.00,0.0441
1568.00,0.0441
1567.00,0.0441
1566.00,0.0440
1565.00,0.0439
1564.00,0.0437
1563.00,0.0436
1562.00,0.0433
1561.00,0.0427
1560.00,0.0425
1559.00,0.0433
1558.00,0.0434
1557.00,0.0432
1556.00,0.0433
1555.00,0.0432
1554.00,0.0429
1553.00,0.0426
1552.00,0.0424
1551.00,0.0423
1550.00,0.0421
1549.00,0.0418
1548.00,0.0416
1547.00,0.0413
1546.00,0.0409
1545.00,0.0405
1544.00,0.0402
1543.00,0.0398
1542.00,0.0394
1541.00,0.0391
1540.00,0.0390
1539.00,0.0388
1538.00,0.0386
1537.00,0.0386
1536.00,0.0386
1535.00,0.0384
1534.00,0.0382
1533.00,0.0381
1532.00,0.0380
1531.00,0.0378
1530.00,0.0375
1529.00,0.0372
1528.00,0.0370
1527.00,0.0368
1526.00,0.0365
1525.00,0.0362
1524.00,0.0359
1523.00,0.0356
1522.00,0.0355
1521.00,0.0354
1520.00,0.0353
1519.00,0.0352
1518.00,0.0351
1517.00,0.0350
1516.00,0.0348
1515.00,0.0347
1514.00,0.0346
1513.00,0.0345
1512.00,0.0342
1511.00,0.0339
1510.00,0.0336
1509.00,0.0332
1508.00,0.0331
1507.00,0.0333
1506.00,0.0332
1505.00,0.0331
1504.00,0.0331
1503.00,0.0331
1502.00,0.0330
1501.00,0.0328
1500.00,0.0326
1499.00,0.0324
1498.00,0.0324
1497.00,0.0325
1496.00,0.0326
1495.00,0.0326
1494.00,0.0326
1493.00,0.0327
1492.00,0.0327
1491.00,0.0326
1490.00,0.0327
1489.00,0.0328
1488.00,0.0330
1487.00,0.0330
1486.00,0.0331
1485.00,0.0331
1484.00,0.0331
1483.00,0.0331
1482.00,0.0331
1481.00,0.0331
1480.00,0.0332
1479.00,0.0333
1478.00,0.0333
1477.00,0.0334
1476.00,0.0335
1475.00,0.0335
1474.00,0.0335
1473.00,0.0337
1472.00,0.0338
1471.00,0.0339
1470.00,0.0339
1469.00,0.0340
1468.00,0.0340
1467.00,0.0340
1466.00,0.0341
1465.00,0.0342
1464.00,0.0343
1463.00,0.0343
1462.00,0.0343
1461.00,0.0342
1460.00,0.0341
1459.00,0.0340
1458.00,0.0342
1457.00,0.0347
1456.00,0.0349
1455.00,0.0350
1454.00,0.0352
1453.00,0.0353
1452.00,0.0354
1451.00,0.0356
1450.00,0.0357
1449.00,0.0359
1448.00,0.0361
1447.00,0.0362
1446.00,0.0363
1445.00,0.0364
1444.00,0.0365
1443.00,0.0366
1442.00,0.0367
1441.00,0.0367
1440.00,0.0368
1439.00,0.0370
1438.00,0.0372
1437.00,0.0375
1436.00,0.0377
1435.00,0.0378
1434.00,0.0377
1433.00,0.0376
1432.00,0.0376
1431.00,0.0377
1430.00,0.0378
1429.00,0.0379
1428.00,0.0380
1427.00,0.0381
1426.00,0.0381
1425.00,0.0381
1424.00,0.0382
1423.00,0.0383
1422.00,0.0384
1421.00,0.0385
1420.00,0.0386
1419.00,0.0389
1418.00,0.0390
1417.00,0.0391
1416.00,0.0392
1415.00,0.0392
1414.00,0.0392
1413.00,0.0392
1412.00,0.0393
1411.00,0.0393
1410.00,0.0393
1409.00,0.0393
1408.00,0.0394
1407.00,0.0394
1406.00,0.0395
1405.00,0.0396
1404.00,0.0397
1403.00,0.0399
1402.00,0.0399
1401.00,0.0399
1400.00,0.0400
1399.00,0.0401
1398.00,0.0401
1397.00,0.0402
1396.00,0.0404
1395.00,0.0406
1394.00,0.0407
1393.00,0.0407
1392.00,0.0407
1391.00,0.0407
1390.00,0.0407
1389.00,0.0408
1388.00,0.0409
1387.00,0.0410
1386.00,0.0411
1385.00,0.0411
1384.00,0.0412
1383.00,0.0412
1382.00,0.0412
1381.00,0.0412
1380.00,0.0412
1379.00,0.0412
1378.00,0.0412
1377.00,0.0411
1376.00,0.0412
1375.00,0.0412
1374.00,0.0414
1373.00,0.0415
1372.00,0.0415
1371.00,0.0415
1370.00,0.0415
1369.00,0.0415
1368.00,0.0415
1367.00,0.0414
1366.00,0.0413
1365.00,0.0413
1364.00,0.0413
1363.00,0.0413
1362.00,0.0415
1361.00,0.0416
1360.00,0.0416
1359.00,0.0416
1358.00,0.0415
1357.00,0.0413
1356.00,0.0412
1355.00,0.0411
1354.00,0.0410
1353.00,0.0410
1352.00,0.0410
1351.00,0.0409
1350.00,0.0408
1349.00,0.0407
1348.00,0.0406
1347.00,0.0406
1346.00,0.0406
1345.00,0.0406
1344.00,0.0405
1343.00,0.0404
1342.00,0.0403
1341.00,0.0402
1340.00,0.0402
1339.00,0.0402
1338.00,0.0403
1337.00,0.0403
1336.00,0.0403
1335.00,0.0402
1334.00,0.0401
1333.00,0.0400
1332.00,0.0399
1331.00,0.0398
1330.00,0.0398
1329.00,0.0397
1328.00,0.0397
1327.00,0.0397
1326.00,0.0396
1325.00,0.0396
1324.00,0.0396
1323.00,0.0395
1322.00,0.0394
1321.00,0.0393
1320.00,0.0392
1319.00,0.0392
1318.00,0.0392
1317.00,0.0392
1316.00,0.0393
1315.00,0.0393
1314.00,0.0394
1313.00,0.0394
1312.00,0.0394
1311.00,0.0393
1310.00,0.0393
1309.00,0.0393
1308.00,0.0393
1307.00,0.0393
1306.00,0.0393
1305.00,0.0392
1304.00,0.0392
1303.00,0.0393
1302.00,0.0393
1301.00,0.0393
1300.00,0.0393
1299.00,0.0394
1298.00,0.0394
1297.00,0.0394
1296.00,0.0394
1295.00,0.0394
1294.00,0.0395
1293.00,0.0395
1292.00,0.0395
1291.00,0.0396
1290.00,0.0396
1289.00,0.0397
1288.00,0.0398
1287.00,0.0398
1286.00,0.0399
1285.00,0.0398
1284.00,0.0398
1283.00,0.0398
1282.00,0.0399
1281.00,0.0399
1280.00,0.0400
1279.00,0.0400
1278.00,0.0400
1277.00,0.0400
1276.00,0.0400
1275.00,0.0401
1274.00,0.0400
1273.00,0.0400
1272.00,0.0400
1271.00,0.0400
1270.00,0.0400
1269.00,0.0400
1268.00,0.0400
1267.00,0.0400
1266.00,0.0399
1265.00,0.0398
1264.00,0.0397
1263.00,0.0396
1262.00,0.0396
1261.00,0.0396
1260.00,0.0397
1259.00,0.0397
1258.00,0.0398
1257.00,0.0398
1256.00,0.0398
1255.00,0.0399
1254.00,0.0399
1253.00,0.0400
1252.00,0.0400
1251.00,0.0400
1250.00,0.0401
1249.00,0.0401
1248.00,0.0401
1247.00,0.0401
1246.00,0.0401
1245.00,0.0401
1244.00,0.0400
1243.00,0.0400
1242.00,0.0400
1241.00,0.0399
1240.00,0.0399
1239.00,0.0398
1238.00,0.0398
1237.00,0.0399
1236.00,0.0399
1235.00,0.0398
1234.00,0.0397
1233.00,0.0397
1232.00,0.0396
1231.00,0.0397
1230.00,0.0397
1229.00,0.0396
1228.00,0.0395
1227.00,0.0395
1226.00,0.0395
1225.00,0.0395
1224.00,0.0395
1223.00,0.0395
1222.00,0.0394
1221.00,0.0393
1220.00,0.0392
1219.00,0.0392
1218.00,0.0391
1217.00,0.0391
1216.00,0.0391
1215.00,0.0390
1214.00,0.0390
1213.00,0.0389
1212.00,0.0389
1211.00,0.0389
1210.00,0.0388
1209.00,0.0388
1208.00,0.0387
1207.00,0.0387
1206.00,0.0387
1205.00,0.0387
1204.00,0.0387
1203.00,0.0387
1202.00,0.0386
1201.00,0.0386
1200.00,0.0385
1199.00,0.0385
1198.00,0.0385
1197.00,0.0384
1196.00,0.0384
1195.00,0.0384
1194.00,0.0383
1193.00,0.0383
1192.00,0.0382
1191.00,0.0382
1190.00,0.0382
1189.00,0.0382
1188.00,0.0382
1187.00,0.0382
1186.00,0.0381
1185.00,0.0381
1184.00,0.0380
1183.00,0.0380
1182.00,0.0379
1181.00,0.0378
1180.00,0.0379
1179.00,0.0380
1178.00,0.0380
1177.00,0.0380
1176.00,0.0380
1175.00,0.0379
1174.00,0.0379
1173.00,0.0379
1172.00,0.0378
1171.00,0.0377
1170.00,0.0376
1169.00,0.0375
1168.00,0.0375
1167.00,0.0376
1166.00,0.0375
1165.00,0.0375
1164.00,0.0375
1163.00,0.0375
1162.00,0.0374
1161.00,0.0374
1160.00,0.0374
1159.00,0.0374
1158.00,0.0374
1157.00,0.0373
1156.00,0.0372
1155.00,0.0372
1154.00,0.0372
1153.00,0.0372
1152.00,0.0371
1151.00,0.0370
1150.00,0.0370
1149.00,0.0370
1148.00,0.0370
1147.00,0.0372
1146.00,0.0372
1145.00,0.0372
1144.00,0.0371
1143.00,0.0369
1142.00,0.0368
1141.00,0.0367
1140.00,0.0365
1139.00,0.0365
1138.00,0.0365
1137.00,0.0365
1136.00,0.0365
1135.00,0.0365
1134.00,0.0365
1133.00,0.0365
1132.00,0.0364
1131.00,0.0364
1130.00,0.0363
1129.00,0.0363
1128.00,0.0362
1127.00,0.0362
1126.00,0.0362
1125.00,0.0363
1124.00,0.0362
1123.00,0.0362
1122.00,0.0361
1121.00,0.0360
1120.00,0.0360
1119.00,0.0361
1118.00,0.0362
1117.00,0.0361
1116.00,0.0360
1115.00,0.0360
1114.00,0.0359
1113.00,0.0358
1112.00,0.0358
1111.00,0.0358
1110.00,0.0357
1109.00,0.0357
1108.00,0.0356
1107.00,0.0356
1106.00,0.0356
1105.00,0.0356
1104.00,0.0357
1103.00,0.0357
1102.00,0.0357
1101.00,0.0357
1100.00,0.0357
1099.00,0.0357
1098.00,0.0356
1097.00,0.0355
1096.00,0.0354
1095.00,0.0354
1094.00,0.0354
1093.00,0.0356
1092.00,0.0357
1091.00,0.0357
1090.00,0.0356
1089.00,0.0356
1088.00,0.0356
1087.00,0.0357
1086.00,0.0356
1085.00,0.0355
1084.00,0.0355
1083.00,0.0356
1082.00,0.0358
1081.00,0.0358
1080.00,0.0358
1079.00,0.0358
1078.00,0.0359
1077.00,0.0359
1076.00,0.0359
1075.00,0.0359
1074.00,0.0359
1073.00,0.0359
1072.00,0.0359
1071.00,0.0359
1070.00,0.0359
1069.00,0.0359
1068.00,0.0358
1067.00,0.0358
1066.00,0.0359
1065.00,0.0359
1064.00,0.0360
1063.00,0.0360
1062.00,0.0360
1061.00,0.0360
1060.00,0.0359
1059.00,0.0359
1058.00,0.0359
1057.00,0.0359
1056.00,0.0360
1055.00,0.0360
1054.00,0.0360
1053.00,0.0360
1052.00,0.0361
1051.00,0.0361
1050.00,0.0362
1049.00,0.0362
1048.00,0.0363
1047.00,0.0363
1046.00,0.0364
1045.00,0.0364
1044.00,0.0363
1043.00,0.0363
1042.00,0.0362
1041.00,0.0362
1040.00,0.0361
1039.00,0.0361
1038.00,0.0361
1037.00,0.0361
1036.00,0.0362
1035.00,0.0362
1034.00,0.0362
1033.00,0.0361
1032.00,0.0361
1031.00,0.0360
1030.00,0.0359
1029.00,0.0358
1028.00,0.0357
1027.00,0.0356
1026.00,0.0355
1025.00,0.0355
1024.00,0.0355
1023.00,0.0355
1022.00,0.0354
1021.00,0.0354
1020.00,0.0353
1019.00,0.0353
1018.00,0.0352
1017.00,0.0352
1016.00,0.0353
1015.00,0.0354
1014.00,0.0354
1013.00,0.0354
1012.00,0.0354
1011.00,0.0355
1010.00,0.0355
1009.00,0.0355
1008.00,0.0354
1007.00,0.0354
1006.00,0.0354
1005.00,0.0355
1004.00,0.0355
1003.00,0.0356
1002.00,0.0355
1001.00,0.0355
1000.00,0.0354
999.00,0.0354
998.00,0.0353
997.00,0.0352
996.00,0.0351
995.00,0.0350
994.00,0.0350
993.00,0.0351
992.00,0.0351
991.00,0.0351
990.00,0.0350
989.00,0.0350
988.00,0.0350
987.00,0.0350
986.00,0.0351
985.00,0.0351
984.00,0.0351
983.00,0.0350
982.00,0.0350
981.00,0.0350
980.00,0.0350
979.00,0.0349
978.00,0.0349
977.00,0.0348
976.00,0.0348
975.00,0.0348
974.00,0.0349
973.00,0.0349
972.00,0.0350
971.00,0.0350
970.00,0.0351
969.00,0.0351
968.00,0.0351
967.00,0.0350
966.00,0.0349
965.00,0.0349
964.00,0.0349
963.00,0.0349
962.00,0.0349
961.00,0.0349
960.00,0.0349
959.00,0.0349
958.00,0.0349
957.00,0.0348
956.00,0.0348
955.00,0.0348
954.00,0.0349
953.00,0.0349
952.00,0.0350
951.00,0.0350
950.00,0.0350
949.00,0.0350
948.00,0.0351
947.00,0.0352
946.00,0.0353
945.00,0.0355
944.00,0.0355
943.00,0.0355
942.00,0.0355
941.00,0.0356
940.00,0.0357
939.00,0.0357
938.00,0.0356
937.00,0.0356
936.00,0.0357
935.00,0.0358
934.00,0.0359
933.00,0.0360
932.00,0.0359
931.00,0.0358
930.00,0.0357
929.00,0.0357
928.00,0.0358
927.00,0.0360
926.00,0.0362
925.00,0.0363
924.00,0.0365
923.00,0.0365
922.00,0.0366
921.00,0.0366
920.00,0.0367
919.00,0.0368
918.00,0.0369
917.00,0.0370
916.00,0.0371
915.00,0.0370
914.00,0.0370
913.00,0.0370
912.00,0.0371
911.00,0.0373
910.00,0.0374
909.00,0.0374
908.00,0.0375
907.00,0.0375
906.00,0.0374
905.00,0.0374
904.00,0.0374
903.00,0.0374
902.00,0.0375
901.00,0.0375
900.00,0.0377
899.00,0.0378
898.00,0.0378
897.00,0.0377
896.00,0.0376
895.00,0.0376
894.00,0.0377
893.00,0.0379
892.00,0.0380
891.00,0.0381
890.00,0.0381
889.00,0.0382
888.00,0.0382
887.00,0.0382
886.00,0.0382
885.00,0.0382
884.00,0.0383
883.00,0.0383
882.00,0.0384
881.00,0.0384
880.00,0.0385
879.00,0.0384
878.00,0.0383
877.00,0.0383
876.00,0.0383
875.00,0.0384
874.00,0.0384
873.00,0.0385
872.00,0.0385
871.00,0.0385
870.00,0.0385
869.00,0.0386
868.00,0.0386
867.00,0.0387
866.00,0.0387
865.00,0.0388
864.00,0.0389
863.00,0.0391
862.00,0.0393
861.00,0.0394
860.00,0.0395
859.00,0.0396
858.00,0.0397
857.00,0.0397
856.00,0.0398
855.00,0.0399
854.00,0.0401
853.00,0.0402
852.00,0.0402
851.00,0.0401
850.00,0.0401
849.00,0.0401
848.00,0.0402
847.00,0.0403
846.00,0.0406
845.00,0.0408
844.00,0.0409
843.00,0.0410
842.00,0.0411
841.00,0.0411
840.00,0.0412
839.00,0.0414
838.00,0.0417
837.00,0.0420
836.00,0.0423
835.00,0.0423
834.00,0.0424
833.00,0.0425
832.00,0.0427
831.00,0.0429
830.00,0.0430
829.00,0.0431
828.00,0.0432
827.00,0.0433
826.00,0.0433
825.00,0.0433
824.00,0.0434
823.00,0.0435
822.00,0.0436
821.00,0.0437
820.00,0.0438
819.00,0.0438
818.00,0.0437
817.00,0.0437
816.00,0.0438
815.00,0.0439
814.00,0.0439
813.00,0.0440
812.00,0.0441
811.00,0.0442
810.00,0.0444
809.00,0.0445
808.00,0.0445
807.00,0.0444
806.00,0.0442
805.00,0.0442
804.00,0.0442
803.00,0.0443
802.00,0.0445
801.00,0.0448
800.00,0.0449
799.00,0.0450
798.00,0.0449
797.00,0.0449
796.00,0.0451
795.00,0.0455
794.00,0.0457
793.00,0.0459
792.00,0.0460
791.00,0.0461
790.00,0.0463
789.00,0.0465
788.00,0.0466
787.00,0.0467
786.00,0.0468
785.00,0.0469
784.00,0.0470
783.00,0.0471
782.00,0.0471
781.00,0.0472
780.00,0.0473
779.00,0.0474
778.00,0.0475
777.00,0.0476
776.00,0.0477
775.00,0.0478
774.00,0.0479
773.00,0.0481
772.00,0.0482
771.00,0.0483
770.00,0.0483
769.00,0.0482
768.00,0.0482
767.00,0.0482
766.00,0.0482
765.00,0.0483
764.00,0.0485
763.00,0.0487
762.00,0.0489
761.00,0.0490
760.00,0.0491
759.00,0.0493
758.00,0.0494
757.00,0.0495
756.00,0.0495
755.00,0.0495
754.00,0.0496
753.00,0.0496
752.00,0.0497
751.00,0.0498
750.00,0.0499
749.00,0.0500
748.00,0.0501
747.00,0.0501
746.00,0.0500
745.00,0.0500
744.00,0.0500
743.00,0.0500
742.00,0.0500
741.00,0.0499
740.00,0.0498
739.00,0.0496
738.00,0.0496
737.00,0.0496
736.00,0.0498
735.00,0.0500
734.00,0.0501
733.00,0.0502
732.00,0.0503
731.00,0.0505
730.00,0.0506
729.00,0.0507
728.00,0.0507
727.00,0.0506
726.00,0.0507
725.00,0.0509
724.00,0.0510
723.00,0.0511
722.00,0.0511
721.00,0.0512
720.00,0.0515
719.00,0.0517
718.00,0.0518
717.00,0.0518
716.00,0.0519
715.00,0.0521
714.00,0.0524
713.00,0.0529
712.00,0.0534
711.00,0.0536
710.00,0.0536
709.00,0.0533
708.00,0.0532
707.00,0.0533
706.00,0.0536
705.00,0.0541
704.00,0.0545
703.00,0.0548
702.00,0.0547
701.00,0.0545
700.00,0.0544
699.00,0.0544
698.00,0.0546
697.00,0.0549
696.00,0.0551
695.00,0.0554
694.00,0.0555
693.00,0.0556
692.00,0.0557
691.00,0.0558
690.00,0.0559
689.00,0.0560
688.00,0.0560
687.00,0.0561
686.00,0.0561
685.00,0.0562
684.00,0.0564
683.00,0.0567
682.00,0.0572
681.00,0.0576
680.00,0.0578
679.00,0.0578
678.00,0.0578
677.00,0.0580
676.00,0.0583
675.00,0.0585
674.00,0.0584
673.00,0.0582
672.00,0.0581
671.00,0.0580
670.00,0.0580
669.00,0.0587
668.00,0.0605
667.00,0.0622
666.00,0.0624
665.00,0.0615
664.00,0.0604
663.00,0.0596
662.00,0.0591
661.00,0.0593
660.00,0.0601
659.00,0.0611
658.00,0.0617
657.00,0.0619
656.00,0.0619
655.00,0.0620
654.00,0.0620
653.00,0.0620
652.00,0.0619
651.00,0.0617
650.00,0.0615
