Created as New Dataset,Monday, April 03 2023
cm-1,A
4000.00,0.0060
3999.00,0.0060
3998.00,0.0060
3997.00,0.0059
3996.00,0.0059
3995.00,0.0059
3994.00,0.0059
3993.00,0.0059
3992.00,0.0060
3991.00,0.0060
3990.00,0.0060
3989.00,0.0059
3988.00,0.0059
3987.00,0.0059
3986.00,0.0059
3985.00,0.0059
3984.00,0.0059
3983.00,0.0058
3982.00,0.0058
3981.00,0.0058
3980.00,0.0058
3979.00,0.0059
3978.00,0.0059
3977.00,0.0059
3976.00,0.0059
3975.00,0.0059
3974.00,0.0059
3973.00,0.0059
3972.00,0.0058
3971.00,0.0058
3970.00,0.0058
3969.00,0.0058
3968.00,0.0058
3967.00,0.0058
3966.00,0.0059
3965.00,0.0059
3964.00,0.0059
3963.00,0.0059
3962.00,0.0059
3961.00,0.0059
3960.00,0.0058
3959.00,0.0058
3958.00,0.0058
3957.00,0.0058
3956.00,0.0058
3955.00,0.0057
3954.00,0.0057
3953.00,0.0058
3952.00,0.0058
3951.00,0.0058
3950.00,0.0058
3949.00,0.0059
3948.00,0.0059
3947.00,0.0059
3946.00,0.0058
3945.00,0.0058
3944.00,0.0057
3943.00,0.0057
3942.00,0.0057
3941.00,0.0057
3940.00,0.0057
3939.00,0.0058
3938.00,0.0058
3937.00,0.0058
3936.00,0.0058
3935.00,0.0059
3934.00,0.0059
3933.00,0.0059
3932.00,0.0059
3931.00,0.0058
3930.00,0.0058
3929.00,0.0057
3928.00,0.0057
3927.00,0.0056
3926.00,0.0056
3925.00,0.0056
3924.00,0.0056
3923.00,0.0056
3922.00,0.0057
3921.00,0.0057
3920.00,0.0058
3919.00,0.0058
3918.00,0.0058
3917.00,0.0057
3916.00,0.0057
3915.00,0.0056
3914.00,0.0056
3913.00,0.0056
3912.00,0.0056
3911.00,0.0056
3910.00,0.0056
3909.00,0.0056
3908.00,0.0057
3907.00,0.0057
3906.00,0.0058
3905.00,0.0059
3904.00,0.0060
3903.00,0.0061
3902.00,0.0061
3901.00,0.0060
3900.00,0.0059
3899.00,0.0058
3898.00,0.0057
3897.00,0.0057
3896.00,0.0057
3895.00,0.0057
3894.00,0.0056
3893.00,0.0056
3892.00,0.0055
3891.00,0.0056
3890.00,0.0056
3889.00,0.0057
3888.00,0.0058
3887.00,0.0058
3886.00,0.0057
3885.00,0.0057
3884.00,0.0057
3883.00,0.0057
3882.00,0.0056
3881.00,0.0055
3880.00,0.0055
3879.00,0.0056
3878.00,0.0056
3877.00,0.0056
3876.00,0.0055
3875.00,0.0054
3874.00,0.0054
3873.00,0.0055
3872.00,0.0056
3871.00,0.0056
3870.00,0.0056
3869.00,0.0056
3868.00,0.0057
3867.00,0.0058
3866.00,0.0058
3865.00,0.0057
3864.00,0.0056
3863.00,0.0055
3862.00,0.0056
3861.00,0.0056
3860.00,0.0056
3859.00,0.0056
3858.00,0.0056
3857.00,0.0056
3856.00,0.0056
3855.00,0.0057
3854.00,0.0056
3853.00,0.0056
3852.00,0.0056
3851.00,0.0056
3850.00,0.0056
3849.00,0.0056
3848.00,0.0056
3847.00,0.0055
3846.00,0.0055
3845.00,0.0054
3844.00,0.0054
3843.00,0.0054
3842.00,0.0054
3841.00,0.0054
3840.00,0.0054
3839.00,0.0054
3838.00,0.0054
3837.00,0.0054
3836.00,0.0054
3835.00,0.0054
3834.00,0.0054
3833.00,0.0054
3832.00,0.0055
3831.00,0.0055
3830.00,0.0055
3829.00,0.0054
3828.00,0.0053
3827.00,0.0053
3826.00,0.0052
3825.00,0.0053
3824.00,0.0054
3823.00,0.0055
3822.00,0.0054
3821.00,0.0054
3820.00,0.0054
3819.00,0.0054
3818.00,0.0054
3817.00,0.0053
3816.00,0.0052
3815.00,0.0051
3814.00,0.0052
3813.00,0.0053
3812.00,0.0053
3811.00,0.0052
3810.00,0.0052
3809.00,0.0052
3808.00,0.0053
3807.00,0.0053
3806.00,0.0054
3805.00,0.0054
3804.00,0.0054
3803.00,0.0053
3802.00,0.0052
3801.00,0.0051
3800.00,0.0052
3799.00,0.0052
3798.00,0.0052
3797.00,0.0051
3796.00,0.0051
3795.00,0.0051
3794.00,0.0051
3793.00,0.0051
3792.00,0.0051
3791.00,0.0051
3790.00,0.0051
3789.00,0.0052
3788.00,0.0052
3787.00,0.0052
3786.00,0.0051
3785.00,0.0051
3784.00,0.0051
3783.00,0.0051
3782.00,0.0051
3781.00,0.0050
3780.00,0.0050
3779.00,0.0049
3778.00,0.0050
3777.00,0.0050
3776.00,0.0050
3775.00,0.0051
3774.00,0.0051
3773.00,0.0051
3772.00,0.0052
3771.00,0.0052
3770.00,0.0052
3769.00,0.0052
3768.00,0.0052
3767.00,0.0052
3766.00,0.0052
3765.00,0.0052
3764.00,0.0052
3763.00,0.0052
3762.00,0.0052
3761.00,0.0052
3760.00,0.0052
3759.00,0.0051
3758.00,0.0052
3757.00,0.0052
3756.00,0.0052
3755.00,0.0053
3754.00,0.0054
3753.00,0.0054
3752.00,0.0056
3751.00,0.0056
3750.00,0.0057
3749.00,0.0057
3748.00,0.0056
3747.00,0.0056
3746.00,0.0055
3745.00,0.0055
3744.00,0.0055
3743.00,0.0055
3742.00,0.0055
3741.00,0.0056
3740.00,0.0056
3739.00,0.0056
3738.00,0.0057
3737.00,0.0057
3736.00,0.0057
3735.00,0.0056
3734.00,0.0055
3733.00,0.0055
3732.00,0.0055
3731.00,0.0054
3730.00,0.0054
3729.00,0.0054
3728.00,0.0054
3727.00,0.0054
3726.00,0.0053
3725.00,0.0052
3724.00,0.0052
3723.00,0.0051
3722.00,0.0051
3721.00,0.0051
3720.00,0.0050
3719.00,0.0050
3718.00,0.0050
3717.00,0.0050
3716.00,0.0051
3715.00,0.0052
3714.00,0.0053
3713.00,0.0053
3712.00,0.0053
3711.00,0.0053
3710.00,0.0053
3709.00,0.0053
3708.00,0.0053
3707.00,0.0052
3706.00,0.0052
3705.00,0.0051
3704.00,0.0051
3703.00,0.0050
3702.00,0.0050
3701.00,0.0050
3700.00,0.0051
3699.00,0.0051
3698.00,0.0052
3697.00,0.0051
3696.00,0.0051
3695.00,0.0051
3694.00,0.0051
3693.00,0.0051
3692.00,0.0052
3691.00,0.0052
3690.00,0.0052
3689.00,0.0053
3688.00,0.0053
3687.00,0.0054
3686.00,0.0054
3685.00,0.0054
3684.00,0.0055
3683.00,0.0055
3682.00,0.0055
3681.00,0.0055
3680.00,0.0055
3679.00,0.0055
3678.00,0.0056
3677.00,0.0056
3676.00,0.0056
3675.00,0.0057
3674.00,0.0059
3673.00,0.0061
3672.00,0.0061
3671.00,0.0060
3670.00,0.0059
3669.00,0.0058
3668.00,0.0059
3667.00,0.0059
3666.00,0.0060
3665.00,0.0060
3664.00,0.0060
3663.00,0.0060
3662.00,0.0060
3661.00,0.0061
3660.00,0.0061
3659.00,0.0062
3658.00,0.0063
3657.00,0.0064
3656.00,0.0065
3655.00,0.0065
3654.00,0.0066
3653.00,0.0066
3652.00,0.0067
3651.00,0.0068
3650.00,0.0069
3649.00,0.0069
3648.00,0.0069
3647.00,0.0069
3646.00,0.0069
3645.00,0.0069
3644.00,0.0068
3643.00,0.0068
3642.00,0.0068
3641.00,0.0068
3640.00,0.0069
3639.00,0.0069
3638.00,0.0069
3637.00,0.0070
3636.00,0.0070
3635.00,0.0071
3634.00,0.0072
3633.00,0.0073
3632.00,0.0074
3631.00,0.0075
3630.00,0.0077
3629.00,0.0078
3628.00,0.0079
3627.00,0.0079
3626.00,0.0078
3625.00,0.0077
3624.00,0.0076
3623.00,0.0076
3622.00,0.0076
3621.00,0.0077
3620.00,0.0078
3619.00,0.0080
3618.00,0.0080
3617.00,0.0081
3616.00,0.0081
3615.00,0.0081
3614.00,0.0082
3613.00,0.0083
3612.00,0.0084
3611.00,0.0085
3610.00,0.0086
3609.00,0.0085
3608.00,0.0085
3607.00,0.0084
3606.00,0.0084
3605.00,0.0084
3604.00,0.0084
3603.00,0.0084
3602.00,0.0084
3601.00,0.0084
3600.00,0.0084
3599.00,0.0085
3598.00,0.0084
3597.00,0.0084
3596.00,0.0085
3595.00,0.0085
3594.00,0.0086
3593.00,0.0087
3592.00,0.0088
3591.00,0.0089
3590.00,0.0089
3589.00,0.0089
3588.00,0.0089
3587.00,0.0089
3586.00,0.0090
3585.00,0.0090
3584.00,0.0090
3583.00,0.0090
3582.00,0.0090
3581.00,0.0090
3580.00,0.0090
3579.00,0.0091
3578.00,0.0091
3577.00,0.0091
3576.00,0.0091
3575.00,0.0092
3574.00,0.0092
3573.00,0.0093
3572.00,0.0093
3571.00,0.0093
3570.00,0.0094
3569.00,0.0095
3568.00,0.0096
3567.00,0.0097
3566.00,0.0098
3565.00,0.0098
3564.00,0.0098
3563.00,0.0098
3562.00,0.0097
3561.00,0.0097
3560.00,0.0097
3559.00,0.0098
3558.00,0.0098
3557.00,0.0098
3556.00,0.0098
3555.00,0.0099
3554.00,0.0099
3553.00,0.0099
3552.00,0.0100
3551.00,0.0101
3550.00,0.0102
3549.00,0.0102
3548.00,0.0103
3547.00,0.0103
3546.00,0.0104
3545.00,0.0105
3544.00,0.0105
3543.00,0.0105
3542.00,0.0105
3541.00,0.0104
3540.00,0.0104
3539.00,0.0104
3538.00,0.0105
3537.00,0.0105
3536.00,0.0105
3535.00,0.0106
3534.00,0.0106
3533.00,0.0106
3532.00,0.0106
3531.00,0.0106
3530.00,0.0107
3529.00,0.0107
3528.00,0.0108
3527.00,0.0109
3526.00,0.0109
3525.00,0.0110
3524.00,0.0109
3523.00,0.0109
3522.00,0.0110
3521.00,0.0110
3520.00,0.0110
3519.00,0.0110
3518.00,0.0110
3517.00,0.0111
3516.00,0.0111
3515.00,0.0112
3514.00,0.0112
3513.00,0.0112
3512.00,0.0112
3511.00,0.0112
3510.00,0.0112
3509.00,0.0113
3508.00,0.0114
3507.00,0.0114
3506.00,0.0114
3505.00,0.0114
3504.00,0.0115
3503.00,0.0115
3502.00,0.0116
3501.00,0.0116
3500.00,0.0116
3499.00,0.0116
3498.00,0.0117
3497.00,0.0117
3496.00,0.0118
3495.00,0.0119
3494.00,0.0119
3493.00,0.0119
3492.00,0.0119
3491.00,0.0120
3490.00,0.0120
3489.00,0.0120
3488.00,0.0120
3487.00,0.0120
3486.00,0.0121
3485.00,0.0121
3484.00,0.0121
3483.00,0.0121
3482.00,0.0121
3481.00,0.0121
3480.00,0.0122
3479.00,0.0122
3478.00,0.0123
3477.00,0.0123
3476.00,0.0124
3475.00,0.0124
3474.00,0.0124
3473.00,0.0124
3472.00,0.0124
3471.00,0.0124
3470.00,0.0124
3469.00,0.0124
3468.00,0.0124
3467.00,0.0125
3466.00,0.0126
3465.00,0.0126
3464.00,0.0126
3463.00,0.0126
3462.00,0.0127
3461.00,0.0127
3460.00,0.0127
3459.00,0.0128
3458.00,0.0128
3457.00,0.0128
3456.00,0.0128
3455.00,0.0128
3454.00,0.0128
3453.00,0.0128
3452.00,0.0129
3451.00,0.0129
3450.00,0.0129
3449.00,0.0129
3448.00,0.0130
3447.00,0.0130
3446.00,0.0131
3445.00,0.0131
3444.00,0.0131
3443.00,0.0131
3442.00,0.0131
3441.00,0.0131
3440.00,0.0131
3439.00,0.0131
3438.00,0.0132
3437.00,0.0132
3436.00,0.0132
3435.00,0.0132
3434.00,0.0132
3433.00,0.0132
3432.00,0.0133
3431.00,0.0133
3430.00,0.0133
3429.00,0.0133
3428.00,0.0134
3427.00,0.0134
3426.00,0.0134
3425.00,0.0135
3424.00,0.0135
3423.00,0.0135
3422.00,0.0135
3421.00,0.0135
3420.00,0.0135
3419.00,0.0136
3418.00,0.0136
3417.00,0.0136
3416.00,0.0136
3415.00,0.0136
3414.00,0.0136
3413.00,0.0136
3412.00,0.0136
3411.00,0.0136
3410.00,0.0136
3409.00,0.0136
3408.00,0.0136
3407.00,0.0136
3406.00,0.0136
3405.00,0.0137
3404.00,0.0137
3403.00,0.0138
3402.00,0.0138
3401.00,0.0138
3400.00,0.0138
3399.00,0.0138
3398.00,0.0138
3397.00,0.0138
3396.00,0.0139
3395.00,0.0139
3394.00,0.0139
3393.00,0.0139
3392.00,0.0138
3391.00,0.0138
3390.00,0.0138
3389.00,0.0139
3388.00,0.0139
3387.00,0.0139
3386.00,0.0139
3385.00,0.0139
3384.00,0.0139
3383.00,0.0139
3382.00,0.0139
3381.00,0.0140
3380.00,0.0140
3379.00,0.0141
3378.00,0.0141
3377.00,0.0142
3376.00,0.0142
3375.00,0.0142
3374.00,0.0142
3373.00,0.0141
3372.00,0.0141
3371.00,0.0141
3370.00,0.0141
3369.00,0.0141
3368.00,0.0141
3367.00,0.0141
3366.00,0.0142
3365.00,0.0143
3364.00,0.0143
3363.00,0.0143
3362.00,0.0143
3361.00,0.0143
3360.00,0.0143
3359.00,0.0143
3358.00,0.0142
3357.00,0.0142
3356.00,0.0142
3355.00,0.0143
3354.00,0.0143
3353.00,0.0143
3352.00,0.0144
3351.00,0.0144
3350.00,0.0144
3349.00,0.0144
3348.00,0.0143
3347.00,0.0143
3346.00,0.0143
3345.00,0.0143
3344.00,0.0143
3343.00,0.0144
3342.00,0.0144
3341.00,0.0144
3340.00,0.0144
3339.00,0.0144
3338.00,0.0144
3337.00,0.0144
3336.00,0.0144
3335.00,0.0143
3334.00,0.0143
3333.00,0.0143
3332.00,0.0143
3331.00,0.0144
3330.00,0.0144
3329.00,0.0145
3328.00,0.0145
3327.00,0.0145
3326.00,0.0145
3325.00,0.0145
3324.00,0.0145
3323.00,0.0145
3322.00,0.0144
3321.00,0.0144
3320.00,0.0144
3319.00,0.0144
3318.00,0.0144
3317.00,0.0144
3316.00,0.0144
3315.00,0.0144
3314.00,0.0144
3313.00,0.0144
3312.00,0.0144
3311.00,0.0144
3310.00,0.0144
3309.00,0.0145
3308.00,0.0145
3307.00,0.0145
3306.00,0.0145
3305.00,0.0144
3304.00,0.0144
3303.00,0.0145
3302.00,0.0145
3301.00,0.0145
3300.00,0.0146
3299.00,0.0145
3298.00,0.0145
3297.00,0.0145
3296.00,0.0145
3295.00,0.0145
3294.00,0.0145
3293.00,0.0145
3292.00,0.0145
3291.00,0.0145
3290.00,0.0145
3289.00,0.0145
3288.00,0.0145
3287.00,0.0145
3286.00,0.0145
3285.00,0.0145
3284.00,0.0145
3283.00,0.0145
3282.00,0.0145
3281.00,0.0145
3280.00,0.0145
3279.00,0.0145
3278.00,0.0145
3277.00,0.0145
3276.00,0.0145
3275.00,0.0145
3274.00,0.0145
3273.00,0.0145
3272.00,0.0145
3271.00,0.0145
3270.00,0.0145
3269.00,0.0145
3268.00,0.0144
3267.00,0.0144
3266.00,0.0144
3265.00,0.0144
3264.00,0.0144
3263.00,0.0144
3262.00,0.0144
3261.00,0.0145
3260.00,0.0145
3259.00,0.0145
3258.00,0.0144
3257.00,0.0144
3256.00,0.0145
3255.00,0.0145
3254.00,0.0145
3253.00,0.0144
3252.00,0.0144
3251.00,0.0144
3250.00,0.0144
3249.00,0.0145
3248.00,0.0145
3247.00,0.0145
3246.00,0.0145
3245.00,0.0145
3244.00,0.0145
3243.00,0.0145
3242.00,0.0145
3241.00,0.0145
3240.00,0.0145
3239.00,0.0145
3238.00,0.0145
3237.00,0.0145
3236.00,0.0144
3235.00,0.0144
3234.00,0.0144
3233.00,0.0144
3232.00,0.0144
3231.00,0.0144
3230.00,0.0144
3229.00,0.0144
3228.00,0.0144
3227.00,0.0144
3226.00,0.0144
3225.00,0.0144
3224.00,0.0144
3223.00,0.0144
3222.00,0.0144
3221.00,0.0144
3220.00,0.0144
3219.00,0.0144
3218.00,0.0144
3217.00,0.0144
3216.00,0.0144
3215.00,0.0143
3214.00,0.0143
3213.00,0.0143
3212.00,0.0143
3211.00,0.0143
3210.00,0.0143
3209.00,0.0144
3208.00,0.0144
3207.00,0.0144
3206.00,0.0143
3205.00,0.0143
3204.00,0.0143
3203.00,0.0143
3202.00,0.0143
3201.00,0.0143
3200.00,0.0143
3199.00,0.0143
3198.00,0.0143
3197.00,0.0143
3196.00,0.0143
3195.00,0.0142
3194.00,0.0142
3193.00,0.0142
3192.00,0.0143
3191.00,0.0142
3190.00,0.0142
3189.00,0.0142
3188.00,0.0142
3187.00,0.0142
3186.00,0.0142
3185.00,0.0143
3184.00,0.0143
3183.00,0.0142
3182.00,0.0142
3181.00,0.0141
3180.00,0.0141
3179.00,0.0141
3178.00,0.0141
3177.00,0.0141
3176.00,0.0141
3175.00,0.0141
3174.00,0.0141
3173.00,0.0141
3172.00,0.0141
3171.00,0.0141
3170.00,0.0140
3169.00,0.0140
3168.00,0.0140
3167.00,0.0140
3166.00,0.0139
3165.00,0.0139
3164.00,0.0139
3163.00,0.0139
3162.00,0.0139
3161.00,0.0139
3160.00,0.0139
3159.00,0.0139
3158.00,0.0139
3157.00,0.0138
3156.00,0.0138
3155.00,0.0138
3154.00,0.0138
3153.00,0.0138
3152.00,0.0138
3151.00,0.0138
3150.00,0.0138
3149.00,0.0138
3148.00,0.0138
3147.00,0.0137
3146.00,0.0137
3145.00,0.0137
3144.00,0.0137
3143.00,0.0136
3142.00,0.0136
3141.00,0.0136
3140.00,0.0136
3139.00,0.0137
3138.00,0.0137
3137.00,0.0137
3136.00,0.0137
3135.00,0.0136
3134.00,0.0136
3133.00,0.0136
3132.00,0.0136
3131.00,0.0136
3130.00,0.0136
3129.00,0.0136
3128.00,0.0135
3127.00,0.0135
3126.00,0.0135
3125.00,0.0135
3124.00,0.0134
3123.00,0.0134
3122.00,0.0134
3121.00,0.0135
3120.00,0.0135
3119.00,0.0135
3118.00,0.0135
3117.00,0.0135
3116.00,0.0135
3115.00,0.0134
3114.00,0.0134
3113.00,0.0134
3112.00,0.0134
3111.00,0.0134
3110.00,0.0134
3109.00,0.0134
3108.00,0.0134
3107.00,0.0134
3106.00,0.0134
3105.00,0.0134
3104.00,0.0134
3103.00,0.0134
3102.00,0.0134
3101.00,0.0134
3100.00,0.0133
3099.00,0.0133
3098.00,0.0133
3097.00,0.0132
3096.00,0.0132
3095.00,0.0133
3094.00,0.0133
3093.00,0.0133
3092.00,0.0133
3091.00,0.0133
3090.00,0.0133
3089.00,0.0133
3088.00,0.0132
3087.00,0.0132
3086.00,0.0132
3085.00,0.0132
3084.00,0.0132
3083.00,0.0132
3082.00,0.0132
3081.00,0.0132
3080.00,0.0132
3079.00,0.0132
3078.00,0.0132
3077.00,0.0131
3076.00,0.0131
3075.00,0.0131
3074.00,0.0131
3073.00,0.0131
3072.00,0.0131
3071.00,0.0131
3070.00,0.0131
3069.00,0.0131
3068.00,0.0131
3067.00,0.0131
3066.00,0.0131
3065.00,0.0131
3064.00,0.0131
3063.00,0.0131
3062.00,0.0130
3061.00,0.0130
3060.00,0.0130
3059.00,0.0130
3058.00,0.0130
3057.00,0.0130
3056.00,0.0130
3055.00,0.0130
3054.00,0.0129
3053.00,0.0129
3052.00,0.0129
3051.00,0.0129
3050.00,0.0129
3049.00,0.0129
3048.00,0.0129
3047.00,0.0129
3046.00,0.0129
3045.00,0.0129
3044.00,0.0129
3043.00,0.0129
3042.00,0.0129
3041.00,0.0128
3040.00,0.0128
3039.00,0.0128
3038.00,0.0128
3037.00,0.0128
3036.00,0.0128
3035.00,0.0128
3034.00,0.0128
3033.00,0.0127
3032.00,0.0127
3031.00,0.0127
3030.00,0.0127
3029.00,0.0127
3028.00,0.0126
3027.00,0.0126
3026.00,0.0126
3025.00,0.0126
3024.00,0.0127
3023.00,0.0127
3022.00,0.0126
3021.00,0.0126
3020.00,0.0126
3019.00,0.0127
3018.00,0.0127
3017.00,0.0127
3016.00,0.0127
3015.00,0.0128
3014.00,0.0129
3013.00,0.0129
3012.00,0.0130
3011.00,0.0131
3010.00,0.0131
3009.00,0.0131
3008.00,0.0132
3007.00,0.0133
3006.00,0.0134
3005.00,0.0135
3004.00,0.0136
3003.00,0.0137
3002.00,0.0138
3001.00,0.0139
3000.00,0.0140
2999.00,0.0140
2998.00,0.0141
2997.00,0.0142
2996.00,0.0142
2995.00,0.0143
2994.00,0.0144
2993.00,0.0145
2992.00,0.0145
2991.00,0.0146
2990.00,0.0146
2989.00,0.0146
2988.00,0.0147
2987.00,0.0148
2986.00,0.0150
2985.00,0.0152
2984.00,0.0155
2983.00,0.0158
2982.00,0.0160
2981.00,0.0161
2980.00,0.0160
2979.00,0.0158
2978.00,0.0157
2977.00,0.0155
2976.00,0.0155
2975.00,0.0155
2974.00,0.0155
2973.00,0.0156
2972.00,0.0156
2971.00,0.0156
2970.00,0.0155
2969.00,0.0154
2968.00,0.0153
2967.00,0.0153
2966.00,0.0152
2965.00,0.0152
2964.00,0.0151
2963.00,0.0151
2962.00,0.0150
2961.00,0.0149
2960.00,0.0149
2959.00,0.0149
2958.00,0.0149
2957.00,0.0149
2956.00,0.0148
2955.00,0.0148
2954.00,0.0148
2953.00,0.0148
2952.00,0.0148
2951.00,0.0148
2950.00,0.0148
2949.00,0.0147
2948.00,0.0147
2947.00,0.0147
2946.00,0.0147
2945.00,0.0147
2944.00,0.0147
2943.00,0.0148
2942.00,0.0148
2941.00,0.0149
2940.00,0.0149
2939.00,0.0150
2938.00,0.0151
2937.00,0.0152
2936.00,0.0153
2935.00,0.0153
2934.00,0.0154
2933.00,0.0155
2932.00,0.0156
2931.00,0.0157
2930.00,0.0158
2929.00,0.0158
2928.00,0.0158
2927.00,0.0158
2926.00,0.0158
2925.00,0.0158
2924.00,0.0158
2923.00,0.0158
2922.00,0.0157
2921.00,0.0156
2920.00,0.0154
2919.00,0.0151
2918.00,0.0149
2917.00,0.0147
2916.00,0.0145
2915.00,0.0145
2914.00,0.0145
2913.00,0.0145
2912.00,0.0145
2911.00,0.0145
2910.00,0.0145
2909.00,0.0144
2908.00,0.0144
2907.00,0.0144
2906.00,0.0143
2905.00,0.0143
2904.00,0.0142
2903.00,0.0142
2902.00,0.0141
2901.00,0.0141
2900.00,0.0140
2899.00,0.0140
2898.00,0.0140
2897.00,0.0139
2896.00,0.0139
2895.00,0.0138
2894.00,0.0138
2893.00,0.0138
2892.00,0.0138
2891.00,0.0138
2890.00,0.0138
2889.00,0.0138
2888.00,0.0137
2887.00,0.0137
2886.00,0.0136
2885.00,0.0136
2884.00,0.0135
2883.00,0.0135
2882.00,0.0134
2881.00,0.0133
2880.00,0.0133
2879.00,0.0132
2878.00,0.0132
2877.00,0.0132
2876.00,0.0132
2875.00,0.0131
2874.00,0.0131
2873.00,0.0131
2872.00,0.0131
2871.00,0.0130
2870.00,0.0130
2869.00,0.0130
2868.00,0.0130
2867.00,0.0130
2866.00,0.0130
2865.00,0.0130
2864.00,0.0130
2863.00,0.0130
2862.00,0.0131
2861.00,0.0131
2860.00,0.0132
2859.00,0.0133
2858.00,0.0133
2857.00,0.0134
2856.00,0.0134
2855.00,0.0134
2854.00,0.0134
2853.00,0.0133
2852.00,0.0132
2851.00,0.0131
2850.00,0.0129
2849.00,0.0127
2848.00,0.0125
2847.00,0.0123
2846.00,0.0122
2845.00,0.0121
2844.00,0.0120
2843.00,0.0119
2842.00,0.0118
2841.00,0.0117
2840.00,0.0116
2839.00,0.0116
2838.00,0.0115
2837.00,0.0115
2836.00,0.0114
2835.00,0.0114
2834.00,0.0113
2833.00,0.0113
2832.00,0.0112
2831.00,0.0112
2830.00,0.0112
2829.00,0.0111
2828.00,0.0111
2827.00,0.0111
2826.00,0.0111
2825.00,0.0110
2824.00,0.0110
2823.00,0.0110
2822.00,0.0110
2821.00,0.0110
2820.00,0.0109
2819.00,0.0109
2818.00,0.0109
2817.00,0.0109
2816.00,0.0109
2815.00,0.0108
2814.00,0.0108
2813.00,0.0108
2812.00,0.0108
2811.00,0.0107
2810.00,0.0107
2809.00,0.0107
2808.00,0.0106
2807.00,0.0106
2806.00,0.0106
2805.00,0.0105
2804.00,0.0105
2803.00,0.0105
2802.00,0.0105
2801.00,0.0105
2800.00,0.0105
2799.00,0.0105
2798.00,0.0104
2797.00,0.0104
2796.00,0.0104
2795.00,0.0104
2794.00,0.0104
2793.00,0.0104
2792.00,0.0103
2791.00,0.0103
2790.00,0.0103
2789.00,0.0103
2788.00,0.0103
2787.00,0.0103
2786.00,0.0102
2785.00,0.0102
2784.00,0.0101
2783.00,0.0101
2782.00,0.0101
2781.00,0.0101
2780.00,0.0101
2779.00,0.0101
2778.00,0.0100
2777.00,0.0100
2776.00,0.0100
2775.00,0.0100
2774.00,0.0100
2773.00,0.0100
2772.00,0.0100
2771.00,0.0100
2770.00,0.0100
2769.00,0.0100
2768.00,0.0100
2767.00,0.0099
2766.00,0.0099
2765.00,0.0099
2764.00,0.0098
2763.00,0.0098
2762.00,0.0098
2761.00,0.0098
2760.00,0.0098
2759.00,0.0098
2758.00,0.0098
2757.00,0.0098
2756.00,0.0098
2755.00,0.0098
2754.00,0.0098
2753.00,0.0098
2752.00,0.0098
2751.00,0.0097
2750.00,0.0097
2749.00,0.0097
2748.00,0.0097
2747.00,0.0097
2746.00,0.0096
2745.00,0.0096
2744.00,0.0096
2743.00,0.0095
2742.00,0.0095
2741.00,0.0095
2740.00,0.0095
2739.00,0.0095
2738.00,0.0095
2737.00,0.0095
2736.00,0.0095
2735.00,0.0094
2734.00,0.0094
2733.00,0.0094
2732.00,0.0094
2731.00,0.0094
2730.00,0.0094
2729.00,0.0094
2728.00,0.0094
2727.00,0.0093
2726.00,0.0093
2725.00,0.0093
2724.00,0.0093
2723.00,0.0093
2722.00,0.0094
2721.00,0.0094
2720.00,0.0094
2719.00,0.0094
2718.00,0.0094
2717.00,0.0093
2716.00,0.0093
2715.00,0.0093
2714.00,0.0093
2713.00,0.0093
2712.00,0.0092
2711.00,0.0092
2710.00,0.0092
2709.00,0.0091
2708.00,0.0091
2707.00,0.0091
2706.00,0.0091
2705.00,0.0091
2704.00,0.0091
2703.00,0.0091
2702.00,0.0091
2701.00,0.0091
2700.00,0.0090
2699.00,0.0090
2698.00,0.0090
2697.00,0.0090
2696.00,0.0090
2695.00,0.0090
2694.00,0.0090
2693.00,0.0090
2692.00,0.0089
2691.00,0.0089
2690.00,0.0089
2689.00,0.0089
2688.00,0.0090
2687.00,0.0090
2686.00,0.0090
2685.00,0.0090
2684.00,0.0089
2683.00,0.0089
2682.00,0.0089
2681.00,0.0089
2680.00,0.0088
2679.00,0.0088
2678.00,0.0088
2677.00,0.0088
2676.00,0.0088
2675.00,0.0088
2674.00,0.0088
2673.00,0.0088
2672.00,0.0088
2671.00,0.0088
2670.00,0.0088
2669.00,0.0088
2668.00,0.0088
2667.00,0.0088
2666.00,0.0088
2665.00,0.0088
2664.00,0.0088
2663.00,0.0088
2662.00,0.0088
2661.00,0.0088
2660.00,0.0088
2659.00,0.0088
2658.00,0.0088
2657.00,0.0088
2656.00,0.0088
2655.00,0.0088
2654.00,0.0089
2653.00,0.0089
2652.00,0.0089
2651.00,0.0088
2650.00,0.0088
2649.00,0.0088
2648.00,0.0087
2647.00,0.0087
2646.00,0.0087
2645.00,0.0087
2644.00,0.0087
2643.00,0.0087
2642.00,0.0088
2641.00,0.0087
2640.00,0.0087
2639.00,0.0087
2638.00,0.0087
2637.00,0.0086
2636.00,0.0086
2635.00,0.0086
2634.00,0.0087
2633.00,0.0087
2632.00,0.0086
2631.00,0.0086
2630.00,0.0086
2629.00,0.0086
2628.00,0.0086
2627.00,0.0086
2626.00,0.0086
2625.00,0.0086
2624.00,0.0085
2623.00,0.0085
2622.00,0.0086
2621.00,0.0086
2620.00,0.0086
2619.00,0.0086
2618.00,0.0085
2617.00,0.0085
2616.00,0.0085
2615.00,0.0085
2614.00,0.0085
2613.00,0.0085
2612.00,0.0085
2611.00,0.0085
2610.00,0.0085
2609.00,0.0085
2608.00,0.0085
2607.00,0.0085
2606.00,0.0085
2605.00,0.0085
2604.00,0.0085
2603.00,0.0085
2602.00,0.0084
2601.00,0.0084
2600.00,0.0084
2599.00,0.0084
2598.00,0.0084
2597.00,0.0084
2596.00,0.0083
2595.00,0.0083
2594.00,0.0083
2593.00,0.0083
2592.00,0.0083
2591.00,0.0083
2590.00,0.0083
2589.00,0.0083
2588.00,0.0083
2587.00,0.0083
2586.00,0.0083
2585.00,0.0083
2584.00,0.0083
2583.00,0.0083
2582.00,0.0083
2581.00,0.0083
2580.00,0.0083
2579.00,0.0083
2578.00,0.0082
2577.00,0.0082
2576.00,0.0082
2575.00,0.0082
2574.00,0.0082
2573.00,0.0082
2572.00,0.0082
2571.00,0.0083
2570.00,0.0083
2569.00,0.0082
2568.00,0.0082
2567.00,0.0082
2566.00,0.0082
2565.00,0.0083
2564.00,0.0083
2563.00,0.0082
2562.00,0.0082
2561.00,0.0081
2560.00,0.0081
2559.00,0.0080
2558.00,0.0080
2557.00,0.0081
2556.00,0.0081
2555.00,0.0081
2554.00,0.0081
2553.00,0.0081
2552.00,0.0081
2551.00,0.0081
2550.00,0.0081
2549.00,0.0080
2548.00,0.0080
2547.00,0.0080
2546.00,0.0080
2545.00,0.0080
2544.00,0.0080
2543.00,0.0080
2542.00,0.0079
2541.00,0.0079
2540.00,0.0079
2539.00,0.0080
2538.00,0.0080
2537.00,0.0080
2536.00,0.0079
2535.00,0.0079
2534.00,0.0078
2533.00,0.0078
2532.00,0.0078
2531.00,0.0078
2530.00,0.0078
2529.00,0.0078
2528.00,0.0078
2527.00,0.0078
2526.00,0.0079
2525.00,0.0079
2524.00,0.0080
2523.00,0.0079
2522.00,0.0079
2521.00,0.0079
2520.00,0.0079
2519.00,0.0079
2518.00,0.0078
2517.00,0.0078
2516.00,0.0078
2515.00,0.0078
2514.00,0.0079
2513.00,0.0079
2512.00,0.0078
2511.00,0.0078
2510.00,0.0077
2509.00,0.0076
2508.00,0.0076
2507.00,0.0076
2506.00,0.0077
2505.00,0.0077
2504.00,0.0077
2503.00,0.0077
2502.00,0.0077
2501.00,0.0077
2500.00,0.0076
2499.00,0.0076
2498.00,0.0077
2497.00,0.0077
2496.00,0.0078
2495.00,0.0078
2494.00,0.0078
2493.00,0.0078
2492.00,0.0078
2491.00,0.0077
2490.00,0.0077
2489.00,0.0076
2488.00,0.0076
2487.00,0.0076
2486.00,0.0076
2485.00,0.0075
2484.00,0.0075
2483.00,0.0075
2482.00,0.0075
2481.00,0.0075
2480.00,0.0076
2479.00,0.0076
2478.00,0.0076
2477.00,0.0076
2476.00,0.0075
2475.00,0.0075
2474.00,0.0075
2473.00,0.0075
2472.00,0.0075
2471.00,0.0075
2470.00,0.0075
2469.00,0.0075
2468.00,0.0074
2467.00,0.0074
2466.00,0.0074
2465.00,0.0074
2464.00,0.0074
2463.00,0.0074
2462.00,0.0074
2461.00,0.0075
2460.00,0.0075
2459.00,0.0075
2458.00,0.0074
2457.00,0.0074
2456.00,0.0074
2455.00,0.0074
2454.00,0.0074
2453.00,0.0074
2452.00,0.0074
2451.00,0.0074
2450.00,0.0074
2449.00,0.0074
2448.00,0.0074
2447.00,0.0074
2446.00,0.0074
2445.00,0.0073
2444.00,0.0072
2443.00,0.0072
2442.00,0.0072
2441.00,0.0072
2440.00,0.0072
2439.00,0.0072
2438.00,0.0072
2437.00,0.0072
2436.00,0.0072
2435.00,0.0072
2434.00,0.0072
2433.00,0.0072
2432.00,0.0072
2431.00,0.0071
2430.00,0.0071
2429.00,0.0071
2428.00,0.0071
2427.00,0.0072
2426.00,0.0072
2425.00,0.0073
2424.00,0.0072
2423.00,0.0072
2422.00,0.0071
2421.00,0.0071
2420.00,0.0071
2419.00,0.0071
2418.00,0.0071
2417.00,0.0071
2416.00,0.0071
2415.00,0.0071
2414.00,0.0070
2413.00,0.0070
2412.00,0.0070
2411.00,0.0070
2410.00,0.0070
2409.00,0.0070
2408.00,0.0069
2407.00,0.0069
2406.00,0.0069
2405.00,0.0069
2404.00,0.0068
2403.00,0.0068
2402.00,0.0068
2401.00,0.0068
2400.00,0.0068
2399.00,0.0068
2398.00,0.0068
2397.00,0.0068
2396.00,0.0068
2395.00,0.0068
2394.00,0.0068
2393.00,0.0067
2392.00,0.0067
2391.00,0.0067
2390.00,0.0067
2389.00,0.0068
2388.00,0.0068
2387.00,0.0068
2386.00,0.0067
2385.00,0.0067
2384.00,0.0067
2383.00,0.0067
2382.00,0.0066
2381.00,0.0065
2380.00,0.0064
2379.00,0.0062
2378.00,0.0060
2377.00,0.0059
2376.00,0.0059
2375.00,0.0059
2374.00,0.0060
2373.00,0.0061
2372.00,0.0061
2371.00,0.0061
2370.00,0.0061
2369.00,0.0061
2368.00,0.0061
2367.00,0.0061
2366.00,0.0060
2365.00,0.0060
2364.00,0.0059
2363.00,0.0059
2362.00,0.0060
2361.00,0.0061
2360.00,0.0062
2359.00,0.0062
2358.00,0.0061
2357.00,0.0059
2356.00,0.0058
2355.00,0.0058
2354.00,0.0058
2353.00,0.0057
2352.00,0.0057
2351.00,0.0057
2350.00,0.0058
2349.00,0.0059
2348.00,0.0059
2347.00,0.0059
2346.00,0.0059
2345.00,0.0059
2344.00,0.0059
2343.00,0.0059
2342.00,0.0059
2341.00,0.0059
2340.00,0.0059
2339.00,0.0059
2338.00,0.0059
2337.00,0.0059
2336.00,0.0059
2335.00,0.0059
2334.00,0.0059
2333.00,0.0059
2332.00,0.0058
2331.00,0.0057
2330.00,0.0058
2329.00,0.0059
2328.00,0.0061
2327.00,0.0063
2326.00,0.0064
2325.00,0.0064
2324.00,0.0064
2323.00,0.0062
2322.00,0.0061
2321.00,0.0061
2320.00,0.0060
2319.00,0.0060
2318.00,0.0061
2317.00,0.0062
2316.00,0.0062
2315.00,0.0061
2314.00,0.0060
2313.00,0.0059
2312.00,0.0059
2311.00,0.0060
2310.00,0.0061
2309.00,0.0062
2308.00,0.0061
2307.00,0.0060
2306.00,0.0060
2305.00,0.0060
2304.00,0.0060
2303.00,0.0060
2302.00,0.0061
2301.00,0.0061
2300.00,0.0062
2299.00,0.0062
2298.00,0.0062
2297.00,0.0062
2296.00,0.0062
2295.00,0.0062
2294.00,0.0062
2293.00,0.0062
2292.00,0.0062
2291.00,0.0062
2290.00,0.0063
2289.00,0.0064
2288.00,0.0065
2287.00,0.0065
2286.00,0.0065
2285.00,0.0065
2284.00,0.0064
2283.00,0.0063
2282.00,0.0063
2281.00,0.0062
2280.00,0.0062
2279.00,0.0062
2278.00,0.0062
2277.00,0.0061
2276.00,0.0060
2275.00,0.0060
2274.00,0.0059
2273.00,0.0059
2272.00,0.0059
2271.00,0.0059
2270.00,0.0059
2269.00,0.0060
2268.00,0.0059
2267.00,0.0059
2266.00,0.0059
2265.00,0.0060
2264.00,0.0061
2263.00,0.0061
2262.00,0.0061
2261.00,0.0061
2260.00,0.0061
2259.00,0.0060
2258.00,0.0060
2257.00,0.0060
2256.00,0.0059
2255.00,0.0059
2254.00,0.0059
2253.00,0.0059
2252.00,0.0060
2251.00,0.0059
2250.00,0.0059
2249.00,0.0059
2248.00,0.0058
2247.00,0.0058
2246.00,0.0058
2245.00,0.0058
2244.00,0.0058
2243.00,0.0058
2242.00,0.0057
2241.00,0.0058
2240.00,0.0058
2239.00,0.0059
2238.00,0.0060
2237.00,0.0060
2236.00,0.0060
2235.00,0.0060
2234.00,0.0060
2233.00,0.0060
2232.00,0.0059
2231.00,0.0059
2230.00,0.0058
2229.00,0.0058
2228.00,0.0058
2227.00,0.0058
2226.00,0.0057
2225.00,0.0057
2224.00,0.0056
2223.00,0.0056
2222.00,0.0056
2221.00,0.0057
2220.00,0.0058
2219.00,0.0058
2218.00,0.0057
2217.00,0.0057
2216.00,0.0057
2215.00,0.0057
2214.00,0.0058
2213.00,0.0058
2212.00,0.0058
2211.00,0.0057
2210.00,0.0057
2209.00,0.0057
2208.00,0.0057
2207.00,0.0056
2206.00,0.0055
2205.00,0.0055
2204.00,0.0055
2203.00,0.0056
2202.00,0.0057
2201.00,0.0058
2200.00,0.0060
2199.00,0.0061
2198.00,0.0061
2197.00,0.0060
2196.00,0.0059
2195.00,0.0058
2194.00,0.0058
2193.00,0.0058
2192.00,0.0057
2191.00,0.0056
2190.00,0.0055
2189.00,0.0055
2188.00,0.0056
2187.00,0.0058
2186.00,0.0059
2185.00,0.0060
2184.00,0.0059
2183.00,0.0058
2182.00,0.0056
2181.00,0.0055
2180.00,0.0056
2179.00,0.0056
2178.00,0.0056
2177.00,0.0055
2176.00,0.0054
2175.00,0.0054
2174.00,0.0055
2173.00,0.0056
2172.00,0.0057
2171.00,0.0057
2170.00,0.0058
2169.00,0.0058
2168.00,0.0059
2167.00,0.0058
2166.00,0.0058
2165.00,0.0058
2164.00,0.0059
2163.00,0.0059
2162.00,0.0058
2161.00,0.0055
2160.00,0.0052
2159.00,0.0050
2158.00,0.0050
2157.00,0.0051
2156.00,0.0052
2155.00,0.0051
2154.00,0.0051
2153.00,0.0050
2152.00,0.0049
2151.00,0.0048
2150.00,0.0047
2149.00,0.0046
2148.00,0.0045
2147.00,0.0045
2146.00,0.0045
2145.00,0.0046
2144.00,0.0047
2143.00,0.0048
2142.00,0.0048
2141.00,0.0049
2140.00,0.0048
2139.00,0.0048
2138.00,0.0047
2137.00,0.0045
2136.00,0.0044
2135.00,0.0042
2134.00,0.0041
2133.00,0.0041
2132.00,0.0041
2131.00,0.0041
2130.00,0.0042
2129.00,0.0042
2128.00,0.0043
2127.00,0.0044
2126.00,0.0045
2125.00,0.0046
2124.00,0.0046
2123.00,0.0045
2122.00,0.0045
2121.00,0.0045
2120.00,0.0046
2119.00,0.0047
2118.00,0.0048
2117.00,0.0049
2116.00,0.0049
2115.00,0.0048
2114.00,0.0048
2113.00,0.0048
2112.00,0.0047
2111.00,0.0047
2110.00,0.0047
2109.00,0.0047
2108.00,0.0047
2107.00,0.0046
2106.00,0.0046
2105.00,0.0045
2104.00,0.0045
2103.00,0.0044
2102.00,0.0045
2101.00,0.0045
2100.00,0.0046
2099.00,0.0046
2098.00,0.0046
2097.00,0.0046
2096.00,0.0046
2095.00,0.0045
2094.00,0.0044
2093.00,0.0044
2092.00,0.0044
2091.00,0.0044
2090.00,0.0044
2089.00,0.0044
2088.00,0.0044
2087.00,0.0044
2086.00,0.0044
2085.00,0.0045
2084.00,0.0045
2083.00,0.0044
2082.00,0.0043
2081.00,0.0042
2080.00,0.0042
2079.00,0.0043
2078.00,0.0044
2077.00,0.0044
2076.00,0.0044
2075.00,0.0044
2074.00,0.0043
2073.00,0.0043
2072.00,0.0043
2071.00,0.0042
2070.00,0.0041
2069.00,0.0041
2068.00,0.0040
2067.00,0.0040
2066.00,0.0040
2065.00,0.0041
2064.00,0.0041
2063.00,0.0041
2062.00,0.0041
2061.00,0.0041
2060.00,0.0041
2059.00,0.0041
2058.00,0.0041
2057.00,0.0041
2056.00,0.0041
2055.00,0.0041
2054.00,0.0042
2053.00,0.0043
2052.00,0.0044
2051.00,0.0044
2050.00,0.0044
2049.00,0.0043
2048.00,0.0043
2047.00,0.0043
2046.00,0.0044
2045.00,0.0045
2044.00,0.0045
2043.00,0.0044
2042.00,0.0043
2041.00,0.0042
2040.00,0.0042
2039.00,0.0044
2038.00,0.0046
2037.00,0.0048
2036.00,0.0049
2035.00,0.0048
2034.00,0.0047
2033.00,0.0046
2032.00,0.0044
2031.00,0.0044
2030.00,0.0044
2029.00,0.0045
2028.00,0.0046
2027.00,0.0047
2026.00,0.0047
2025.00,0.0046
2024.00,0.0045
2023.00,0.0044
2022.00,0.0043
2021.00,0.0043
2020.00,0.0043
2019.00,0.0043
2018.00,0.0042
2017.00,0.0040
2016.00,0.0039
2015.00,0.0039
2014.00,0.0040
2013.00,0.0041
2012.00,0.0041
2011.00,0.0042
2010.00,0.0042
2009.00,0.0041
2008.00,0.0040
2007.00,0.0038
2006.00,0.0037
2005.00,0.0037
2004.00,0.0038
2003.00,0.0039
2002.00,0.0041
2001.00,0.0041
2000.00,0.0041
1999.00,0.0041
1998.00,0.0041
1997.00,0.0041
1996.00,0.0040
1995.00,0.0040
1994.00,0.0040
1993.00,0.0040
1992.00,0.0041
1991.00,0.0041
1990.00,0.0041
1989.00,0.0041
1988.00,0.0039
1987.00,0.0037
1986.00,0.0037
1985.00,0.0038
1984.00,0.0040
1983.00,0.0043
1982.00,0.0044
1981.00,0.0044
1980.00,0.0044
1979.00,0.0042
1978.00,0.0040
1977.00,0.0038
1976.00,0.0037
1975.00,0.0037
1974.00,0.0036
1973.00,0.0035
1972.00,0.0035
1971.00,0.0035
1970.00,0.0035
1969.00,0.0035
1968.00,0.0034
1967.00,0.0033
1966.00,0.0034
1965.00,0.0035
1964.00,0.0036
1963.00,0.0036
1962.00,0.0036
1961.00,0.0035
1960.00,0.0034
1959.00,0.0033
1958.00,0.0031
1957.00,0.0031
1956.00,0.0031
1955.00,0.0031
1954.00,0.0031
1953.00,0.0031
1952.00,0.0030
1951.00,0.0030
1950.00,0.0030
1949.00,0.0030
1948.00,0.0031
1947.00,0.0032
1946.00,0.0033
1945.00,0.0033
1944.00,0.0034
1943.00,0.0033
1942.00,0.0031
1941.00,0.0030
1940.00,0.0029
1939.00,0.0029
1938.00,0.0028
1937.00,0.0029
1936.00,0.0029
1935.00,0.0030
1934.00,0.0031
1933.00,0.0031
1932.00,0.0031
1931.00,0.0030
1930.00,0.0029
1929.00,0.0028
1928.00,0.0027
1927.00,0.0027
1926.00,0.0027
1925.00,0.0028
1924.00,0.0028
1923.00,0.0029
1922.00,0.0029
1921.00,0.0030
1920.00,0.0030
1919.00,0.0030
1918.00,0.0029
1917.00,0.0028
1916.00,0.0027
1915.00,0.0027
1914.00,0.0027
1913.00,0.0028
1912.00,0.0028
1911.00,0.0027
1910.00,0.0027
1909.00,0.0026
1908.00,0.0026
1907.00,0.0026
1906.00,0.0026
1905.00,0.0026
1904.00,0.0025
1903.00,0.0024
1902.00,0.0024
1901.00,0.0024
1900.00,0.0025
1899.00,0.0026
1898.00,0.0026
1897.00,0.0026
1896.00,0.0025
1895.00,0.0024
1894.00,0.0024
1893.00,0.0025
1892.00,0.0026
1891.00,0.0026
1890.00,0.0025
1889.00,0.0024
1888.00,0.0024
1887.00,0.0024
1886.00,0.0024
1885.00,0.0023
1884.00,0.0023
1883.00,0.0023
1882.00,0.0022
1881.00,0.0023
1880.00,0.0023
1879.00,0.0023
1878.00,0.0023
1877.00,0.0023
1876.00,0.0023
1875.00,0.0022
1874.00,0.0022
1873.00,0.0022
1872.00,0.0023
1871.00,0.0024
1870.00,0.0024
1869.00,0.0023
1868.00,0.0021
1867.00,0.0021
1866.00,0.0021
1865.00,0.0022
1864.00,0.0022
1863.00,0.0021
1862.00,0.0021
1861.00,0.0020
1860.00,0.0020
1859.00,0.0021
1858.00,0.0021
1857.00,0.0021
1856.00,0.0021
1855.00,0.0021
1854.00,0.0021
1853.00,0.0021
1852.00,0.0021
1851.00,0.0021
1850.00,0.0021
1849.00,0.0021
1848.00,0.0021
1847.00,0.0022
1846.00,0.0022
1845.00,0.0022
1844.00,0.0020
1843.00,0.0018
1842.00,0.0017
1841.00,0.0018
1840.00,0.0019
1839.00,0.0019
1838.00,0.0019
1837.00,0.0019
1836.00,0.0019
1835.00,0.0019
1834.00,0.0019
1833.00,0.0020
1832.00,0.0021
1831.00,0.0020
1830.00,0.0018
1829.00,0.0017
1828.00,0.0016
1827.00,0.0017
1826.00,0.0017
1825.00,0.0017
1824.00,0.0017
1823.00,0.0018
1822.00,0.0019
1821.00,0.0019
1820.00,0.0019
1819.00,0.0019
1818.00,0.0018
1817.00,0.0018
1816.00,0.0018
1815.00,0.0018
1814.00,0.0019
1813.00,0.0019
1812.00,0.0019
1811.00,0.0018
1810.00,0.0018
1809.00,0.0018
1808.00,0.0019
1807.00,0.0020
1806.00,0.0020
1805.00,0.0020
1804.00,0.0021
1803.00,0.0021
1802.00,0.0021
1801.00,0.0021
1800.00,0.0021
1799.00,0.0022
1798.00,0.0023
1797.00,0.0024
1796.00,0.0025
1795.00,0.0026
1794.00,0.0027
1793.00,0.0026
1792.00,0.0025
1791.00,0.0023
1790.00,0.0022
1789.00,0.0024
1788.00,0.0025
1787.00,0.0026
1786.00,0.0027
1785.00,0.0028
1784.00,0.0028
1783.00,0.0028
1782.00,0.0028
1781.00,0.0028
1780.00,0.0029
1779.00,0.0030
1778.00,0.0031
1777.00,0.0033
1776.00,0.0034
1775.00,0.0036
1774.00,0.0037
1773.00,0.0037
1772.00,0.0036
1771.00,0.0035
1770.00,0.0036
1769.00,0.0037
1768.00,0.0038
1767.00,0.0038
1766.00,0.0039
1765.00,0.0040
1764.00,0.0041
1763.00,0.0042
1762.00,0.0042
1761.00,0.0042
1760.00,0.0043
1759.00,0.0044
1758.00,0.0045
1757.00,0.0046
1756.00,0.0047
1755.00,0.0050
1754.00,0.0052
1753.00,0.0055
1752.00,0.0058
1751.00,0.0059
1750.00,0.0060
1749.00,0.0060
1748.00,0.0061
1747.00,0.0062
1746.00,0.0063
1745.00,0.0064
1744.00,0.0064
1743.00,0.0066
1742.00,0.0067
1741.00,0.0069
1740.00,0.0071
1739.00,0.0071
1738.00,0.0072
1737.00,0.0074
1736.00,0.0077
1735.00,0.0080
1734.00,0.0080
1733.00,0.0078
1732.00,0.0077
1731.00,0.0076
1730.00,0.0076
1729.00,0.0077
1728.00,0.0079
1727.00,0.0081
1726.00,0.0082
1725.00,0.0083
1724.00,0.0084
1723.00,0.0085
1722.00,0.0085
1721.00,0.0086
1720.00,0.0087
1719.00,0.0087
1718.00,0.0088
1717.00,0.0089
1716.00,0.0089
1715.00,0.0089
1714.00,0.0090
1713.00,0.0090
1712.00,0.0091
1711.00,0.0091
1710.00,0.0092
1709.00,0.0093
1708.00,0.0094
1707.00,0.0094
1706.00,0.0094
1705.00,0.0094
1704.00,0.0095
1703.00,0.0096
1702.00,0.0098
1701.00,0.0099
1700.00,0.0100
1699.00,0.0100
1698.00,0.0100
1697.00,0.0100
1696.00,0.0099
1695.00,0.0099
1694.00,0.0099
1693.00,0.0100
1692.00,0.0101
1691.00,0.0101
1690.00,0.0102
1689.00,0.0102
1688.00,0.0103
1687.00,0.0104
1686.00,0.0104
1685.00,0.0104
1684.00,0.0104
1683.00,0.0104
1682.00,0.0106
1681.00,0.0107
1680.00,0.0108
1679.00,0.0110
1678.00,0.0111
1677.00,0.0113
1676.00,0.0114
1675.00,0.0116
1674.00,0.0117
1673.00,0.0117
1672.00,0.0118
1671.00,0.0119
1670.00,0.0120
1669.00,0.0120
1668.00,0.0121
1667.00,0.0122
1666.00,0.0123
1665.00,0.0124
1664.00,0.0126
1663.00,0.0127
1662.00,0.0128
1661.00,0.0128
1660.00,0.0129
1659.00,0.0130
1658.00,0.0131
1657.00,0.0131
1656.00,0.0130
1655.00,0.0130
1654.00,0.0132
1653.00,0.0135
1652.00,0.0137
1651.00,0.0138
1650.00,0.0138
1649.00,0.0138
1648.00,0.0141
1647.00,0.0144
1646.00,0.0145
1645.00,0.0146
1644.00,0.0146
1643.00,0.0146
1642.00,0.0146
1641.00,0.0146
1640.00,0.0147
1639.00,0.0147
1638.00,0.0148
1637.00,0.0149
1636.00,0.0151
1635.00,0.0152
1634.00,0.0153
1633.00,0.0153
1632.00,0.0154
1631.00,0.0154
1630.00,0.0154
1629.00,0.0154
1628.00,0.0155
1627.00,0.0156
1626.00,0.0157
1625.00,0.0158
1624.00,0.0160
1623.00,0.0162
1622.00,0.0162
1621.00,0.0162
1620.00,0.0162
1619.00,0.0162
1618.00,0.0164
1617.00,0.0165
1616.00,0.0166
1615.00,0.0165
1614.00,0.0165
1613.00,0.0165
1612.00,0.0166
1611.00,0.0167
1610.00,0.0168
1609.00,0.0168
1608.00,0.0169
1607.00,0.0169
1606.00,0.0170
1605.00,0.0170
1604.00,0.0170
1603.00,0.0170
1602.00,0.0170
1601.00,0.0170
1600.00,0.0170
1599.00,0.0171
1598.00,0.0171
1597.00,0.0171
1596.00,0.0171
1595.00,0.0171
1594.00,0.0171
1593.00,0.0171
1592.00,0.0171
1591.00,0.0171
1590.00,0.0171
1589.00,0.0171
1588.00,0.0171
1587.00,0.0171
1586.00,0.0171
1585.00,0.0171
1584.00,0.0171
1583.00,0.0171
1582.00,0.0171
1581.00,0.0171
1580.00,0.0171
1579.00,0.0171
1578.00,0.0172
1577.00,0.0172
1576.00,0.0173
1575.00,0.0173
1574.00,0.0172
1573.00,0.0171
1572.00,0.0171
1571.00,0.0171
1570.00,0.0171
1569.00,0.0172
1568.00,0.0172
1567.00,0.0172
1566.00,0.0172
1565.00,0.0171
1564.00,0.0171
1563.00,0.0170
1562.00,0.0169
1561.00,0.0166
1560.00,0.0166
1559.00,0.0171
1558.00,0.0172
1557.00,0.0173
1556.00,0.0173
1555.00,0.0172
1554.00,0.0171
1553.00,0.0170
1552.00,0.0168
1551.00,0.0167
1550.00,0.0167
1549.00,0.0167
1548.00,0.0167
1547.00,0.0167
1546.00,0.0166
1545.00,0.0166
1544.00,0.0166
1543.00,0.0165
1542.00,0.0165
1541.00,0.0164
1540.00,0.0161
1539.00,0.0157
1538.00,0.0157
1537.00,0.0157
1536.00,0.0157
1535.00,0.0157
1534.00,0.0158
1533.00,0.0158
1532.00,0.0158
1531.00,0.0159
1530.00,0.0160
1529.00,0.0160
1528.00,0.0160
1527.00,0.0161
1526.00,0.0161
1525.00,0.0161
1524.00,0.0161
1523.00,0.0160
1522.00,0.0160
1521.00,0.0159
1520.00,0.0157
1519.00,0.0155
1518.00,0.0154
1517.00,0.0154
1516.00,0.0153
1515.00,0.0154
1514.00,0.0154
1513.00,0.0155
1512.00,0.0154
1511.00,0.0153
1510.00,0.0152
1509.00,0.0151
1508.00,0.0153
1507.00,0.0153
1506.00,0.0152
1505.00,0.0152
1504.00,0.0152
1503.00,0.0151
1502.00,0.0151
1501.00,0.0150
1500.00,0.0149
1499.00,0.0148
1498.00,0.0148
1497.00,0.0148
1496.00,0.0148
1495.00,0.0147
1494.00,0.0147
1493.00,0.0147
1492.00,0.0147
1491.00,0.0147
1490.00,0.0145
1489.00,0.0143
1488.00,0.0142
1487.00,0.0141
1486.00,0.0141
1485.00,0.0141
1484.00,0.0142
1483.00,0.0142
1482.00,0.0142
1481.00,0.0142
1480.00,0.0142
1479.00,0.0141
1478.00,0.0141
1477.00,0.0142
1476.00,0.0144
1475.00,0.0146
1474.00,0.0149
1473.00,0.0151
1472.00,0.0151
1471.00,0.0150
1470.00,0.0149
1469.00,0.0149
1468.00,0.0149
1467.00,0.0150
1466.00,0.0150
1465.00,0.0151
1464.00,0.0152
1463.00,0.0152
1462.00,0.0151
1461.00,0.0151
1460.00,0.0150
1459.00,0.0151
1458.00,0.0153
1457.00,0.0155
1456.00,0.0154
1455.00,0.0153
1454.00,0.0152
1453.00,0.0152
1452.00,0.0153
1451.00,0.0153
1450.00,0.0154
1449.00,0.0155
1448.00,0.0155
1447.00,0.0155
1446.00,0.0155
1445.00,0.0155
1444.00,0.0155
1443.00,0.0156
1442.00,0.0156
1441.00,0.0157
1440.00,0.0157
1439.00,0.0157
1438.00,0.0157
1437.00,0.0158
1436.00,0.0159
1435.00,0.0158
1434.00,0.0157
1433.00,0.0157
1432.00,0.0157
1431.00,0.0156
1430.00,0.0156
1429.00,0.0156
1428.00,0.0156
1427.00,0.0156
1426.00,0.0155
1425.00,0.0155
1424.00,0.0156
1423.00,0.0156
1422.00,0.0156
1421.00,0.0156
1420.00,0.0157
1419.00,0.0158
1418.00,0.0158
1417.00,0.0158
1416.00,0.0159
1415.00,0.0160
1414.00,0.0160
1413.00,0.0160
1412.00,0.0160
1411.00,0.0160
1410.00,0.0160
1409.00,0.0160
1408.00,0.0161
1407.00,0.0161
1406.00,0.0161
1405.00,0.0162
1404.00,0.0164
1403.00,0.0165
1402.00,0.0166
1401.00,0.0166
1400.00,0.0167
1399.00,0.0168
1398.00,0.0169
1397.00,0.0170
1396.00,0.0171
1395.00,0.0172
1394.00,0.0172
1393.00,0.0173
1392.00,0.0174
1391.00,0.0174
1390.00,0.0175
1389.00,0.0175
1388.00,0.0176
1387.00,0.0177
1386.00,0.0177
1385.00,0.0177
1384.00,0.0178
1383.00,0.0179
1382.00,0.0179
1381.00,0.0179
1380.00,0.0179
1379.00,0.0179
1378.00,0.0178
1377.00,0.0178
1376.00,0.0177
1375.00,0.0177
1374.00,0.0176
1373.00,0.0176
1372.00,0.0176
1371.00,0.0176
1370.00,0.0175
1369.00,0.0174
1368.00,0.0174
1367.00,0.0174
1366.00,0.0173
1365.00,0.0173
1364.00,0.0172
1363.00,0.0171
1362.00,0.0171
1361.00,0.0170
1360.00,0.0170
1359.00,0.0170
1358.00,0.0170
1357.00,0.0169
1356.00,0.0169
1355.00,0.0169
1354.00,0.0169
1353.00,0.0169
1352.00,0.0169
1351.00,0.0169
1350.00,0.0169
1349.00,0.0169
1348.00,0.0169
1347.00,0.0169
1346.00,0.0168
1345.00,0.0168
1344.00,0.0168
1343.00,0.0167
1342.00,0.0167
1341.00,0.0166
1340.00,0.0165
1339.00,0.0165
1338.00,0.0165
1337.00,0.0165
1336.00,0.0165
1335.00,0.0165
1334.00,0.0164
1333.00,0.0164
1332.00,0.0164
1331.00,0.0164
1330.00,0.0164
1329.00,0.0164
1328.00,0.0164
1327.00,0.0163
1326.00,0.0163
1325.00,0.0163
1324.00,0.0163
1323.00,0.0163
1322.00,0.0164
1321.00,0.0164
1320.00,0.0164
1319.00,0.0164
1318.00,0.0164
1317.00,0.0164
1316.00,0.0164
1315.00,0.0164
1314.00,0.0164
1313.00,0.0165
1312.00,0.0166
1311.00,0.0166
1310.00,0.0167
1309.00,0.0167
1308.00,0.0167
1307.00,0.0167
1306.00,0.0168
1305.00,0.0168
1304.00,0.0169
1303.00,0.0169
1302.00,0.0170
1301.00,0.0170
1300.00,0.0170
1299.00,0.0171
1298.00,0.0171
1297.00,0.0172
1296.00,0.0172
1295.00,0.0172
1294.00,0.0172
1293.00,0.0172
1292.00,0.0173
1291.00,0.0173
1290.00,0.0174
1289.00,0.0174
1288.00,0.0175
1287.00,0.0175
1286.00,0.0176
1285.00,0.0176
1284.00,0.0176
1283.00,0.0176
1282.00,0.0177
1281.00,0.0178
1280.00,0.0178
1279.00,0.0179
1278.00,0.0179
1277.00,0.0180
1276.00,0.0181
1275.00,0.0181
1274.00,0.0182
1273.00,0.0182
1272.00,0.0183
1271.00,0.0184
1270.00,0.0184
1269.00,0.0185
1268.00,0.0185
1267.00,0.0185
1266.00,0.0185
1265.00,0.0185
1264.00,0.0185
1263.00,0.0185
1262.00,0.0186
1261.00,0.0186
1260.00,0.0186
1259.00,0.0187
1258.00,0.0187
1257.00,0.0187
1256.00,0.0187
1255.00,0.0187
1254.00,0.0187
1253.00,0.0187
1252.00,0.0187
1251.00,0.0187
1250.00,0.0186
1249.00,0.0186
1248.00,0.0186
1247.00,0.0186
1246.00,0.0186
1245.00,0.0186
1244.00,0.0186
1243.00,0.0186
1242.00,0.0186
1241.00,0.0187
1240.00,0.0187
1239.00,0.0186
1238.00,0.0186
1237.00,0.0186
1236.00,0.0186
1235.00,0.0186
1234.00,0.0186
1233.00,0.0186
1232.00,0.0185
1231.00,0.0184
1230.00,0.0184
1229.00,0.0183
1228.00,0.0183
1227.00,0.0183
1226.00,0.0183
1225.00,0.0183
1224.00,0.0183
1223.00,0.0182
1222.00,0.0181
1221.00,0.0181
1220.00,0.0181
1219.00,0.0180
1218.00,0.0180
1217.00,0.0180
1216.00,0.0179
1215.00,0.0179
1214.00,0.0179
1213.00,0.0179
1212.00,0.0179
1211.00,0.0179
1210.00,0.0179
1209.00,0.0179
1208.00,0.0179
1207.00,0.0179
1206.00,0.0179
1205.00,0.0179
1204.00,0.0179
1203.00,0.0180
1202.00,0.0180
1201.00,0.0180
1200.00,0.0180
1199.00,0.0180
1198.00,0.0180
1197.00,0.0180
1196.00,0.0180
1195.00,0.0180
1194.00,0.0179
1193.00,0.0179
1192.00,0.0179
1191.00,0.0179
1190.00,0.0179
1189.00,0.0179
1188.00,0.0179
1187.00,0.0180
1186.00,0.0181
1185.00,0.0181
1184.00,0.0182
1183.00,0.0183
1182.00,0.0183
1181.00,0.0183
1180.00,0.0184
1179.00,0.0184
1178.00,0.0185
1177.00,0.0186
1176.00,0.0186
1175.00,0.0186
1174.00,0.0186
1173.00,0.0186
1172.00,0.0186
1171.00,0.0186
1170.00,0.0186
1169.00,0.0187
1168.00,0.0187
1167.00,0.0188
1166.00,0.0188
1165.00,0.0188
1164.00,0.0189
1163.00,0.0190
1162.00,0.0190
1161.00,0.0191
1160.00,0.0191
1159.00,0.0191
1158.00,0.0191
1157.00,0.0191
1156.00,0.0191
1155.00,0.0191
1154.00,0.0191
1153.00,0.0191
1152.00,0.0191
1151.00,0.0190
1150.00,0.0190
1149.00,0.0189
1148.00,0.0189
1147.00,0.0189
1146.00,0.0189
1145.00,0.0189
1144.00,0.0189
1143.00,0.0189
1142.00,0.0189
1141.00,0.0188
1140.00,0.0188
1139.00,0.0187
1138.00,0.0187
1137.00,0.0186
1136.00,0.0186
1135.00,0.0186
1134.00,0.0186
1133.00,0.0186
1132.00,0.0186
1131.00,0.0186
1130.00,0.0186
1129.00,0.0186
1128.00,0.0185
1127.00,0.0185
1126.00,0.0185
1125.00,0.0185
1124.00,0.0186
1123.00,0.0187
1122.00,0.0187
1121.00,0.0188
1120.00,0.0188
1119.00,0.0188
1118.00,0.0188
1117.00,0.0189
1116.00,0.0189
1115.00,0.0189
1114.00,0.0188
1113.00,0.0188
1112.00,0.0188
1111.00,0.0189
1110.00,0.0189
1109.00,0.0189
1108.00,0.0190
1107.00,0.0190
1106.00,0.0191
1105.00,0.0191
1104.00,0.0192
1103.00,0.0192
1102.00,0.0193
1101.00,0.0193
1100.00,0.0193
1099.00,0.0193
1098.00,0.0193
1097.00,0.0194
1096.00,0.0195
1095.00,0.0196
1094.00,0.0196
1093.00,0.0197
1092.00,0.0197
1091.00,0.0198
1090.00,0.0199
1089.00,0.0199
1088.00,0.0199
1087.00,0.0199
1086.00,0.0198
1085.00,0.0198
1084.00,0.0198
1083.00,0.0198
1082.00,0.0198
1081.00,0.0198
1080.00,0.0199
1079.00,0.0199
1078.00,0.0199
1077.00,0.0200
1076.00,0.0201
1075.00,0.0203
1074.00,0.0204
1073.00,0.0204
1072.00,0.0205
1071.00,0.0205
1070.00,0.0205
1069.00,0.0205
1068.00,0.0205
1067.00,0.0205
1066.00,0.0205
1065.00,0.0205
1064.00,0.0206
1063.00,0.0206
1062.00,0.0206
1061.00,0.0206
1060.00,0.0205
1059.00,0.0205
1058.00,0.0204
1057.00,0.0204
1056.00,0.0204
1055.00,0.0204
1054.00,0.0204
1053.00,0.0204
1052.00,0.0205
1051.00,0.0206
1050.00,0.0206
1049.00,0.0206
1048.00,0.0205
1047.00,0.0204
1046.00,0.0203
1045.00,0.0202
1044.00,0.0202
1043.00,0.0201
1042.00,0.0201
1041.00,0.0202
1040.00,0.0202
1039.00,0.0202
1038.00,0.0202
1037.00,0.0202
1036.00,0.0202
1035.00,0.0203
1034.00,0.0203
1033.00,0.0202
1032.00,0.0201
1031.00,0.0201
1030.00,0.0202
1029.00,0.0202
1028.00,0.0201
1027.00,0.0200
1026.00,0.0200
1025.00,0.0199
1024.00,0.0199
1023.00,0.0198
1022.00,0.0198
1021.00,0.0198
1020.00,0.0198
1019.00,0.0197
1018.00,0.0196
1017.00,0.0195
1016.00,0.0194
1015.00,0.0194
1014.00,0.0194
1013.00,0.0194
1012.00,0.0194
1011.00,0.0193
1010.00,0.0193
1009.00,0.0192
1008.00,0.0191
1007.00,0.0190
1006.00,0.0189
1005.00,0.0189
1004.00,0.0188
1003.00,0.0188
1002.00,0.0187
1001.00,0.0188
1000.00,0.0188
999.00,0.0188
998.00,0.0187
997.00,0.0186
996.00,0.0186
995.00,0.0185
994.00,0.0184
993.00,0.0184
992.00,0.0184
991.00,0.0184
990.00,0.0183
989.00,0.0183
988.00,0.0182
987.00,0.0182
986.00,0.0182
985.00,0.0182
984.00,0.0182
983.00,0.0182
982.00,0.0182
981.00,0.0182
980.00,0.0182
979.00,0.0183
978.00,0.0183
977.00,0.0183
976.00,0.0184
975.00,0.0184
974.00,0.0184
973.00,0.0183
972.00,0.0183
971.00,0.0183
970.00,0.0184
969.00,0.0185
968.00,0.0186
967.00,0.0186
966.00,0.0185
965.00,0.0184
964.00,0.0183
963.00,0.0182
962.00,0.0181
961.00,0.0182
960.00,0.0183
959.00,0.0184
958.00,0.0184
957.00,0.0184
956.00,0.0184
955.00,0.0183
954.00,0.0183
953.00,0.0182
952.00,0.0182
951.00,0.0181
950.00,0.0180
949.00,0.0180
948.00,0.0180
947.00,0.0180
946.00,0.0180
945.00,0.0180
944.00,0.0180
943.00,0.0180
942.00,0.0179
941.00,0.0179
940.00,0.0178
939.00,0.0178
938.00,0.0178
937.00,0.0177
936.00,0.0177
935.00,0.0176
934.00,0.0176
933.00,0.0175
932.00,0.0174
931.00,0.0173
930.00,0.0171
929.00,0.0170
928.00,0.0170
927.00,0.0170
926.00,0.0169
925.00,0.0169
924.00,0.0168
923.00,0.0168
922.00,0.0169
921.00,0.0169
920.00,0.0169
919.00,0.0169
918.00,0.0170
917.00,0.0171
916.00,0.0171
915.00,0.0171
914.00,0.0171
913.00,0.0170
912.00,0.0169
911.00,0.0169
910.00,0.0169
909.00,0.0169
908.00,0.0169
907.00,0.0168
906.00,0.0168
905.00,0.0168
904.00,0.0168
903.00,0.0167
902.00,0.0167
901.00,0.0167
900.00,0.0168
899.00,0.0169
898.00,0.0170
897.00,0.0170
896.00,0.0170
895.00,0.0170
894.00,0.0170
893.00,0.0170
892.00,0.0170
891.00,0.0170
890.00,0.0170
889.00,0.0169
888.00,0.0170
887.00,0.0170
886.00,0.0171
885.00,0.0171
884.00,0.0170
883.00,0.0169
882.00,0.0169
881.00,0.0170
880.00,0.0171
879.00,0.0171
878.00,0.0170
877.00,0.0169
876.00,0.0168
875.00,0.0168
874.00,0.0168
873.00,0.0169
872.00,0.0170
871.00,0.0171
870.00,0.0171
869.00,0.0170
868.00,0.0170
867.00,0.0170
866.00,0.0170
865.00,0.0170
864.00,0.0170
863.00,0.0172
862.00,0.0173
861.00,0.0173
860.00,0.0173
859.00,0.0172
858.00,0.0172
857.00,0.0171
856.00,0.0170
855.00,0.0170
854.00,0.0171
853.00,0.0170
852.00,0.0170
851.00,0.0169
850.00,0.0169
849.00,0.0170
848.00,0.0171
847.00,0.0170
846.00,0.0170
845.00,0.0170
844.00,0.0171
843.00,0.0172
842.00,0.0172
841.00,0.0172
840.00,0.0173
839.00,0.0175
838.00,0.0175
837.00,0.0175
836.00,0.0175
835.00,0.0174
834.00,0.0174
833.00,0.0174
832.00,0.0175
831.00,0.0176
830.00,0.0178
829.00,0.0180
828.00,0.0181
827.00,0.0182
826.00,0.0183
825.00,0.0183
824.00,0.0184
823.00,0.0185
822.00,0.0187
821.00,0.0188
820.00,0.0187
819.00,0.0186
818.00,0.0186
817.00,0.0186
816.00,0.0186
815.00,0.0187
814.00,0.0188
813.00,0.0189
812.00,0.0189
811.00,0.0189
810.00,0.0188
809.00,0.0187
808.00,0.0186
807.00,0.0186
806.00,0.0187
805.00,0.0187
804.00,0.0188
803.00,0.0189
802.00,0.0190
801.00,0.0190
800.00,0.0191
799.00,0.0191
798.00,0.0191
797.00,0.0190
796.00,0.0190
795.00,0.0190
794.00,0.0189
793.00,0.0189
792.00,0.0189
791.00,0.0189
790.00,0.0190
789.00,0.0191
788.00,0.0191
787.00,0.0191
786.00,0.0191
785.00,0.0190
784.00,0.0190
783.00,0.0190
782.00,0.0190
781.00,0.0190
780.00,0.0191
779.00,0.0192
778.00,0.0193
777.00,0.0194
776.00,0.0195
775.00,0.0196
774.00,0.0196
773.00,0.0196
772.00,0.0195
771.00,0.0194
770.00,0.0194
769.00,0.0195
768.00,0.0196
767.00,0.0198
766.00,0.0199
765.00,0.0200
764.00,0.0200
763.00,0.0199
762.00,0.0198
761.00,0.0198
760.00,0.0199
759.00,0.0200
758.00,0.0202
757.00,0.0204
756.00,0.0205
755.00,0.0204
754.00,0.0202
753.00,0.0201
752.00,0.0200
751.00,0.0201
750.00,0.0202
749.00,0.0203
748.00,0.0204
747.00,0.0204
746.00,0.0204
745.00,0.0203
744.00,0.0204
743.00,0.0205
742.00,0.0205
741.00,0.0204
740.00,0.0203
739.00,0.0202
738.00,0.0202
737.00,0.0202
736.00,0.0203
735.00,0.0203
734.00,0.0204
733.00,0.0206
732.00,0.0209
731.00,0.0210
730.00,0.0211
729.00,0.0211
728.00,0.0210
727.00,0.0208
726.00,0.0207
725.00,0.0207
724.00,0.0207
723.00,0.0208
722.00,0.0210
721.00,0.0211
720.00,0.0213
719.00,0.0214
718.00,0.0215
717.00,0.0215
716.00,0.0215
715.00,0.0215
714.00,0.0214
713.00,0.0214
712.00,0.0213
711.00,0.0213
710.00,0.0212
709.00,0.0211
708.00,0.0211
707.00,0.0212
706.00,0.0214
705.00,0.0215
704.00,0.0215
703.00,0.0215
702.00,0.0215
701.00,0.0217
700.00,0.0218
699.00,0.0218
698.00,0.0217
697.00,0.0217
696.00,0.0218
695.00,0.0220
694.00,0.0222
693.00,0.0224
692.00,0.0225
691.00,0.0226
690.00,0.0225
689.00,0.0224
688.00,0.0224
687.00,0.0225
686.00,0.0228
685.00,0.0231
684.00,0.0233
683.00,0.0234
682.00,0.0233
681.00,0.0233
680.00,0.0233
679.00,0.0233
678.00,0.0233
677.00,0.0232
676.00,0.0232
675.00,0.0233
674.00,0.0234
673.00,0.0235
672.00,0.0235
671.00,0.0230
670.00,0.0224
669.00,0.0218
668.00,0.0219
667.00,0.0227
666.00,0.0235
665.00,0.0240
664.00,0.0242
663.00,0.0244
662.00,0.0244
661.00,0.0244
660.00,0.0244
659.00,0.0244
658.00,0.0242
657.00,0.0237
656.00,0.0234
655.00,0.0235
654.00,0.0238
653.00,0.0242
652.00,0.0246
651.00,0.0247
650.00,0.0247
