Created as New Dataset,
cm-1,A
4000.00,0.0221
3999.00,0.0221
3998.00,0.0220
3997.00,0.0219
3996.00,0.0222
3995.00,0.0222
3994.00,0.0223
3993.00,0.0223
3992.00,0.0223
3991.00,0.0223
3990.00,0.0222
3989.00,0.0222
3988.00,0.0222
3987.00,0.0222
3986.00,0.0221
3985.00,0.0222
3984.00,0.0222
3983.00,0.0222
3982.00,0.0222
3981.00,0.0222
3980.00,0.0223
3979.00,0.0223
3978.00,0.0223
3977.00,0.0223
3976.00,0.0223
3975.00,0.0223
3974.00,0.0224
3973.00,0.0223
3972.00,0.0223
3971.00,0.0223
3970.00,0.0222
3969.00,0.0221
3968.00,0.0221
3967.00,0.0220
3966.00,0.0220
3965.00,0.0221
3964.00,0.0221
3963.00,0.0222
3962.00,0.0222
3961.00,0.0222
3960.00,0.0222
3959.00,0.0223
3958.00,0.0223
3957.00,0.0223
3956.00,0.0223
3955.00,0.0223
3954.00,0.0223
3953.00,0.0223
3952.00,0.0223
3951.00,0.0224
3950.00,0.0224
3949.00,0.0224
3948.00,0.0224
3947.00,0.0224
3946.00,0.0225
3945.00,0.0227
3944.00,0.0227
3943.00,0.0226
3942.00,0.0225
3941.00,0.0224
3940.00,0.0224
3939.00,0.0224
3938.00,0.0222
3937.00,0.0222
3936.00,0.0222
3935.00,0.0223
3934.00,0.0223
3933.00,0.0224
3932.00,0.0224
3931.00,0.0225
3930.00,0.0226
3929.00,0.0226
3928.00,0.0226
3927.00,0.0227
3926.00,0.0226
3925.00,0.0225
3924.00,0.0224
3923.00,0.0224
3922.00,0.0225
3921.00,0.0224
3920.00,0.0223
3919.00,0.0223
3918.00,0.0223
3917.00,0.0223
3916.00,0.0223
3915.00,0.0223
3914.00,0.0222
3913.00,0.0221
3912.00,0.0220
3911.00,0.0220
3910.00,0.0220
3909.00,0.0220
3908.00,0.0222
3907.00,0.0223
3906.00,0.0224
3905.00,0.0224
3904.00,0.0224
3903.00,0.0226
3902.00,0.0230
3901.00,0.0232
3900.00,0.0232
3899.00,0.0229
3898.00,0.0227
3897.00,0.0225
3896.00,0.0225
3895.00,0.0224
3894.00,0.0224
3893.00,0.0224
3892.00,0.0222
3891.00,0.0220
3890.00,0.0220
3889.00,0.0222
3888.00,0.0225
3887.00,0.0225
3886.00,0.0223
3885.00,0.0222
3884.00,0.0226
3883.00,0.0231
3882.00,0.0232
3881.00,0.0230
3880.00,0.0225
3879.00,0.0223
3878.00,0.0224
3877.00,0.0226
3876.00,0.0227
3875.00,0.0225
3874.00,0.0222
3873.00,0.0224
3872.00,0.0227
3871.00,0.0227
3870.00,0.0224
3869.00,0.0222
3868.00,0.0224
3867.00,0.0227
3866.00,0.0228
3865.00,0.0225
3864.00,0.0223
3863.00,0.0224
3862.00,0.0224
3861.00,0.0223
3860.00,0.0221
3859.00,0.0220
3858.00,0.0219
3857.00,0.0220
3856.00,0.0222
3855.00,0.0222
3854.00,0.0221
3853.00,0.0221
3852.00,0.0224
3851.00,0.0226
3850.00,0.0226
3849.00,0.0223
3848.00,0.0221
3847.00,0.0220
3846.00,0.0219
3845.00,0.0219
3844.00,0.0219
3843.00,0.0219
3842.00,0.0221
3841.00,0.0223
3840.00,0.0224
3839.00,0.0224
3838.00,0.0224
3837.00,0.0224
3836.00,0.0224
3835.00,0.0224
3834.00,0.0224
3833.00,0.0222
3832.00,0.0220
3831.00,0.0219
3830.00,0.0219
3829.00,0.0221
3828.00,0.0221
3827.00,0.0219
3826.00,0.0217
3825.00,0.0217
3824.00,0.0220
3823.00,0.0223
3822.00,0.0220
3821.00,0.0217
3820.00,0.0217
3819.00,0.0221
3818.00,0.0224
3817.00,0.0223
3816.00,0.0219
3815.00,0.0216
3814.00,0.0218
3813.00,0.0219
3812.00,0.0217
3811.00,0.0214
3810.00,0.0213
3809.00,0.0214
3808.00,0.0213
3807.00,0.0211
3806.00,0.0211
3805.00,0.0214
3804.00,0.0220
3803.00,0.0221
3802.00,0.0218
3801.00,0.0216
3800.00,0.0218
3799.00,0.0222
3798.00,0.0223
3797.00,0.0220
3796.00,0.0217
3795.00,0.0216
3794.00,0.0217
3793.00,0.0217
3792.00,0.0216
3791.00,0.0215
3790.00,0.0215
3789.00,0.0215
3788.00,0.0215
3787.00,0.0215
3786.00,0.0215
3785.00,0.0215
3784.00,0.0215
3783.00,0.0215
3782.00,0.0217
3781.00,0.0217
3780.00,0.0216
3779.00,0.0214
3778.00,0.0215
3777.00,0.0215
3776.00,0.0215
3775.00,0.0214
3774.00,0.0212
3773.00,0.0212
3772.00,0.0213
3771.00,0.0212
3770.00,0.0211
3769.00,0.0212
3768.00,0.0215
3767.00,0.0217
3766.00,0.0216
3765.00,0.0214
3764.00,0.0213
3763.00,0.0215
3762.00,0.0217
3761.00,0.0217
3760.00,0.0216
3759.00,0.0216
3758.00,0.0216
3757.00,0.0215
3756.00,0.0214
3755.00,0.0214
3754.00,0.0213
3753.00,0.0209
3752.00,0.0206
3751.00,0.0206
3750.00,0.0209
3749.00,0.0210
3748.00,0.0213
3747.00,0.0219
3746.00,0.0222
3745.00,0.0219
3744.00,0.0215
3743.00,0.0215
3742.00,0.0217
3741.00,0.0217
3740.00,0.0215
3739.00,0.0213
3738.00,0.0214
3737.00,0.0215
3736.00,0.0215
3735.00,0.0216
3734.00,0.0218
3733.00,0.0217
3732.00,0.0215
3731.00,0.0212
3730.00,0.0212
3729.00,0.0214
3728.00,0.0215
3727.00,0.0214
3726.00,0.0214
3725.00,0.0216
3724.00,0.0219
3723.00,0.0219
3722.00,0.0219
3721.00,0.0218
3720.00,0.0217
3719.00,0.0217
3718.00,0.0215
3717.00,0.0214
3716.00,0.0215
3715.00,0.0216
3714.00,0.0217
3713.00,0.0216
3712.00,0.0217
3711.00,0.0220
3710.00,0.0223
3709.00,0.0225
3708.00,0.0225
3707.00,0.0225
3706.00,0.0224
3705.00,0.0225
3704.00,0.0227
3703.00,0.0230
3702.00,0.0232
3701.00,0.0233
3700.00,0.0234
3699.00,0.0235
3698.00,0.0235
3697.00,0.0234
3696.00,0.0233
3695.00,0.0233
3694.00,0.0234
3693.00,0.0235
3692.00,0.0235
3691.00,0.0235
3690.00,0.0236
3689.00,0.0237
3688.00,0.0236
3687.00,0.0235
3686.00,0.0235
3685.00,0.0233
3684.00,0.0231
3683.00,0.0229
3682.00,0.0228
3681.00,0.0227
3680.00,0.0225
3679.00,0.0225
3678.00,0.0229
3677.00,0.0232
3676.00,0.0233
3675.00,0.0233
3674.00,0.0235
3673.00,0.0238
3672.00,0.0239
3671.00,0.0237
3670.00,0.0235
3669.00,0.0236
3668.00,0.0238
3667.00,0.0239
3666.00,0.0238
3665.00,0.0236
3664.00,0.0234
3663.00,0.0234
3662.00,0.0234
3661.00,0.0234
3660.00,0.0235
3659.00,0.0237
3658.00,0.0240
3657.00,0.0241
3656.00,0.0243
3655.00,0.0245
3654.00,0.0249
3653.00,0.0253
3652.00,0.0254
3651.00,0.0251
3650.00,0.0253
3649.00,0.0261
3648.00,0.0269
3647.00,0.0270
3646.00,0.0268
3645.00,0.0265
3644.00,0.0262
3643.00,0.0260
3642.00,0.0258
3641.00,0.0258
3640.00,0.0258
3639.00,0.0259
3638.00,0.0259
3637.00,0.0260
3636.00,0.0262
3635.00,0.0261
3634.00,0.0260
3633.00,0.0259
3632.00,0.0261
3631.00,0.0265
3630.00,0.0268
3629.00,0.0272
3628.00,0.0276
3627.00,0.0280
3626.00,0.0281
3625.00,0.0280
3624.00,0.0278
3623.00,0.0279
3622.00,0.0282
3621.00,0.0285
3620.00,0.0289
3619.00,0.0292
3618.00,0.0293
3617.00,0.0294
3616.00,0.0294
3615.00,0.0292
3614.00,0.0289
3613.00,0.0287
3612.00,0.0287
3611.00,0.0288
3610.00,0.0290
3609.00,0.0291
3608.00,0.0292
3607.00,0.0293
3606.00,0.0294
3605.00,0.0294
3604.00,0.0293
3603.00,0.0293
3602.00,0.0293
3601.00,0.0293
3600.00,0.0294
3599.00,0.0295
3598.00,0.0297
3597.00,0.0298
3596.00,0.0300
3595.00,0.0302
3594.00,0.0302
3593.00,0.0301
3592.00,0.0300
3591.00,0.0300
3590.00,0.0302
3589.00,0.0305
3588.00,0.0309
3587.00,0.0312
3586.00,0.0314
3585.00,0.0314
3584.00,0.0313
3583.00,0.0311
3582.00,0.0310
3581.00,0.0309
3580.00,0.0310
3579.00,0.0311
3578.00,0.0311
3577.00,0.0312
3576.00,0.0312
3575.00,0.0312
3574.00,0.0312
3573.00,0.0312
3572.00,0.0312
3571.00,0.0314
3570.00,0.0316
3569.00,0.0319
3568.00,0.0324
3567.00,0.0329
3566.00,0.0333
3565.00,0.0333
3564.00,0.0332
3563.00,0.0329
3562.00,0.0327
3561.00,0.0325
3560.00,0.0325
3559.00,0.0324
3558.00,0.0324
3557.00,0.0324
3556.00,0.0324
3555.00,0.0324
3554.00,0.0326
3553.00,0.0327
3552.00,0.0329
3551.00,0.0330
3550.00,0.0331
3549.00,0.0332
3548.00,0.0332
3547.00,0.0334
3546.00,0.0336
3545.00,0.0338
3544.00,0.0339
3543.00,0.0338
3542.00,0.0337
3541.00,0.0336
3540.00,0.0336
3539.00,0.0337
3538.00,0.0337
3537.00,0.0338
3536.00,0.0339
3535.00,0.0339
3534.00,0.0339
3533.00,0.0339
3532.00,0.0339
3531.00,0.0340
3530.00,0.0341
3529.00,0.0343
3528.00,0.0345
3527.00,0.0346
3526.00,0.0348
3525.00,0.0349
3524.00,0.0349
3523.00,0.0350
3522.00,0.0350
3521.00,0.0350
3520.00,0.0350
3519.00,0.0350
3518.00,0.0350
3517.00,0.0350
3516.00,0.0351
3515.00,0.0351
3514.00,0.0352
3513.00,0.0352
3512.00,0.0353
3511.00,0.0355
3510.00,0.0356
3509.00,0.0356
3508.00,0.0357
3507.00,0.0357
3506.00,0.0358
3505.00,0.0358
3504.00,0.0360
3503.00,0.0361
3502.00,0.0362
3501.00,0.0363
3500.00,0.0363
3499.00,0.0363
3498.00,0.0363
3497.00,0.0363
3496.00,0.0363
3495.00,0.0364
3494.00,0.0364
3493.00,0.0364
3492.00,0.0364
3491.00,0.0363
3490.00,0.0364
3489.00,0.0364
3488.00,0.0365
3487.00,0.0366
3486.00,0.0368
3485.00,0.0369
3484.00,0.0370
3483.00,0.0371
3482.00,0.0372
3481.00,0.0373
3480.00,0.0373
3479.00,0.0374
3478.00,0.0374
3477.00,0.0374
3476.00,0.0374
3475.00,0.0374
3474.00,0.0375
3473.00,0.0375
3472.00,0.0376
3471.00,0.0376
3470.00,0.0377
3469.00,0.0377
3468.00,0.0378
3467.00,0.0378
3466.00,0.0379
3465.00,0.0380
3464.00,0.0380
3463.00,0.0381
3462.00,0.0381
3461.00,0.0382
3460.00,0.0382
3459.00,0.0382
3458.00,0.0382
3457.00,0.0383
3456.00,0.0384
3455.00,0.0385
3454.00,0.0385
3453.00,0.0386
3452.00,0.0386
3451.00,0.0386
3450.00,0.0386
3449.00,0.0387
3448.00,0.0388
3447.00,0.0390
3446.00,0.0391
3445.00,0.0392
3444.00,0.0392
3443.00,0.0391
3442.00,0.0391
3441.00,0.0391
3440.00,0.0391
3439.00,0.0392
3438.00,0.0392
3437.00,0.0392
3436.00,0.0392
3435.00,0.0393
3434.00,0.0393
3433.00,0.0394
3432.00,0.0394
3431.00,0.0395
3430.00,0.0395
3429.00,0.0395
3428.00,0.0395
3427.00,0.0396
3426.00,0.0396
3425.00,0.0397
3424.00,0.0398
3423.00,0.0398
3422.00,0.0399
3421.00,0.0400
3420.00,0.0401
3419.00,0.0401
3418.00,0.0401
3417.00,0.0401
3416.00,0.0401
3415.00,0.0401
3414.00,0.0402
3413.00,0.0402
3412.00,0.0403
3411.00,0.0403
3410.00,0.0404
3409.00,0.0404
3408.00,0.0405
3407.00,0.0405
3406.00,0.0406
3405.00,0.0407
3404.00,0.0407
3403.00,0.0408
3402.00,0.0408
3401.00,0.0408
3400.00,0.0408
3399.00,0.0408
3398.00,0.0408
3397.00,0.0408
3396.00,0.0409
3395.00,0.0410
3394.00,0.0410
3393.00,0.0411
3392.00,0.0411
3391.00,0.0411
3390.00,0.0411
3389.00,0.0410
3388.00,0.0410
3387.00,0.0411
3386.00,0.0412
3385.00,0.0413
3384.00,0.0413
3383.00,0.0413
3382.00,0.0413
3381.00,0.0413
3380.00,0.0413
3379.00,0.0413
3378.00,0.0413
3377.00,0.0414
3376.00,0.0414
3375.00,0.0415
3374.00,0.0415
3373.00,0.0416
3372.00,0.0416
3371.00,0.0416
3370.00,0.0416
3369.00,0.0416
3368.00,0.0417
3367.00,0.0417
3366.00,0.0417
3365.00,0.0418
3364.00,0.0418
3363.00,0.0419
3362.00,0.0419
3361.00,0.0419
3360.00,0.0419
3359.00,0.0419
3358.00,0.0419
3357.00,0.0420
3356.00,0.0420
3355.00,0.0420
3354.00,0.0420
3353.00,0.0419
3352.00,0.0419
3351.00,0.0420
3350.00,0.0420
3349.00,0.0420
3348.00,0.0420
3347.00,0.0420
3346.00,0.0420
3345.00,0.0420
3344.00,0.0420
3343.00,0.0420
3342.00,0.0420
3341.00,0.0420
3340.00,0.0421
3339.00,0.0421
3338.00,0.0422
3337.00,0.0423
3336.00,0.0424
3335.00,0.0424
3334.00,0.0423
3333.00,0.0423
3332.00,0.0423
3331.00,0.0424
3330.00,0.0424
3329.00,0.0424
3328.00,0.0424
3327.00,0.0424
3326.00,0.0424
3325.00,0.0425
3324.00,0.0425
3323.00,0.0425
3322.00,0.0425
3321.00,0.0425
3320.00,0.0425
3319.00,0.0425
3318.00,0.0425
3317.00,0.0425
3316.00,0.0424
3315.00,0.0424
3314.00,0.0424
3313.00,0.0425
3312.00,0.0425
3311.00,0.0425
3310.00,0.0426
3309.00,0.0426
3308.00,0.0426
3307.00,0.0426
3306.00,0.0426
3305.00,0.0427
3304.00,0.0428
3303.00,0.0428
3302.00,0.0427
3301.00,0.0427
3300.00,0.0426
3299.00,0.0426
3298.00,0.0426
3297.00,0.0426
3296.00,0.0426
3295.00,0.0426
3294.00,0.0426
3293.00,0.0426
3292.00,0.0426
3291.00,0.0427
3290.00,0.0427
3289.00,0.0428
3288.00,0.0428
3287.00,0.0428
3286.00,0.0428
3285.00,0.0429
3284.00,0.0429
3283.00,0.0429
3282.00,0.0428
3281.00,0.0428
3280.00,0.0428
3279.00,0.0428
3278.00,0.0428
3277.00,0.0428
3276.00,0.0429
3275.00,0.0429
3274.00,0.0430
3273.00,0.0430
3272.00,0.0430
3271.00,0.0430
3270.00,0.0430
3269.00,0.0429
3268.00,0.0429
3267.00,0.0429
3266.00,0.0429
3265.00,0.0430
3264.00,0.0430
3263.00,0.0430
3262.00,0.0430
3261.00,0.0430
3260.00,0.0429
3259.00,0.0430
3258.00,0.0430
3257.00,0.0431
3256.00,0.0431
3255.00,0.0431
3254.00,0.0431
3253.00,0.0430
3252.00,0.0430
3251.00,0.0430
3250.00,0.0430
3249.00,0.0430
3248.00,0.0431
3247.00,0.0431
3246.00,0.0432
3245.00,0.0432
3244.00,0.0432
3243.00,0.0432
3242.00,0.0432
3241.00,0.0431
3240.00,0.0432
3239.00,0.0432
3238.00,0.0432
3237.00,0.0432
3236.00,0.0432
3235.00,0.0432
3234.00,0.0432
3233.00,0.0433
3232.00,0.0434
3231.00,0.0434
3230.00,0.0434
3229.00,0.0434
3228.00,0.0434
3227.00,0.0434
3226.00,0.0434
3225.00,0.0434
3224.00,0.0434
3223.00,0.0434
3222.00,0.0434
3221.00,0.0434
3220.00,0.0433
3219.00,0.0433
3218.00,0.0433
3217.00,0.0433
3216.00,0.0432
3215.00,0.0432
3214.00,0.0433
3213.00,0.0433
3212.00,0.0434
3211.00,0.0434
3210.00,0.0434
3209.00,0.0434
3208.00,0.0434
3207.00,0.0435
3206.00,0.0435
3205.00,0.0435
3204.00,0.0434
3203.00,0.0434
3202.00,0.0434
3201.00,0.0434
3200.00,0.0434
3199.00,0.0434
3198.00,0.0435
3197.00,0.0435
3196.00,0.0434
3195.00,0.0434
3194.00,0.0433
3193.00,0.0433
3192.00,0.0432
3191.00,0.0432
3190.00,0.0432
3189.00,0.0433
3188.00,0.0433
3187.00,0.0433
3186.00,0.0433
3185.00,0.0434
3184.00,0.0434
3183.00,0.0434
3182.00,0.0433
3181.00,0.0433
3180.00,0.0433
3179.00,0.0433
3178.00,0.0433
3177.00,0.0433
3176.00,0.0433
3175.00,0.0433
3174.00,0.0432
3173.00,0.0432
3172.00,0.0432
3171.00,0.0432
3170.00,0.0432
3169.00,0.0431
3168.00,0.0431
3167.00,0.0431
3166.00,0.0431
3165.00,0.0431
3164.00,0.0432
3163.00,0.0431
3162.00,0.0431
3161.00,0.0431
3160.00,0.0430
3159.00,0.0430
3158.00,0.0430
3157.00,0.0430
3156.00,0.0430
3155.00,0.0429
3154.00,0.0429
3153.00,0.0429
3152.00,0.0429
3151.00,0.0428
3150.00,0.0428
3149.00,0.0429
3148.00,0.0429
3147.00,0.0428
3146.00,0.0428
3145.00,0.0428
3144.00,0.0428
3143.00,0.0428
3142.00,0.0428
3141.00,0.0428
3140.00,0.0427
3139.00,0.0427
3138.00,0.0427
3137.00,0.0427
3136.00,0.0426
3135.00,0.0426
3134.00,0.0425
3133.00,0.0425
3132.00,0.0425
3131.00,0.0426
3130.00,0.0426
3129.00,0.0426
3128.00,0.0426
3127.00,0.0426
3126.00,0.0425
3125.00,0.0425
3124.00,0.0424
3123.00,0.0424
3122.00,0.0424
3121.00,0.0424
3120.00,0.0424
3119.00,0.0424
3118.00,0.0424
3117.00,0.0424
3116.00,0.0424
3115.00,0.0424
3114.00,0.0424
3113.00,0.0424
3112.00,0.0424
3111.00,0.0423
3110.00,0.0423
3109.00,0.0422
3108.00,0.0422
3107.00,0.0422
3106.00,0.0422
3105.00,0.0422
3104.00,0.0422
3103.00,0.0422
3102.00,0.0422
3101.00,0.0422
3100.00,0.0422
3099.00,0.0422
3098.00,0.0421
3097.00,0.0421
3096.00,0.0422
3095.00,0.0422
3094.00,0.0422
3093.00,0.0421
3092.00,0.0421
3091.00,0.0421
3090.00,0.0420
3089.00,0.0420
3088.00,0.0420
3087.00,0.0420
3086.00,0.0420
3085.00,0.0420
3084.00,0.0420
3083.00,0.0420
3082.00,0.0420
3081.00,0.0420
3080.00,0.0420
3079.00,0.0420
3078.00,0.0419
3077.00,0.0419
3076.00,0.0419
3075.00,0.0419
3074.00,0.0418
3073.00,0.0418
3072.00,0.0419
3071.00,0.0419
3070.00,0.0418
3069.00,0.0418
3068.00,0.0418
3067.00,0.0418
3066.00,0.0418
3065.00,0.0418
3064.00,0.0418
3063.00,0.0418
3062.00,0.0418
3061.00,0.0417
3060.00,0.0417
3059.00,0.0416
3058.00,0.0416
3057.00,0.0416
3056.00,0.0416
3055.00,0.0417
3054.00,0.0417
3053.00,0.0417
3052.00,0.0416
3051.00,0.0415
3050.00,0.0414
3049.00,0.0414
3048.00,0.0413
3047.00,0.0413
3046.00,0.0413
3045.00,0.0413
3044.00,0.0413
3043.00,0.0413
3042.00,0.0413
3041.00,0.0412
3040.00,0.0412
3039.00,0.0412
3038.00,0.0412
3037.00,0.0412
3036.00,0.0412
3035.00,0.0411
3034.00,0.0411
3033.00,0.0411
3032.00,0.0411
3031.00,0.0411
3030.00,0.0410
3029.00,0.0409
3028.00,0.0408
3027.00,0.0408
3026.00,0.0407
3025.00,0.0407
3024.00,0.0406
3023.00,0.0407
3022.00,0.0407
3021.00,0.0407
3020.00,0.0406
3019.00,0.0406
3018.00,0.0405
3017.00,0.0404
3016.00,0.0404
3015.00,0.0404
3014.00,0.0404
3013.00,0.0404
3012.00,0.0404
3011.00,0.0404
3010.00,0.0403
3009.00,0.0402
3008.00,0.0401
3007.00,0.0400
3006.00,0.0400
3005.00,0.0399
3004.00,0.0399
3003.00,0.0398
3002.00,0.0397
3001.00,0.0397
3000.00,0.0396
2999.00,0.0395
2998.00,0.0395
2997.00,0.0394
2996.00,0.0394
2995.00,0.0394
2994.00,0.0393
2993.00,0.0393
2992.00,0.0392
2991.00,0.0392
2990.00,0.0391
2989.00,0.0391
2988.00,0.0390
2987.00,0.0390
2986.00,0.0389
2985.00,0.0388
2984.00,0.0387
2983.00,0.0385
2982.00,0.0384
2981.00,0.0384
2980.00,0.0384
2979.00,0.0385
2978.00,0.0385
2977.00,0.0385
2976.00,0.0385
2975.00,0.0385
2974.00,0.0384
2973.00,0.0383
2972.00,0.0383
2971.00,0.0382
2970.00,0.0382
2969.00,0.0381
2968.00,0.0381
2967.00,0.0381
2966.00,0.0381
2965.00,0.0381
2964.00,0.0381
2963.00,0.0381
2962.00,0.0381
2961.00,0.0381
2960.00,0.0380
2959.00,0.0380
2958.00,0.0380
2957.00,0.0380
2956.00,0.0380
2955.00,0.0380
2954.00,0.0381
2953.00,0.0381
2952.00,0.0382
2951.00,0.0382
2950.00,0.0381
2949.00,0.0381
2948.00,0.0381
2947.00,0.0381
2946.00,0.0381
2945.00,0.0381
2944.00,0.0382
2943.00,0.0381
2942.00,0.0381
2941.00,0.0380
2940.00,0.0379
2939.00,0.0378
2938.00,0.0377
2937.00,0.0376
2936.00,0.0376
2935.00,0.0375
2934.00,0.0375
2933.00,0.0374
2932.00,0.0373
2931.00,0.0372
2930.00,0.0371
2929.00,0.0370
2928.00,0.0369
2927.00,0.0368
2926.00,0.0367
2925.00,0.0367
2924.00,0.0366
2923.00,0.0366
2922.00,0.0366
2921.00,0.0366
2920.00,0.0366
2919.00,0.0366
2918.00,0.0365
2917.00,0.0365
2916.00,0.0365
2915.00,0.0367
2914.00,0.0368
2913.00,0.0369
2912.00,0.0370
2911.00,0.0371
2910.00,0.0372
2909.00,0.0372
2908.00,0.0372
2907.00,0.0372
2906.00,0.0372
2905.00,0.0372
2904.00,0.0372
2903.00,0.0372
2902.00,0.0371
2901.00,0.0372
2900.00,0.0372
2899.00,0.0372
2898.00,0.0372
2897.00,0.0371
2896.00,0.0371
2895.00,0.0371
2894.00,0.0371
2893.00,0.0371
2892.00,0.0371
2891.00,0.0371
2890.00,0.0371
2889.00,0.0371
2888.00,0.0371
2887.00,0.0371
2886.00,0.0371
2885.00,0.0371
2884.00,0.0371
2883.00,0.0371
2882.00,0.0371
2881.00,0.0371
2880.00,0.0371
2879.00,0.0371
2878.00,0.0370
2877.00,0.0370
2876.00,0.0369
2875.00,0.0369
2874.00,0.0368
2873.00,0.0367
2872.00,0.0366
2871.00,0.0366
2870.00,0.0366
2869.00,0.0366
2868.00,0.0366
2867.00,0.0365
2866.00,0.0365
2865.00,0.0364
2864.00,0.0364
2863.00,0.0364
2862.00,0.0363
2861.00,0.0363
2860.00,0.0363
2859.00,0.0362
2858.00,0.0362
2857.00,0.0361
2856.00,0.0360
2855.00,0.0359
2854.00,0.0359
2853.00,0.0359
2852.00,0.0359
2851.00,0.0359
2850.00,0.0359
2849.00,0.0359
2848.00,0.0359
2847.00,0.0360
2846.00,0.0361
2845.00,0.0361
2844.00,0.0362
2843.00,0.0362
2842.00,0.0363
2841.00,0.0363
2840.00,0.0363
2839.00,0.0364
2838.00,0.0364
2837.00,0.0364
2836.00,0.0363
2835.00,0.0363
2834.00,0.0363
2833.00,0.0363
2832.00,0.0363
2831.00,0.0363
2830.00,0.0362
2829.00,0.0362
2828.00,0.0362
2827.00,0.0362
2826.00,0.0362
2825.00,0.0361
2824.00,0.0361
2823.00,0.0361
2822.00,0.0361
2821.00,0.0361
2820.00,0.0361
2819.00,0.0361
2818.00,0.0360
2817.00,0.0360
2816.00,0.0359
2815.00,0.0359
2814.00,0.0358
2813.00,0.0358
2812.00,0.0358
2811.00,0.0358
2810.00,0.0358
2809.00,0.0357
2808.00,0.0357
2807.00,0.0357
2806.00,0.0357
2805.00,0.0357
2804.00,0.0357
2803.00,0.0357
2802.00,0.0357
2801.00,0.0356
2800.00,0.0356
2799.00,0.0356
2798.00,0.0355
2797.00,0.0355
2796.00,0.0355
2795.00,0.0354
2794.00,0.0354
2793.00,0.0353
2792.00,0.0353
2791.00,0.0353
2790.00,0.0353
2789.00,0.0353
2788.00,0.0354
2787.00,0.0353
2786.00,0.0353
2785.00,0.0352
2784.00,0.0352
2783.00,0.0352
2782.00,0.0352
2781.00,0.0352
2780.00,0.0351
2779.00,0.0351
2778.00,0.0350
2777.00,0.0350
2776.00,0.0351
2775.00,0.0351
2774.00,0.0351
2773.00,0.0350
2772.00,0.0349
2771.00,0.0349
2770.00,0.0349
2769.00,0.0348
2768.00,0.0348
2767.00,0.0348
2766.00,0.0348
2765.00,0.0348
2764.00,0.0348
2763.00,0.0348
2762.00,0.0347
2761.00,0.0347
2760.00,0.0346
2759.00,0.0346
2758.00,0.0346
2757.00,0.0346
2756.00,0.0346
2755.00,0.0346
2754.00,0.0346
2753.00,0.0346
2752.00,0.0345
2751.00,0.0345
2750.00,0.0345
2749.00,0.0345
2748.00,0.0345
2747.00,0.0345
2746.00,0.0344
2745.00,0.0344
2744.00,0.0343
2743.00,0.0343
2742.00,0.0342
2741.00,0.0343
2740.00,0.0343
2739.00,0.0343
2738.00,0.0342
2737.00,0.0342
2736.00,0.0341
2735.00,0.0341
2734.00,0.0340
2733.00,0.0340
2732.00,0.0340
2731.00,0.0340
2730.00,0.0340
2729.00,0.0340
2728.00,0.0340
2727.00,0.0340
2726.00,0.0340
2725.00,0.0339
2724.00,0.0339
2723.00,0.0339
2722.00,0.0339
2721.00,0.0339
2720.00,0.0339
2719.00,0.0339
2718.00,0.0338
2717.00,0.0338
2716.00,0.0337
2715.00,0.0337
2714.00,0.0338
2713.00,0.0338
2712.00,0.0338
2711.00,0.0337
2710.00,0.0337
2709.00,0.0337
2708.00,0.0336
2707.00,0.0336
2706.00,0.0336
2705.00,0.0335
2704.00,0.0335
2703.00,0.0335
2702.00,0.0335
2701.00,0.0335
2700.00,0.0335
2699.00,0.0334
2698.00,0.0334
2697.00,0.0334
2696.00,0.0333
2695.00,0.0333
2694.00,0.0333
2693.00,0.0334
2692.00,0.0334
2691.00,0.0334
2690.00,0.0333
2689.00,0.0333
2688.00,0.0333
2687.00,0.0332
2686.00,0.0332
2685.00,0.0332
2684.00,0.0332
2683.00,0.0331
2682.00,0.0332
2681.00,0.0332
2680.00,0.0332
2679.00,0.0332
2678.00,0.0332
2677.00,0.0332
2676.00,0.0331
2675.00,0.0331
2674.00,0.0331
2673.00,0.0330
2672.00,0.0330
2671.00,0.0330
2670.00,0.0329
2669.00,0.0329
2668.00,0.0329
2667.00,0.0329
2666.00,0.0329
2665.00,0.0329
2664.00,0.0329
2663.00,0.0329
2662.00,0.0329
2661.00,0.0329
2660.00,0.0329
2659.00,0.0329
2658.00,0.0330
2657.00,0.0330
2656.00,0.0330
2655.00,0.0330
2654.00,0.0330
2653.00,0.0330
2652.00,0.0330
2651.00,0.0330
2650.00,0.0330
2649.00,0.0330
2648.00,0.0330
2647.00,0.0330
2646.00,0.0330
2645.00,0.0330
2644.00,0.0330
2643.00,0.0331
2642.00,0.0331
2641.00,0.0331
2640.00,0.0331
2639.00,0.0330
2638.00,0.0330
2637.00,0.0330
2636.00,0.0330
2635.00,0.0330
2634.00,0.0330
2633.00,0.0330
2632.00,0.0330
2631.00,0.0330
2630.00,0.0330
2629.00,0.0330
2628.00,0.0330
2627.00,0.0329
2626.00,0.0329
2625.00,0.0329
2624.00,0.0329
2623.00,0.0329
2622.00,0.0329
2621.00,0.0329
2620.00,0.0329
2619.00,0.0329
2618.00,0.0329
2617.00,0.0330
2616.00,0.0330
2615.00,0.0329
2614.00,0.0329
2613.00,0.0329
2612.00,0.0329
2611.00,0.0329
2610.00,0.0329
2609.00,0.0329
2608.00,0.0329
2607.00,0.0329
2606.00,0.0329
2605.00,0.0329
2604.00,0.0329
2603.00,0.0329
2602.00,0.0329
2601.00,0.0329
2600.00,0.0329
2599.00,0.0329
2598.00,0.0329
2597.00,0.0329
2596.00,0.0328
2595.00,0.0328
2594.00,0.0328
2593.00,0.0329
2592.00,0.0329
2591.00,0.0328
2590.00,0.0328
2589.00,0.0328
2588.00,0.0328
2587.00,0.0327
2586.00,0.0327
2585.00,0.0326
2584.00,0.0327
2583.00,0.0327
2582.00,0.0327
2581.00,0.0328
2580.00,0.0328
2579.00,0.0328
2578.00,0.0328
2577.00,0.0328
2576.00,0.0328
2575.00,0.0328
2574.00,0.0327
2573.00,0.0327
2572.00,0.0327
2571.00,0.0326
2570.00,0.0326
2569.00,0.0326
2568.00,0.0326
2567.00,0.0326
2566.00,0.0327
2565.00,0.0327
2564.00,0.0327
2563.00,0.0327
2562.00,0.0326
2561.00,0.0326
2560.00,0.0326
2559.00,0.0326
2558.00,0.0326
2557.00,0.0326
2556.00,0.0326
2555.00,0.0326
2554.00,0.0326
2553.00,0.0326
2552.00,0.0326
2551.00,0.0326
2550.00,0.0326
2549.00,0.0326
2548.00,0.0325
2547.00,0.0325
2546.00,0.0325
2545.00,0.0324
2544.00,0.0324
2543.00,0.0325
2542.00,0.0326
2541.00,0.0326
2540.00,0.0327
2539.00,0.0327
2538.00,0.0326
2537.00,0.0326
2536.00,0.0325
2535.00,0.0325
2534.00,0.0326
2533.00,0.0326
2532.00,0.0326
2531.00,0.0325
2530.00,0.0325
2529.00,0.0325
2528.00,0.0325
2527.00,0.0325
2526.00,0.0325
2525.00,0.0325
2524.00,0.0325
2523.00,0.0325
2522.00,0.0324
2521.00,0.0324
2520.00,0.0324
2519.00,0.0324
2518.00,0.0324
2517.00,0.0323
2516.00,0.0323
2515.00,0.0323
2514.00,0.0323
2513.00,0.0324
2512.00,0.0324
2511.00,0.0324
2510.00,0.0323
2509.00,0.0322
2508.00,0.0322
2507.00,0.0321
2506.00,0.0321
2505.00,0.0321
2504.00,0.0321
2503.00,0.0322
2502.00,0.0322
2501.00,0.0323
2500.00,0.0323
2499.00,0.0322
2498.00,0.0322
2497.00,0.0321
2496.00,0.0321
2495.00,0.0321
2494.00,0.0321
2493.00,0.0320
2492.00,0.0321
2491.00,0.0321
2490.00,0.0321
2489.00,0.0321
2488.00,0.0321
2487.00,0.0321
2486.00,0.0320
2485.00,0.0320
2484.00,0.0320
2483.00,0.0320
2482.00,0.0320
2481.00,0.0320
2480.00,0.0320
2479.00,0.0320
2478.00,0.0320
2477.00,0.0319
2476.00,0.0319
2475.00,0.0319
2474.00,0.0319
2473.00,0.0319
2472.00,0.0319
2471.00,0.0318
2470.00,0.0318
2469.00,0.0318
2468.00,0.0318
2467.00,0.0318
2466.00,0.0317
2465.00,0.0317
2464.00,0.0317
2463.00,0.0317
2462.00,0.0317
2461.00,0.0317
2460.00,0.0318
2459.00,0.0318
2458.00,0.0319
2457.00,0.0319
2456.00,0.0318
2455.00,0.0318
2454.00,0.0317
2453.00,0.0317
2452.00,0.0317
2451.00,0.0318
2450.00,0.0318
2449.00,0.0317
2448.00,0.0317
2447.00,0.0317
2446.00,0.0316
2445.00,0.0316
2444.00,0.0316
2443.00,0.0315
2442.00,0.0315
2441.00,0.0315
2440.00,0.0315
2439.00,0.0314
2438.00,0.0314
2437.00,0.0314
2436.00,0.0314
2435.00,0.0314
2434.00,0.0314
2433.00,0.0314
2432.00,0.0314
2431.00,0.0315
2430.00,0.0315
2429.00,0.0315
2428.00,0.0315
2427.00,0.0314
2426.00,0.0314
2425.00,0.0313
2424.00,0.0312
2423.00,0.0311
2422.00,0.0311
2421.00,0.0310
2420.00,0.0311
2419.00,0.0311
2418.00,0.0311
2417.00,0.0311
2416.00,0.0310
2415.00,0.0310
2414.00,0.0310
2413.00,0.0310
2412.00,0.0311
2411.00,0.0311
2410.00,0.0310
2409.00,0.0309
2408.00,0.0309
2407.00,0.0309
2406.00,0.0310
2405.00,0.0310
2404.00,0.0310
2403.00,0.0309
2402.00,0.0308
2401.00,0.0307
2400.00,0.0307
2399.00,0.0307
2398.00,0.0307
2397.00,0.0307
2396.00,0.0307
2395.00,0.0306
2394.00,0.0306
2393.00,0.0306
2392.00,0.0305
2391.00,0.0305
2390.00,0.0304
2389.00,0.0303
2388.00,0.0302
2387.00,0.0300
2386.00,0.0299
2385.00,0.0297
2384.00,0.0295
2383.00,0.0293
2382.00,0.0291
2381.00,0.0291
2380.00,0.0290
2379.00,0.0291
2378.00,0.0292
2377.00,0.0293
2376.00,0.0295
2375.00,0.0296
2374.00,0.0297
2373.00,0.0298
2372.00,0.0298
2371.00,0.0296
2370.00,0.0295
2369.00,0.0294
2368.00,0.0294
2367.00,0.0295
2366.00,0.0295
2365.00,0.0295
2364.00,0.0294
2363.00,0.0295
2362.00,0.0296
2361.00,0.0298
2360.00,0.0300
2359.00,0.0303
2358.00,0.0305
2357.00,0.0307
2356.00,0.0308
2355.00,0.0305
2354.00,0.0301
2353.00,0.0296
2352.00,0.0295
2351.00,0.0296
2350.00,0.0298
2349.00,0.0297
2348.00,0.0292
2347.00,0.0287
2346.00,0.0287
2345.00,0.0290
2344.00,0.0294
2343.00,0.0297
2342.00,0.0298
2341.00,0.0298
2340.00,0.0298
2339.00,0.0298
2338.00,0.0297
2337.00,0.0297
2336.00,0.0296
2335.00,0.0295
2334.00,0.0295
2333.00,0.0296
2332.00,0.0297
2331.00,0.0299
2330.00,0.0300
2329.00,0.0302
2328.00,0.0304
2327.00,0.0305
2326.00,0.0305
2325.00,0.0304
2324.00,0.0303
2323.00,0.0304
2322.00,0.0304
2321.00,0.0304
2320.00,0.0303
2319.00,0.0301
2318.00,0.0300
2317.00,0.0300
2316.00,0.0299
2315.00,0.0298
2314.00,0.0298
2313.00,0.0298
2312.00,0.0298
2311.00,0.0298
2310.00,0.0297
2309.00,0.0297
2308.00,0.0297
2307.00,0.0297
2306.00,0.0297
2305.00,0.0298
2304.00,0.0297
2303.00,0.0297
2302.00,0.0297
2301.00,0.0297
2300.00,0.0296
2299.00,0.0296
2298.00,0.0296
2297.00,0.0295
2296.00,0.0295
2295.00,0.0295
2294.00,0.0295
2293.00,0.0295
2292.00,0.0296
2291.00,0.0296
2290.00,0.0296
2289.00,0.0296
2288.00,0.0297
2287.00,0.0297
2286.00,0.0297
2285.00,0.0297
2284.00,0.0297
2283.00,0.0296
2282.00,0.0296
2281.00,0.0296
2280.00,0.0297
2279.00,0.0297
2278.00,0.0297
2277.00,0.0297
2276.00,0.0296
2275.00,0.0296
2274.00,0.0296
2273.00,0.0296
2272.00,0.0295
2271.00,0.0294
2270.00,0.0294
2269.00,0.0293
2268.00,0.0293
2267.00,0.0294
2266.00,0.0295
2265.00,0.0295
2264.00,0.0295
2263.00,0.0294
2262.00,0.0293
2261.00,0.0292
2260.00,0.0293
2259.00,0.0293
2258.00,0.0295
2257.00,0.0296
2256.00,0.0296
2255.00,0.0296
2254.00,0.0295
2253.00,0.0294
2252.00,0.0293
2251.00,0.0293
2250.00,0.0293
2249.00,0.0293
2248.00,0.0294
2247.00,0.0293
2246.00,0.0293
2245.00,0.0292
2244.00,0.0292
2243.00,0.0292
2242.00,0.0292
2241.00,0.0293
2240.00,0.0293
2239.00,0.0292
2238.00,0.0292
2237.00,0.0292
2236.00,0.0292
2235.00,0.0291
2234.00,0.0291
2233.00,0.0291
2232.00,0.0292
2231.00,0.0293
2230.00,0.0293
2229.00,0.0294
2228.00,0.0294
2227.00,0.0295
2226.00,0.0295
2225.00,0.0295
2224.00,0.0295
2223.00,0.0294
2222.00,0.0294
2221.00,0.0294
2220.00,0.0294
2219.00,0.0294
2218.00,0.0294
2217.00,0.0295
2216.00,0.0296
2215.00,0.0296
2214.00,0.0296
2213.00,0.0295
2212.00,0.0294
2211.00,0.0293
2210.00,0.0292
2209.00,0.0291
2208.00,0.0291
2207.00,0.0292
2206.00,0.0293
2205.00,0.0294
2204.00,0.0294
2203.00,0.0295
2202.00,0.0295
2201.00,0.0294
2200.00,0.0293
2199.00,0.0292
2198.00,0.0292
2197.00,0.0291
2196.00,0.0291
2195.00,0.0291
2194.00,0.0290
2193.00,0.0289
2192.00,0.0288
2191.00,0.0289
2190.00,0.0290
2189.00,0.0291
2188.00,0.0290
2187.00,0.0290
2186.00,0.0288
2185.00,0.0288
2184.00,0.0288
2183.00,0.0289
2182.00,0.0290
2181.00,0.0290
2180.00,0.0291
2179.00,0.0291
2178.00,0.0290
2177.00,0.0289
2176.00,0.0288
2175.00,0.0288
2174.00,0.0289
2173.00,0.0291
2172.00,0.0291
2171.00,0.0291
2170.00,0.0289
2169.00,0.0288
2168.00,0.0289
2167.00,0.0290
2166.00,0.0291
2165.00,0.0293
2164.00,0.0295
2163.00,0.0295
2162.00,0.0294
2161.00,0.0289
2160.00,0.0284
2159.00,0.0279
2158.00,0.0277
2157.00,0.0278
2156.00,0.0280
2155.00,0.0282
2154.00,0.0283
2153.00,0.0283
2152.00,0.0283
2151.00,0.0281
2150.00,0.0280
2149.00,0.0280
2148.00,0.0279
2147.00,0.0278
2146.00,0.0277
2145.00,0.0277
2144.00,0.0277
2143.00,0.0277
2142.00,0.0276
2141.00,0.0276
2140.00,0.0276
2139.00,0.0276
2138.00,0.0276
2137.00,0.0275
2136.00,0.0273
2135.00,0.0270
2134.00,0.0268
2133.00,0.0268
2132.00,0.0268
2131.00,0.0269
2130.00,0.0270
2129.00,0.0270
2128.00,0.0270
2127.00,0.0268
2126.00,0.0267
2125.00,0.0267
2124.00,0.0267
2123.00,0.0268
2122.00,0.0269
2121.00,0.0271
2120.00,0.0272
2119.00,0.0274
2118.00,0.0274
2117.00,0.0275
2116.00,0.0274
2115.00,0.0273
2114.00,0.0272
2113.00,0.0271
2112.00,0.0270
2111.00,0.0269
2110.00,0.0270
2109.00,0.0270
2108.00,0.0271
2107.00,0.0271
2106.00,0.0271
2105.00,0.0270
2104.00,0.0270
2103.00,0.0270
2102.00,0.0270
2101.00,0.0271
2100.00,0.0271
2099.00,0.0271
2098.00,0.0271
2097.00,0.0270
2096.00,0.0269
2095.00,0.0267
2094.00,0.0267
2093.00,0.0267
2092.00,0.0268
2091.00,0.0269
2090.00,0.0269
2089.00,0.0269
2088.00,0.0269
2087.00,0.0269
2086.00,0.0269
2085.00,0.0269
2084.00,0.0269
2083.00,0.0268
2082.00,0.0267
2081.00,0.0266
2080.00,0.0266
2079.00,0.0266
2078.00,0.0266
2077.00,0.0267
2076.00,0.0267
2075.00,0.0267
2074.00,0.0266
2073.00,0.0265
2072.00,0.0264
2071.00,0.0264
2070.00,0.0265
2069.00,0.0266
2068.00,0.0267
2067.00,0.0268
2066.00,0.0268
2065.00,0.0267
2064.00,0.0266
2063.00,0.0265
2062.00,0.0265
2061.00,0.0266
2060.00,0.0266
2059.00,0.0267
2058.00,0.0267
2057.00,0.0267
2056.00,0.0267
2055.00,0.0267
2054.00,0.0267
2053.00,0.0268
2052.00,0.0269
2051.00,0.0269
2050.00,0.0269
2049.00,0.0269
2048.00,0.0269
2047.00,0.0268
2046.00,0.0268
2045.00,0.0268
2044.00,0.0268
2043.00,0.0268
2042.00,0.0267
2041.00,0.0268
2040.00,0.0268
2039.00,0.0268
2038.00,0.0267
2037.00,0.0266
2036.00,0.0265
2035.00,0.0265
2034.00,0.0265
2033.00,0.0265
2032.00,0.0265
2031.00,0.0265
2030.00,0.0264
2029.00,0.0264
2028.00,0.0264
2027.00,0.0262
2026.00,0.0261
2025.00,0.0261
2024.00,0.0261
2023.00,0.0262
2022.00,0.0263
2021.00,0.0263
2020.00,0.0263
2019.00,0.0261
2018.00,0.0258
2017.00,0.0257
2016.00,0.0257
2015.00,0.0258
2014.00,0.0259
2013.00,0.0259
2012.00,0.0259
2011.00,0.0258
2010.00,0.0257
2009.00,0.0257
2008.00,0.0256
2007.00,0.0255
2006.00,0.0254
2005.00,0.0255
2004.00,0.0255
2003.00,0.0256
2002.00,0.0256
2001.00,0.0257
2000.00,0.0257
1999.00,0.0256
1998.00,0.0256
1997.00,0.0257
1996.00,0.0257
1995.00,0.0258
1994.00,0.0259
1993.00,0.0260
1992.00,0.0258
1991.00,0.0256
1990.00,0.0255
1989.00,0.0254
1988.00,0.0254
1987.00,0.0253
1986.00,0.0252
1985.00,0.0252
1984.00,0.0253
1983.00,0.0254
1982.00,0.0256
1981.00,0.0257
1980.00,0.0257
1979.00,0.0257
1978.00,0.0257
1977.00,0.0258
1976.00,0.0258
1975.00,0.0257
1974.00,0.0256
1973.00,0.0254
1972.00,0.0254
1971.00,0.0253
1970.00,0.0254
1969.00,0.0254
1968.00,0.0254
1967.00,0.0253
1966.00,0.0250
1965.00,0.0248
1964.00,0.0247
1963.00,0.0247
1962.00,0.0247
1961.00,0.0247
1960.00,0.0247
1959.00,0.0246
1958.00,0.0245
1957.00,0.0243
1956.00,0.0241
1955.00,0.0238
1954.00,0.0238
1953.00,0.0239
1952.00,0.0240
1951.00,0.0240
1950.00,0.0240
1949.00,0.0239
1948.00,0.0238
1947.00,0.0238
1946.00,0.0239
1945.00,0.0240
1944.00,0.0240
1943.00,0.0238
1942.00,0.0236
1941.00,0.0235
1940.00,0.0234
1939.00,0.0235
1938.00,0.0234
1937.00,0.0234
1936.00,0.0234
1935.00,0.0234
1934.00,0.0234
1933.00,0.0233
1932.00,0.0233
1931.00,0.0232
1930.00,0.0232
1929.00,0.0232
1928.00,0.0232
1927.00,0.0231
1926.00,0.0232
1925.00,0.0234
1924.00,0.0234
1923.00,0.0232
1922.00,0.0229
1921.00,0.0228
1920.00,0.0228
1919.00,0.0227
1918.00,0.0225
1917.00,0.0223
1916.00,0.0223
1915.00,0.0223
1914.00,0.0224
1913.00,0.0224
1912.00,0.0225
1911.00,0.0224
1910.00,0.0223
1909.00,0.0222
1908.00,0.0220
1907.00,0.0218
1906.00,0.0217
1905.00,0.0217
1904.00,0.0218
1903.00,0.0218
1902.00,0.0217
1901.00,0.0217
1900.00,0.0216
1899.00,0.0216
1898.00,0.0215
1897.00,0.0216
1896.00,0.0215
1895.00,0.0215
1894.00,0.0214
1893.00,0.0215
1892.00,0.0216
1891.00,0.0216
1890.00,0.0213
1889.00,0.0211
1888.00,0.0210
1887.00,0.0209
1886.00,0.0209
1885.00,0.0209
1884.00,0.0208
1883.00,0.0208
1882.00,0.0207
1881.00,0.0207
1880.00,0.0207
1879.00,0.0206
1878.00,0.0205
1877.00,0.0204
1876.00,0.0204
1875.00,0.0204
1874.00,0.0204
1873.00,0.0205
1872.00,0.0207
1871.00,0.0208
1870.00,0.0206
1869.00,0.0203
1868.00,0.0200
1867.00,0.0198
1866.00,0.0198
1865.00,0.0199
1864.00,0.0199
1863.00,0.0198
1862.00,0.0197
1861.00,0.0196
1860.00,0.0196
1859.00,0.0195
1858.00,0.0195
1857.00,0.0194
1856.00,0.0194
1855.00,0.0193
1854.00,0.0193
1853.00,0.0192
1852.00,0.0191
1851.00,0.0191
1850.00,0.0190
1849.00,0.0190
1848.00,0.0191
1847.00,0.0192
1846.00,0.0192
1845.00,0.0189
1844.00,0.0184
1843.00,0.0181
1842.00,0.0181
1841.00,0.0184
1840.00,0.0185
1839.00,0.0185
1838.00,0.0184
1837.00,0.0183
1836.00,0.0182
1835.00,0.0181
1834.00,0.0183
1833.00,0.0186
1832.00,0.0188
1831.00,0.0188
1830.00,0.0184
1829.00,0.0180
1828.00,0.0180
1827.00,0.0181
1826.00,0.0180
1825.00,0.0177
1824.00,0.0175
1823.00,0.0173
1822.00,0.0173
1821.00,0.0173
1820.00,0.0173
1819.00,0.0172
1818.00,0.0170
1817.00,0.0169
1816.00,0.0169
1815.00,0.0170
1814.00,0.0170
1813.00,0.0170
1812.00,0.0170
1811.00,0.0168
1810.00,0.0166
1809.00,0.0165
1808.00,0.0165
1807.00,0.0165
1806.00,0.0165
1805.00,0.0166
1804.00,0.0168
1803.00,0.0169
1802.00,0.0169
1801.00,0.0167
1800.00,0.0166
1799.00,0.0165
1798.00,0.0165
1797.00,0.0166
1796.00,0.0168
1795.00,0.0170
1794.00,0.0169
1793.00,0.0167
1792.00,0.0164
1791.00,0.0163
1790.00,0.0164
1789.00,0.0166
1788.00,0.0168
1787.00,0.0169
1786.00,0.0169
1785.00,0.0170
1784.00,0.0172
1783.00,0.0175
1782.00,0.0177
1781.00,0.0178
1780.00,0.0178
1779.00,0.0179
1778.00,0.0181
1777.00,0.0185
1776.00,0.0189
1775.00,0.0193
1774.00,0.0194
1773.00,0.0192
1772.00,0.0189
1771.00,0.0189
1770.00,0.0190
1769.00,0.0192
1768.00,0.0194
1767.00,0.0195
1766.00,0.0198
1765.00,0.0202
1764.00,0.0206
1763.00,0.0208
1762.00,0.0207
1761.00,0.0207
1760.00,0.0209
1759.00,0.0212
1758.00,0.0213
1757.00,0.0213
1756.00,0.0213
1755.00,0.0215
1754.00,0.0218
1753.00,0.0221
1752.00,0.0223
1751.00,0.0224
1750.00,0.0227
1749.00,0.0229
1748.00,0.0232
1747.00,0.0235
1746.00,0.0239
1745.00,0.0242
1744.00,0.0246
1743.00,0.0249
1742.00,0.0252
1741.00,0.0254
1740.00,0.0255
1739.00,0.0257
1738.00,0.0260
1737.00,0.0266
1736.00,0.0271
1735.00,0.0271
1734.00,0.0271
1733.00,0.0276
1732.00,0.0282
1731.00,0.0289
1730.00,0.0294
1729.00,0.0297
1728.00,0.0300
1727.00,0.0303
1726.00,0.0307
1725.00,0.0310
1724.00,0.0314
1723.00,0.0317
1722.00,0.0321
1721.00,0.0327
1720.00,0.0333
1719.00,0.0335
1718.00,0.0333
1717.00,0.0333
1716.00,0.0336
1715.00,0.0338
1714.00,0.0341
1713.00,0.0343
1712.00,0.0345
1711.00,0.0347
1710.00,0.0349
1709.00,0.0352
1708.00,0.0355
1707.00,0.0358
1706.00,0.0359
1705.00,0.0361
1704.00,0.0363
1703.00,0.0365
1702.00,0.0367
1701.00,0.0366
1700.00,0.0363
1699.00,0.0362
1698.00,0.0364
1697.00,0.0368
1696.00,0.0369
1695.00,0.0366
1694.00,0.0365
1693.00,0.0367
1692.00,0.0371
1691.00,0.0373
1690.00,0.0374
1689.00,0.0375
1688.00,0.0378
1687.00,0.0382
1686.00,0.0385
1685.00,0.0385
1684.00,0.0385
1683.00,0.0387
1682.00,0.0387
1681.00,0.0389
1680.00,0.0390
1679.00,0.0391
1678.00,0.0393
1677.00,0.0394
1676.00,0.0395
1675.00,0.0397
1674.00,0.0399
1673.00,0.0403
1672.00,0.0407
1671.00,0.0410
1670.00,0.0413
1669.00,0.0416
1668.00,0.0418
1667.00,0.0419
1666.00,0.0420
1665.00,0.0422
1664.00,0.0424
1663.00,0.0426
1662.00,0.0428
1661.00,0.0430
1660.00,0.0431
1659.00,0.0433
1658.00,0.0435
1657.00,0.0437
1656.00,0.0442
1655.00,0.0447
1654.00,0.0449
1653.00,0.0454
1652.00,0.0455
1651.00,0.0454
1650.00,0.0457
1649.00,0.0460
1648.00,0.0462
1647.00,0.0464
1646.00,0.0467
1645.00,0.0469
1644.00,0.0470
1643.00,0.0471
1642.00,0.0473
1641.00,0.0475
1640.00,0.0478
1639.00,0.0481
1638.00,0.0484
1637.00,0.0488
1636.00,0.0493
1635.00,0.0499
1634.00,0.0500
1633.00,0.0501
1632.00,0.0502
1631.00,0.0504
1630.00,0.0507
1629.00,0.0512
1628.00,0.0515
1627.00,0.0519
1626.00,0.0521
1625.00,0.0524
1624.00,0.0527
1623.00,0.0531
1622.00,0.0534
1621.00,0.0535
1620.00,0.0536
1619.00,0.0538
1618.00,0.0540
1617.00,0.0544
1616.00,0.0548
1615.00,0.0550
1614.00,0.0552
1613.00,0.0554
1612.00,0.0555
1611.00,0.0557
1610.00,0.0561
1609.00,0.0564
1608.00,0.0567
1607.00,0.0569
1606.00,0.0570
1605.00,0.0572
1604.00,0.0573
1603.00,0.0576
1602.00,0.0579
1601.00,0.0581
1600.00,0.0582
1599.00,0.0583
1598.00,0.0585
1597.00,0.0586
1596.00,0.0588
1595.00,0.0589
1594.00,0.0591
1593.00,0.0592
1592.00,0.0593
1591.00,0.0594
1590.00,0.0596
1589.00,0.0597
1588.00,0.0598
1587.00,0.0599
1586.00,0.0600
1585.00,0.0601
1584.00,0.0601
1583.00,0.0602
1582.00,0.0603
1581.00,0.0604
1580.00,0.0604
1579.00,0.0605
1578.00,0.0606
1577.00,0.0607
1576.00,0.0609
1575.00,0.0610
1574.00,0.0610
1573.00,0.0608
1572.00,0.0607
1571.00,0.0607
1570.00,0.0609
1569.00,0.0611
1568.00,0.0610
1567.00,0.0609
1566.00,0.0608
1565.00,0.0606
1564.00,0.0605
1563.00,0.0604
1562.00,0.0604
1561.00,0.0604
1560.00,0.0603
1559.00,0.0610
1558.00,0.0614
1557.00,0.0607
1556.00,0.0599
1555.00,0.0595
1554.00,0.0592
1553.00,0.0590
1552.00,0.0589
1551.00,0.0588
1550.00,0.0587
1549.00,0.0585
1548.00,0.0581
1547.00,0.0578
1546.00,0.0575
1545.00,0.0574
1544.00,0.0574
1543.00,0.0572
1542.00,0.0568
1541.00,0.0565
1540.00,0.0569
1539.00,0.0571
1538.00,0.0567
1537.00,0.0562
1536.00,0.0559
1535.00,0.0557
1534.00,0.0556
1533.00,0.0556
1532.00,0.0554
1531.00,0.0550
1530.00,0.0546
1529.00,0.0543
1528.00,0.0541
1527.00,0.0538
1526.00,0.0536
1525.00,0.0534
1524.00,0.0533
1523.00,0.0530
1522.00,0.0527
1521.00,0.0528
1520.00,0.0529
1519.00,0.0529
1518.00,0.0528
1517.00,0.0526
1516.00,0.0524
1515.00,0.0519
1514.00,0.0514
1513.00,0.0511
1512.00,0.0510
1511.00,0.0510
1510.00,0.0512
1509.00,0.0513
1508.00,0.0513
1507.00,0.0514
1506.00,0.0511
1505.00,0.0503
1504.00,0.0497
1503.00,0.0494
1502.00,0.0492
1501.00,0.0490
1500.00,0.0489
1499.00,0.0487
1498.00,0.0484
1497.00,0.0482
1496.00,0.0484
1495.00,0.0485
1494.00,0.0485
1493.00,0.0486
1492.00,0.0487
1491.00,0.0488
1490.00,0.0490
1489.00,0.0493
1488.00,0.0493
1487.00,0.0491
1486.00,0.0488
1485.00,0.0486
1484.00,0.0484
1483.00,0.0483
1482.00,0.0482
1481.00,0.0482
1480.00,0.0482
1479.00,0.0483
1478.00,0.0483
1477.00,0.0484
1476.00,0.0484
1475.00,0.0483
1474.00,0.0481
1473.00,0.0481
1472.00,0.0483
1471.00,0.0484
1470.00,0.0484
1469.00,0.0483
1468.00,0.0484
1467.00,0.0484
1466.00,0.0484
1465.00,0.0485
1464.00,0.0486
1463.00,0.0486
1462.00,0.0487
1461.00,0.0488
1460.00,0.0489
1459.00,0.0488
1458.00,0.0486
1457.00,0.0487
1456.00,0.0489
1455.00,0.0491
1454.00,0.0491
1453.00,0.0492
1452.00,0.0493
1451.00,0.0495
1450.00,0.0496
1449.00,0.0499
1448.00,0.0501
1447.00,0.0502
1446.00,0.0501
1445.00,0.0500
1444.00,0.0500
1443.00,0.0501
1442.00,0.0501
1441.00,0.0501
1440.00,0.0502
1439.00,0.0502
1438.00,0.0503
1437.00,0.0505
1436.00,0.0508
1435.00,0.0510
1434.00,0.0511
1433.00,0.0511
1432.00,0.0512
1431.00,0.0514
1430.00,0.0515
1429.00,0.0516
1428.00,0.0516
1427.00,0.0516
1426.00,0.0517
1425.00,0.0517
1424.00,0.0519
1423.00,0.0520
1422.00,0.0520
1421.00,0.0520
1420.00,0.0521
1419.00,0.0524
1418.00,0.0526
1417.00,0.0527
1416.00,0.0527
1415.00,0.0527
1414.00,0.0527
1413.00,0.0526
1412.00,0.0527
1411.00,0.0528
1410.00,0.0529
1409.00,0.0529
1408.00,0.0529
1407.00,0.0530
1406.00,0.0532
1405.00,0.0533
1404.00,0.0535
1403.00,0.0536
1402.00,0.0536
1401.00,0.0537
1400.00,0.0538
1399.00,0.0540
1398.00,0.0542
1397.00,0.0543
1396.00,0.0544
1395.00,0.0546
1394.00,0.0546
1393.00,0.0546
1392.00,0.0545
1391.00,0.0545
1390.00,0.0545
1389.00,0.0545
1388.00,0.0547
1387.00,0.0550
1386.00,0.0553
1385.00,0.0554
1384.00,0.0554
1383.00,0.0555
1382.00,0.0555
1381.00,0.0556
1380.00,0.0557
1379.00,0.0558
1378.00,0.0559
1377.00,0.0560
1376.00,0.0562
1375.00,0.0564
1374.00,0.0566
1373.00,0.0567
1372.00,0.0566
1371.00,0.0565
1370.00,0.0565
1369.00,0.0566
1368.00,0.0566
1367.00,0.0566
1366.00,0.0565
1365.00,0.0566
1364.00,0.0567
1363.00,0.0569
1362.00,0.0570
1361.00,0.0570
1360.00,0.0569
1359.00,0.0568
1358.00,0.0567
1357.00,0.0566
1356.00,0.0566
1355.00,0.0565
1354.00,0.0565
1353.00,0.0565
1352.00,0.0564
1351.00,0.0563
1350.00,0.0563
1349.00,0.0562
1348.00,0.0562
1347.00,0.0562
1346.00,0.0561
1345.00,0.0561
1344.00,0.0560
1343.00,0.0560
1342.00,0.0560
1341.00,0.0561
1340.00,0.0562
1339.00,0.0563
1338.00,0.0563
1337.00,0.0562
1336.00,0.0560
1335.00,0.0559
1334.00,0.0557
1333.00,0.0557
1332.00,0.0556
1331.00,0.0556
1330.00,0.0556
1329.00,0.0555
1328.00,0.0554
1327.00,0.0554
1326.00,0.0553
1325.00,0.0553
1324.00,0.0553
1323.00,0.0553
1322.00,0.0552
1321.00,0.0552
1320.00,0.0552
1319.00,0.0552
1318.00,0.0552
1317.00,0.0553
1316.00,0.0553
1315.00,0.0553
1314.00,0.0553
1313.00,0.0553
1312.00,0.0553
1311.00,0.0552
1310.00,0.0552
1309.00,0.0551
1308.00,0.0551
1307.00,0.0551
1306.00,0.0551
1305.00,0.0551
1304.00,0.0550
1303.00,0.0551
1302.00,0.0551
1301.00,0.0551
1300.00,0.0552
1299.00,0.0553
1298.00,0.0553
1297.00,0.0553
1296.00,0.0553
1295.00,0.0553
1294.00,0.0553
1293.00,0.0554
1292.00,0.0554
1291.00,0.0555
1290.00,0.0556
1289.00,0.0557
1288.00,0.0558
1287.00,0.0559
1286.00,0.0559
1285.00,0.0559
1284.00,0.0559
1283.00,0.0559
1282.00,0.0560
1281.00,0.0560
1280.00,0.0561
1279.00,0.0562
1278.00,0.0563
1277.00,0.0563
1276.00,0.0564
1275.00,0.0564
1274.00,0.0565
1273.00,0.0565
1272.00,0.0565
1271.00,0.0566
1270.00,0.0566
1269.00,0.0566
1268.00,0.0566
1267.00,0.0567
1266.00,0.0567
1265.00,0.0567
1264.00,0.0567
1263.00,0.0566
1262.00,0.0567
1261.00,0.0567
1260.00,0.0568
1259.00,0.0569
1258.00,0.0570
1257.00,0.0571
1256.00,0.0572
1255.00,0.0573
1254.00,0.0574
1253.00,0.0575
1252.00,0.0576
1251.00,0.0577
1250.00,0.0577
1249.00,0.0578
1248.00,0.0578
1247.00,0.0578
1246.00,0.0579
1245.00,0.0579
1244.00,0.0579
1243.00,0.0579
1242.00,0.0580
1241.00,0.0580
1240.00,0.0580
1239.00,0.0580
1238.00,0.0580
1237.00,0.0580
1236.00,0.0580
1235.00,0.0580
1234.00,0.0579
1233.00,0.0578
1232.00,0.0578
1231.00,0.0578
1230.00,0.0578
1229.00,0.0578
1228.00,0.0578
1227.00,0.0578
1226.00,0.0579
1225.00,0.0579
1224.00,0.0579
1223.00,0.0579
1222.00,0.0579
1221.00,0.0578
1220.00,0.0577
1219.00,0.0576
1218.00,0.0575
1217.00,0.0575
1216.00,0.0574
1215.00,0.0574
1214.00,0.0573
1213.00,0.0573
1212.00,0.0573
1211.00,0.0573
1210.00,0.0573
1209.00,0.0572
1208.00,0.0572
1207.00,0.0572
1206.00,0.0571
1205.00,0.0571
1204.00,0.0570
1203.00,0.0569
1202.00,0.0569
1201.00,0.0569
1200.00,0.0568
1199.00,0.0568
1198.00,0.0568
1197.00,0.0567
1196.00,0.0567
1195.00,0.0567
1194.00,0.0567
1193.00,0.0566
1192.00,0.0566
1191.00,0.0565
1190.00,0.0565
1189.00,0.0565
1188.00,0.0566
1187.00,0.0566
1186.00,0.0566
1185.00,0.0565
1184.00,0.0565
1183.00,0.0563
1182.00,0.0562
1181.00,0.0561
1180.00,0.0561
1179.00,0.0561
1178.00,0.0562
1177.00,0.0562
1176.00,0.0562
1175.00,0.0562
1174.00,0.0561
1173.00,0.0561
1172.00,0.0561
1171.00,0.0561
1170.00,0.0561
1169.00,0.0561
1168.00,0.0562
1167.00,0.0562
1166.00,0.0562
1165.00,0.0562
1164.00,0.0561
1163.00,0.0561
1162.00,0.0560
1161.00,0.0560
1160.00,0.0559
1159.00,0.0559
1158.00,0.0558
1157.00,0.0557
1156.00,0.0557
1155.00,0.0556
1154.00,0.0556
1153.00,0.0556
1152.00,0.0556
1151.00,0.0557
1150.00,0.0557
1149.00,0.0558
1148.00,0.0559
1147.00,0.0560
1146.00,0.0560
1145.00,0.0560
1144.00,0.0560
1143.00,0.0560
1142.00,0.0559
1141.00,0.0558
1140.00,0.0558
1139.00,0.0558
1138.00,0.0559
1137.00,0.0560
1136.00,0.0560
1135.00,0.0560
1134.00,0.0561
1133.00,0.0561
1132.00,0.0562
1131.00,0.0563
1130.00,0.0563
1129.00,0.0564
1128.00,0.0565
1127.00,0.0566
1126.00,0.0568
1125.00,0.0570
1124.00,0.0571
1123.00,0.0573
1122.00,0.0574
1121.00,0.0576
1120.00,0.0578
1119.00,0.0581
1118.00,0.0583
1117.00,0.0584
1116.00,0.0585
1115.00,0.0586
1114.00,0.0587
1113.00,0.0588
1112.00,0.0588
1111.00,0.0588
1110.00,0.0588
1109.00,0.0589
1108.00,0.0589
1107.00,0.0591
1106.00,0.0593
1105.00,0.0595
1104.00,0.0598
1103.00,0.0599
1102.00,0.0600
1101.00,0.0600
1100.00,0.0600
1099.00,0.0600
1098.00,0.0601
1097.00,0.0601
1096.00,0.0602
1095.00,0.0602
1094.00,0.0603
1093.00,0.0604
1092.00,0.0605
1091.00,0.0606
1090.00,0.0606
1089.00,0.0606
1088.00,0.0606
1087.00,0.0607
1086.00,0.0608
1085.00,0.0608
1084.00,0.0610
1083.00,0.0611
1082.00,0.0613
1081.00,0.0613
1080.00,0.0613
1079.00,0.0612
1078.00,0.0613
1077.00,0.0613
1076.00,0.0614
1075.00,0.0614
1074.00,0.0614
1073.00,0.0615
1072.00,0.0615
1071.00,0.0616
1070.00,0.0617
1069.00,0.0617
1068.00,0.0617
1067.00,0.0617
1066.00,0.0618
1065.00,0.0619
1064.00,0.0620
1063.00,0.0621
1062.00,0.0622
1061.00,0.0624
1060.00,0.0625
1059.00,0.0626
1058.00,0.0626
1057.00,0.0627
1056.00,0.0627
1055.00,0.0628
1054.00,0.0629
1053.00,0.0631
1052.00,0.0634
1051.00,0.0637
1050.00,0.0639
1049.00,0.0640
1048.00,0.0642
1047.00,0.0643
1046.00,0.0645
1045.00,0.0646
1044.00,0.0647
1043.00,0.0648
1042.00,0.0649
1041.00,0.0650
1040.00,0.0651
1039.00,0.0652
1038.00,0.0653
1037.00,0.0654
1036.00,0.0655
1035.00,0.0657
1034.00,0.0657
1033.00,0.0657
1032.00,0.0656
1031.00,0.0655
1030.00,0.0652
1029.00,0.0650
1028.00,0.0647
1027.00,0.0645
1026.00,0.0642
1025.00,0.0640
1024.00,0.0638
1023.00,0.0637
1022.00,0.0636
1021.00,0.0634
1020.00,0.0633
1019.00,0.0632
1018.00,0.0631
1017.00,0.0632
1016.00,0.0633
1015.00,0.0635
1014.00,0.0636
1013.00,0.0637
1012.00,0.0638
1011.00,0.0639
1010.00,0.0639
1009.00,0.0640
1008.00,0.0640
1007.00,0.0640
1006.00,0.0640
1005.00,0.0639
1004.00,0.0638
1003.00,0.0635
1002.00,0.0633
1001.00,0.0631
1000.00,0.0629
999.00,0.0627
998.00,0.0624
997.00,0.0621
996.00,0.0617
995.00,0.0613
994.00,0.0609
993.00,0.0607
992.00,0.0605
991.00,0.0603
990.00,0.0599
989.00,0.0597
988.00,0.0595
987.00,0.0594
986.00,0.0593
985.00,0.0592
984.00,0.0590
983.00,0.0588
982.00,0.0587
981.00,0.0585
980.00,0.0584
979.00,0.0583
978.00,0.0581
977.00,0.0579
976.00,0.0577
975.00,0.0574
974.00,0.0573
973.00,0.0571
972.00,0.0571
971.00,0.0570
970.00,0.0569
969.00,0.0569
968.00,0.0568
967.00,0.0567
966.00,0.0566
965.00,0.0565
964.00,0.0563
963.00,0.0561
962.00,0.0560
961.00,0.0559
960.00,0.0559
959.00,0.0559
958.00,0.0559
957.00,0.0557
956.00,0.0556
955.00,0.0557
954.00,0.0557
953.00,0.0557
952.00,0.0556
951.00,0.0556
950.00,0.0556
949.00,0.0556
948.00,0.0557
947.00,0.0558
946.00,0.0560
945.00,0.0561
944.00,0.0562
943.00,0.0563
942.00,0.0563
941.00,0.0564
940.00,0.0565
939.00,0.0567
938.00,0.0568
937.00,0.0568
936.00,0.0569
935.00,0.0569
934.00,0.0569
933.00,0.0568
932.00,0.0567
931.00,0.0566
930.00,0.0566
929.00,0.0567
928.00,0.0568
927.00,0.0569
926.00,0.0570
925.00,0.0572
924.00,0.0573
923.00,0.0574
922.00,0.0575
921.00,0.0577
920.00,0.0579
919.00,0.0581
918.00,0.0583
917.00,0.0585
916.00,0.0587
915.00,0.0587
914.00,0.0588
913.00,0.0588
912.00,0.0589
911.00,0.0589
910.00,0.0589
909.00,0.0589
908.00,0.0588
907.00,0.0587
906.00,0.0586
905.00,0.0585
904.00,0.0583
903.00,0.0582
902.00,0.0581
901.00,0.0581
900.00,0.0581
899.00,0.0581
898.00,0.0580
897.00,0.0578
896.00,0.0576
895.00,0.0574
894.00,0.0573
893.00,0.0572
892.00,0.0573
891.00,0.0573
890.00,0.0572
889.00,0.0570
888.00,0.0569
887.00,0.0569
886.00,0.0569
885.00,0.0570
884.00,0.0570
883.00,0.0570
882.00,0.0570
881.00,0.0570
880.00,0.0570
879.00,0.0569
878.00,0.0566
877.00,0.0564
876.00,0.0563
875.00,0.0563
874.00,0.0564
873.00,0.0565
872.00,0.0564
871.00,0.0563
870.00,0.0562
869.00,0.0562
868.00,0.0562
867.00,0.0561
866.00,0.0561
865.00,0.0560
864.00,0.0560
863.00,0.0561
862.00,0.0562
861.00,0.0562
860.00,0.0562
859.00,0.0562
858.00,0.0562
857.00,0.0562
856.00,0.0562
855.00,0.0563
854.00,0.0563
853.00,0.0564
852.00,0.0564
851.00,0.0564
850.00,0.0563
849.00,0.0564
848.00,0.0566
847.00,0.0568
846.00,0.0571
845.00,0.0573
844.00,0.0575
843.00,0.0576
842.00,0.0577
841.00,0.0578
840.00,0.0579
839.00,0.0581
838.00,0.0584
837.00,0.0585
836.00,0.0586
835.00,0.0586
834.00,0.0586
833.00,0.0586
832.00,0.0588
831.00,0.0590
830.00,0.0594
829.00,0.0596
828.00,0.0596
827.00,0.0595
826.00,0.0594
825.00,0.0594
824.00,0.0594
823.00,0.0595
822.00,0.0596
821.00,0.0597
820.00,0.0598
819.00,0.0599
818.00,0.0600
817.00,0.0600
816.00,0.0600
815.00,0.0600
814.00,0.0600
813.00,0.0600
812.00,0.0601
811.00,0.0602
810.00,0.0605
809.00,0.0608
808.00,0.0611
807.00,0.0613
806.00,0.0613
805.00,0.0614
804.00,0.0615
803.00,0.0616
802.00,0.0618
801.00,0.0621
800.00,0.0623
799.00,0.0625
798.00,0.0626
797.00,0.0627
796.00,0.0630
795.00,0.0633
794.00,0.0635
793.00,0.0635
792.00,0.0635
791.00,0.0634
790.00,0.0635
789.00,0.0635
788.00,0.0637
787.00,0.0638
786.00,0.0640
785.00,0.0642
784.00,0.0644
783.00,0.0645
782.00,0.0647
781.00,0.0648
780.00,0.0649
779.00,0.0649
778.00,0.0649
777.00,0.0649
776.00,0.0649
775.00,0.0650
774.00,0.0651
773.00,0.0652
772.00,0.0654
771.00,0.0656
770.00,0.0657
769.00,0.0657
768.00,0.0657
767.00,0.0657
766.00,0.0657
765.00,0.0658
764.00,0.0660
763.00,0.0660
762.00,0.0659
761.00,0.0659
760.00,0.0660
759.00,0.0662
758.00,0.0665
757.00,0.0668
756.00,0.0670
755.00,0.0670
754.00,0.0671
753.00,0.0672
752.00,0.0673
751.00,0.0675
750.00,0.0676
749.00,0.0677
748.00,0.0677
747.00,0.0677
746.00,0.0677
745.00,0.0676
744.00,0.0676
743.00,0.0675
742.00,0.0674
741.00,0.0672
740.00,0.0670
739.00,0.0669
738.00,0.0670
737.00,0.0671
736.00,0.0672
735.00,0.0672
734.00,0.0672
733.00,0.0673
732.00,0.0674
731.00,0.0675
730.00,0.0674
729.00,0.0673
728.00,0.0672
727.00,0.0673
726.00,0.0675
725.00,0.0677
724.00,0.0679
723.00,0.0679
722.00,0.0679
721.00,0.0680
720.00,0.0682
719.00,0.0684
718.00,0.0684
717.00,0.0683
716.00,0.0682
715.00,0.0682
714.00,0.0685
713.00,0.0690
712.00,0.0695
711.00,0.0698
710.00,0.0698
709.00,0.0697
708.00,0.0696
707.00,0.0697
706.00,0.0700
705.00,0.0705
704.00,0.0710
703.00,0.0713
702.00,0.0713
701.00,0.0714
700.00,0.0715
699.00,0.0717
698.00,0.0719
697.00,0.0722
696.00,0.0724
695.00,0.0725
694.00,0.0723
693.00,0.0722
692.00,0.0722
691.00,0.0725
690.00,0.0727
689.00,0.0727
688.00,0.0726
687.00,0.0726
686.00,0.0726
685.00,0.0726
684.00,0.0725
683.00,0.0726
682.00,0.0728
681.00,0.0732
680.00,0.0734
679.00,0.0734
678.00,0.0735
677.00,0.0738
676.00,0.0741
675.00,0.0742
674.00,0.0740
673.00,0.0736
672.00,0.0733
671.00,0.0733
670.00,0.0738
669.00,0.0753
668.00,0.0773
667.00,0.0781
666.00,0.0772
665.00,0.0761
664.00,0.0752
663.00,0.0745
662.00,0.0740
661.00,0.0743
660.00,0.0753
659.00,0.0763
658.00,0.0767
657.00,0.0765
656.00,0.0762
655.00,0.0763
654.00,0.0765
653.00,0.0768
652.00,0.0772
651.00,0.0771
650.00,0.0771
