Created as New Dataset,
cm-1,A
4000.00,0.0125
3999.00,0.0126
3998.00,0.0126
3997.00,0.0126
3996.00,0.0126
3995.00,0.0126
3994.00,0.0126
3993.00,0.0125
3992.00,0.0125
3991.00,0.0125
3990.00,0.0124
3989.00,0.0124
3988.00,0.0124
3987.00,0.0124
3986.00,0.0124
3985.00,0.0124
3984.00,0.0124
3983.00,0.0124
3982.00,0.0124
3981.00,0.0124
3980.00,0.0124
3979.00,0.0124
3978.00,0.0124
3977.00,0.0124
3976.00,0.0124
3975.00,0.0124
3974.00,0.0124
3973.00,0.0124
3972.00,0.0123
3971.00,0.0123
3970.00,0.0123
3969.00,0.0122
3968.00,0.0122
3967.00,0.0122
3966.00,0.0122
3965.00,0.0122
3964.00,0.0122
3963.00,0.0122
3962.00,0.0123
3961.00,0.0123
3960.00,0.0123
3959.00,0.0123
3958.00,0.0123
3957.00,0.0123
3956.00,0.0123
3955.00,0.0122
3954.00,0.0122
3953.00,0.0121
3952.00,0.0120
3951.00,0.0120
3950.00,0.0120
3949.00,0.0120
3948.00,0.0120
3947.00,0.0119
3946.00,0.0119
3945.00,0.0119
3944.00,0.0120
3943.00,0.0120
3942.00,0.0120
3941.00,0.0120
3940.00,0.0120
3939.00,0.0121
3938.00,0.0121
3937.00,0.0121
3936.00,0.0120
3935.00,0.0120
3934.00,0.0119
3933.00,0.0119
3932.00,0.0119
3931.00,0.0118
3930.00,0.0118
3929.00,0.0118
3928.00,0.0118
3927.00,0.0118
3926.00,0.0118
3925.00,0.0118
3924.00,0.0118
3923.00,0.0117
3922.00,0.0116
3921.00,0.0116
3920.00,0.0116
3919.00,0.0116
3918.00,0.0117
3917.00,0.0118
3916.00,0.0118
3915.00,0.0118
3914.00,0.0118
3913.00,0.0119
3912.00,0.0120
3911.00,0.0120
3910.00,0.0119
3909.00,0.0117
3908.00,0.0116
3907.00,0.0114
3906.00,0.0112
3905.00,0.0110
3904.00,0.0109
3903.00,0.0108
3902.00,0.0108
3901.00,0.0109
3900.00,0.0111
3899.00,0.0112
3898.00,0.0112
3897.00,0.0113
3896.00,0.0114
3895.00,0.0115
3894.00,0.0115
3893.00,0.0115
3892.00,0.0115
3891.00,0.0114
3890.00,0.0112
3889.00,0.0111
3888.00,0.0112
3887.00,0.0114
3886.00,0.0115
3885.00,0.0113
3884.00,0.0111
3883.00,0.0110
3882.00,0.0112
3881.00,0.0113
3880.00,0.0112
3879.00,0.0110
3878.00,0.0109
3877.00,0.0111
3876.00,0.0112
3875.00,0.0112
3874.00,0.0109
3873.00,0.0106
3872.00,0.0106
3871.00,0.0108
3870.00,0.0109
3869.00,0.0108
3868.00,0.0106
3867.00,0.0107
3866.00,0.0110
3865.00,0.0111
3864.00,0.0110
3863.00,0.0110
3862.00,0.0111
3861.00,0.0112
3860.00,0.0112
3859.00,0.0111
3858.00,0.0108
3857.00,0.0105
3856.00,0.0102
3855.00,0.0102
3854.00,0.0106
3853.00,0.0108
3852.00,0.0104
3851.00,0.0103
3850.00,0.0107
3849.00,0.0111
3848.00,0.0113
3847.00,0.0113
3846.00,0.0112
3845.00,0.0110
3844.00,0.0108
3843.00,0.0106
3842.00,0.0104
3841.00,0.0103
3840.00,0.0104
3839.00,0.0105
3838.00,0.0106
3837.00,0.0105
3836.00,0.0104
3835.00,0.0105
3834.00,0.0106
3833.00,0.0108
3832.00,0.0110
3831.00,0.0110
3830.00,0.0110
3829.00,0.0111
3828.00,0.0112
3827.00,0.0112
3826.00,0.0110
3825.00,0.0106
3824.00,0.0104
3823.00,0.0104
3822.00,0.0105
3821.00,0.0105
3820.00,0.0102
3819.00,0.0100
3818.00,0.0104
3817.00,0.0109
3816.00,0.0111
3815.00,0.0110
3814.00,0.0109
3813.00,0.0111
3812.00,0.0113
3811.00,0.0112
3810.00,0.0110
3809.00,0.0109
3808.00,0.0110
3807.00,0.0109
3806.00,0.0106
3805.00,0.0103
3804.00,0.0103
3803.00,0.0106
3802.00,0.0108
3801.00,0.0107
3800.00,0.0104
3799.00,0.0103
3798.00,0.0106
3797.00,0.0109
3796.00,0.0109
3795.00,0.0109
3794.00,0.0110
3793.00,0.0112
3792.00,0.0113
3791.00,0.0114
3790.00,0.0113
3789.00,0.0113
3788.00,0.0112
3787.00,0.0111
3786.00,0.0110
3785.00,0.0110
3784.00,0.0109
3783.00,0.0108
3782.00,0.0108
3781.00,0.0108
3780.00,0.0109
3779.00,0.0109
3778.00,0.0109
3777.00,0.0109
3776.00,0.0111
3775.00,0.0111
3774.00,0.0110
3773.00,0.0108
3772.00,0.0107
3771.00,0.0107
3770.00,0.0107
3769.00,0.0106
3768.00,0.0105
3767.00,0.0106
3766.00,0.0108
3765.00,0.0108
3764.00,0.0106
3763.00,0.0106
3762.00,0.0106
3761.00,0.0107
3760.00,0.0106
3759.00,0.0105
3758.00,0.0104
3757.00,0.0103
3756.00,0.0102
3755.00,0.0100
3754.00,0.0099
3753.00,0.0097
3752.00,0.0098
3751.00,0.0100
3750.00,0.0101
3749.00,0.0099
3748.00,0.0097
3747.00,0.0098
3746.00,0.0100
3745.00,0.0102
3744.00,0.0101
3743.00,0.0097
3742.00,0.0096
3741.00,0.0100
3740.00,0.0101
3739.00,0.0099
3738.00,0.0097
3737.00,0.0095
3736.00,0.0095
3735.00,0.0095
3734.00,0.0094
3733.00,0.0096
3732.00,0.0098
3731.00,0.0099
3730.00,0.0100
3729.00,0.0102
3728.00,0.0104
3727.00,0.0104
3726.00,0.0103
3725.00,0.0101
3724.00,0.0101
3723.00,0.0102
3722.00,0.0103
3721.00,0.0104
3720.00,0.0105
3719.00,0.0106
3718.00,0.0107
3717.00,0.0107
3716.00,0.0106
3715.00,0.0105
3714.00,0.0104
3713.00,0.0105
3712.00,0.0106
3711.00,0.0107
3710.00,0.0107
3709.00,0.0108
3708.00,0.0111
3707.00,0.0113
3706.00,0.0115
3705.00,0.0116
3704.00,0.0118
3703.00,0.0119
3702.00,0.0121
3701.00,0.0122
3700.00,0.0122
3699.00,0.0123
3698.00,0.0125
3697.00,0.0127
3696.00,0.0126
3695.00,0.0125
3694.00,0.0123
3693.00,0.0121
3692.00,0.0119
3691.00,0.0118
3690.00,0.0120
3689.00,0.0122
3688.00,0.0122
3687.00,0.0122
3686.00,0.0123
3685.00,0.0125
3684.00,0.0126
3683.00,0.0125
3682.00,0.0123
3681.00,0.0121
3680.00,0.0117
3679.00,0.0113
3678.00,0.0110
3677.00,0.0112
3676.00,0.0116
3675.00,0.0116
3674.00,0.0113
3673.00,0.0112
3672.00,0.0116
3671.00,0.0120
3670.00,0.0122
3669.00,0.0123
3668.00,0.0123
3667.00,0.0126
3666.00,0.0130
3665.00,0.0132
3664.00,0.0134
3663.00,0.0134
3662.00,0.0134
3661.00,0.0134
3660.00,0.0134
3659.00,0.0134
3658.00,0.0135
3657.00,0.0138
3656.00,0.0139
3655.00,0.0138
3654.00,0.0136
3653.00,0.0134
3652.00,0.0131
3651.00,0.0129
3650.00,0.0131
3649.00,0.0135
3648.00,0.0137
3647.00,0.0139
3646.00,0.0141
3645.00,0.0144
3644.00,0.0148
3643.00,0.0151
3642.00,0.0152
3641.00,0.0152
3640.00,0.0153
3639.00,0.0153
3638.00,0.0154
3637.00,0.0154
3636.00,0.0154
3635.00,0.0153
3634.00,0.0152
3633.00,0.0149
3632.00,0.0147
3631.00,0.0147
3630.00,0.0151
3629.00,0.0156
3628.00,0.0157
3627.00,0.0157
3626.00,0.0160
3625.00,0.0164
3624.00,0.0166
3623.00,0.0166
3622.00,0.0166
3621.00,0.0167
3620.00,0.0169
3619.00,0.0169
3618.00,0.0168
3617.00,0.0166
3616.00,0.0165
3615.00,0.0165
3614.00,0.0165
3613.00,0.0165
3612.00,0.0166
3611.00,0.0167
3610.00,0.0168
3609.00,0.0170
3608.00,0.0171
3607.00,0.0172
3606.00,0.0172
3605.00,0.0173
3604.00,0.0174
3603.00,0.0175
3602.00,0.0175
3601.00,0.0176
3600.00,0.0175
3599.00,0.0175
3598.00,0.0174
3597.00,0.0174
3596.00,0.0175
3595.00,0.0177
3594.00,0.0178
3593.00,0.0177
3592.00,0.0176
3591.00,0.0175
3590.00,0.0174
3589.00,0.0175
3588.00,0.0178
3587.00,0.0180
3586.00,0.0181
3585.00,0.0183
3584.00,0.0185
3583.00,0.0187
3582.00,0.0188
3581.00,0.0189
3580.00,0.0190
3579.00,0.0190
3578.00,0.0191
3577.00,0.0191
3576.00,0.0192
3575.00,0.0192
3574.00,0.0192
3573.00,0.0192
3572.00,0.0190
3571.00,0.0188
3570.00,0.0186
3569.00,0.0185
3568.00,0.0186
3567.00,0.0189
3566.00,0.0191
3565.00,0.0193
3564.00,0.0195
3563.00,0.0197
3562.00,0.0199
3561.00,0.0200
3560.00,0.0201
3559.00,0.0201
3558.00,0.0201
3557.00,0.0201
3556.00,0.0201
3555.00,0.0200
3554.00,0.0201
3553.00,0.0202
3552.00,0.0203
3551.00,0.0204
3550.00,0.0204
3549.00,0.0204
3548.00,0.0204
3547.00,0.0205
3546.00,0.0206
3545.00,0.0208
3544.00,0.0209
3543.00,0.0209
3542.00,0.0210
3541.00,0.0210
3540.00,0.0211
3539.00,0.0212
3538.00,0.0213
3537.00,0.0214
3536.00,0.0215
3535.00,0.0215
3534.00,0.0215
3533.00,0.0214
3532.00,0.0214
3531.00,0.0214
3530.00,0.0214
3529.00,0.0215
3528.00,0.0215
3527.00,0.0216
3526.00,0.0217
3525.00,0.0218
3524.00,0.0219
3523.00,0.0220
3522.00,0.0221
3521.00,0.0222
3520.00,0.0222
3519.00,0.0223
3518.00,0.0224
3517.00,0.0224
3516.00,0.0225
3515.00,0.0226
3514.00,0.0226
3513.00,0.0226
3512.00,0.0226
3511.00,0.0226
3510.00,0.0227
3509.00,0.0228
3508.00,0.0228
3507.00,0.0228
3506.00,0.0228
3505.00,0.0229
3504.00,0.0229
3503.00,0.0230
3502.00,0.0231
3501.00,0.0232
3500.00,0.0233
3499.00,0.0234
3498.00,0.0235
3497.00,0.0235
3496.00,0.0236
3495.00,0.0236
3494.00,0.0236
3493.00,0.0236
3492.00,0.0237
3491.00,0.0236
3490.00,0.0236
3489.00,0.0236
3488.00,0.0237
3487.00,0.0238
3486.00,0.0239
3485.00,0.0240
3484.00,0.0241
3483.00,0.0242
3482.00,0.0242
3481.00,0.0242
3480.00,0.0243
3479.00,0.0243
3478.00,0.0243
3477.00,0.0244
3476.00,0.0245
3475.00,0.0245
3474.00,0.0246
3473.00,0.0247
3472.00,0.0247
3471.00,0.0248
3470.00,0.0248
3469.00,0.0249
3468.00,0.0249
3467.00,0.0249
3466.00,0.0249
3465.00,0.0249
3464.00,0.0249
3463.00,0.0250
3462.00,0.0251
3461.00,0.0251
3460.00,0.0251
3459.00,0.0251
3458.00,0.0252
3457.00,0.0252
3456.00,0.0253
3455.00,0.0254
3454.00,0.0255
3453.00,0.0255
3452.00,0.0255
3451.00,0.0255
3450.00,0.0255
3449.00,0.0255
3448.00,0.0255
3447.00,0.0256
3446.00,0.0256
3445.00,0.0257
3444.00,0.0257
3443.00,0.0257
3442.00,0.0258
3441.00,0.0258
3440.00,0.0259
3439.00,0.0259
3438.00,0.0259
3437.00,0.0260
3436.00,0.0261
3435.00,0.0261
3434.00,0.0262
3433.00,0.0262
3432.00,0.0262
3431.00,0.0262
3430.00,0.0262
3429.00,0.0262
3428.00,0.0262
3427.00,0.0262
3426.00,0.0263
3425.00,0.0263
3424.00,0.0264
3423.00,0.0264
3422.00,0.0264
3421.00,0.0265
3420.00,0.0265
3419.00,0.0266
3418.00,0.0267
3417.00,0.0267
3416.00,0.0267
3415.00,0.0268
3414.00,0.0268
3413.00,0.0269
3412.00,0.0269
3411.00,0.0270
3410.00,0.0270
3409.00,0.0270
3408.00,0.0270
3407.00,0.0271
3406.00,0.0271
3405.00,0.0272
3404.00,0.0272
3403.00,0.0272
3402.00,0.0272
3401.00,0.0272
3400.00,0.0272
3399.00,0.0271
3398.00,0.0271
3397.00,0.0271
3396.00,0.0271
3395.00,0.0272
3394.00,0.0272
3393.00,0.0273
3392.00,0.0274
3391.00,0.0274
3390.00,0.0274
3389.00,0.0273
3388.00,0.0273
3387.00,0.0274
3386.00,0.0275
3385.00,0.0276
3384.00,0.0276
3383.00,0.0276
3382.00,0.0275
3381.00,0.0275
3380.00,0.0275
3379.00,0.0275
3378.00,0.0275
3377.00,0.0276
3376.00,0.0276
3375.00,0.0277
3374.00,0.0277
3373.00,0.0278
3372.00,0.0278
3371.00,0.0278
3370.00,0.0277
3369.00,0.0277
3368.00,0.0277
3367.00,0.0277
3366.00,0.0278
3365.00,0.0279
3364.00,0.0279
3363.00,0.0279
3362.00,0.0279
3361.00,0.0279
3360.00,0.0278
3359.00,0.0278
3358.00,0.0278
3357.00,0.0279
3356.00,0.0279
3355.00,0.0279
3354.00,0.0279
3353.00,0.0279
3352.00,0.0279
3351.00,0.0279
3350.00,0.0279
3349.00,0.0279
3348.00,0.0279
3347.00,0.0279
3346.00,0.0279
3345.00,0.0279
3344.00,0.0280
3343.00,0.0280
3342.00,0.0280
3341.00,0.0280
3340.00,0.0280
3339.00,0.0280
3338.00,0.0280
3337.00,0.0280
3336.00,0.0280
3335.00,0.0280
3334.00,0.0281
3333.00,0.0281
3332.00,0.0281
3331.00,0.0281
3330.00,0.0281
3329.00,0.0281
3328.00,0.0281
3327.00,0.0282
3326.00,0.0282
3325.00,0.0282
3324.00,0.0282
3323.00,0.0281
3322.00,0.0281
3321.00,0.0280
3320.00,0.0280
3319.00,0.0280
3318.00,0.0280
3317.00,0.0281
3316.00,0.0281
3315.00,0.0280
3314.00,0.0280
3313.00,0.0280
3312.00,0.0280
3311.00,0.0280
3310.00,0.0280
3309.00,0.0281
3308.00,0.0281
3307.00,0.0282
3306.00,0.0282
3305.00,0.0282
3304.00,0.0282
3303.00,0.0282
3302.00,0.0282
3301.00,0.0282
3300.00,0.0281
3299.00,0.0280
3298.00,0.0280
3297.00,0.0280
3296.00,0.0280
3295.00,0.0280
3294.00,0.0280
3293.00,0.0280
3292.00,0.0280
3291.00,0.0280
3290.00,0.0280
3289.00,0.0281
3288.00,0.0281
3287.00,0.0281
3286.00,0.0281
3285.00,0.0281
3284.00,0.0281
3283.00,0.0281
3282.00,0.0280
3281.00,0.0280
3280.00,0.0280
3279.00,0.0280
3278.00,0.0280
3277.00,0.0280
3276.00,0.0280
3275.00,0.0280
3274.00,0.0281
3273.00,0.0281
3272.00,0.0281
3271.00,0.0281
3270.00,0.0281
3269.00,0.0281
3268.00,0.0281
3267.00,0.0281
3266.00,0.0281
3265.00,0.0281
3264.00,0.0281
3263.00,0.0281
3262.00,0.0280
3261.00,0.0280
3260.00,0.0280
3259.00,0.0279
3258.00,0.0279
3257.00,0.0279
3256.00,0.0280
3255.00,0.0280
3254.00,0.0280
3253.00,0.0280
3252.00,0.0279
3251.00,0.0279
3250.00,0.0279
3249.00,0.0279
3248.00,0.0279
3247.00,0.0280
3246.00,0.0280
3245.00,0.0280
3244.00,0.0280
3243.00,0.0280
3242.00,0.0279
3241.00,0.0279
3240.00,0.0279
3239.00,0.0279
3238.00,0.0279
3237.00,0.0279
3236.00,0.0279
3235.00,0.0279
3234.00,0.0279
3233.00,0.0279
3232.00,0.0280
3231.00,0.0281
3230.00,0.0281
3229.00,0.0281
3228.00,0.0280
3227.00,0.0280
3226.00,0.0280
3225.00,0.0279
3224.00,0.0279
3223.00,0.0279
3222.00,0.0279
3221.00,0.0279
3220.00,0.0278
3219.00,0.0278
3218.00,0.0277
3217.00,0.0277
3216.00,0.0277
3215.00,0.0277
3214.00,0.0277
3213.00,0.0277
3212.00,0.0278
3211.00,0.0278
3210.00,0.0278
3209.00,0.0278
3208.00,0.0277
3207.00,0.0277
3206.00,0.0277
3205.00,0.0277
3204.00,0.0277
3203.00,0.0277
3202.00,0.0277
3201.00,0.0277
3200.00,0.0277
3199.00,0.0277
3198.00,0.0277
3197.00,0.0277
3196.00,0.0276
3195.00,0.0276
3194.00,0.0275
3193.00,0.0275
3192.00,0.0275
3191.00,0.0275
3190.00,0.0275
3189.00,0.0275
3188.00,0.0275
3187.00,0.0275
3186.00,0.0274
3185.00,0.0274
3184.00,0.0274
3183.00,0.0274
3182.00,0.0274
3181.00,0.0274
3180.00,0.0274
3179.00,0.0274
3178.00,0.0274
3177.00,0.0273
3176.00,0.0273
3175.00,0.0273
3174.00,0.0273
3173.00,0.0273
3172.00,0.0273
3171.00,0.0273
3170.00,0.0273
3169.00,0.0272
3168.00,0.0272
3167.00,0.0271
3166.00,0.0271
3165.00,0.0271
3164.00,0.0271
3163.00,0.0271
3162.00,0.0270
3161.00,0.0270
3160.00,0.0270
3159.00,0.0270
3158.00,0.0270
3157.00,0.0270
3156.00,0.0269
3155.00,0.0269
3154.00,0.0269
3153.00,0.0269
3152.00,0.0269
3151.00,0.0269
3150.00,0.0269
3149.00,0.0268
3148.00,0.0268
3147.00,0.0268
3146.00,0.0267
3145.00,0.0267
3144.00,0.0268
3143.00,0.0268
3142.00,0.0268
3141.00,0.0267
3140.00,0.0267
3139.00,0.0266
3138.00,0.0266
3137.00,0.0266
3136.00,0.0266
3135.00,0.0266
3134.00,0.0265
3133.00,0.0265
3132.00,0.0265
3131.00,0.0265
3130.00,0.0265
3129.00,0.0265
3128.00,0.0265
3127.00,0.0265
3126.00,0.0265
3125.00,0.0265
3124.00,0.0264
3123.00,0.0264
3122.00,0.0264
3121.00,0.0264
3120.00,0.0264
3119.00,0.0264
3118.00,0.0263
3117.00,0.0264
3116.00,0.0264
3115.00,0.0264
3114.00,0.0264
3113.00,0.0264
3112.00,0.0263
3111.00,0.0263
3110.00,0.0262
3109.00,0.0262
3108.00,0.0262
3107.00,0.0262
3106.00,0.0262
3105.00,0.0262
3104.00,0.0262
3103.00,0.0262
3102.00,0.0262
3101.00,0.0262
3100.00,0.0261
3099.00,0.0261
3098.00,0.0261
3097.00,0.0261
3096.00,0.0262
3095.00,0.0262
3094.00,0.0261
3093.00,0.0261
3092.00,0.0261
3091.00,0.0261
3090.00,0.0261
3089.00,0.0261
3088.00,0.0261
3087.00,0.0261
3086.00,0.0261
3085.00,0.0260
3084.00,0.0260
3083.00,0.0260
3082.00,0.0260
3081.00,0.0260
3080.00,0.0259
3079.00,0.0259
3078.00,0.0259
3077.00,0.0258
3076.00,0.0258
3075.00,0.0258
3074.00,0.0258
3073.00,0.0258
3072.00,0.0258
3071.00,0.0258
3070.00,0.0258
3069.00,0.0258
3068.00,0.0258
3067.00,0.0258
3066.00,0.0258
3065.00,0.0258
3064.00,0.0258
3063.00,0.0258
3062.00,0.0257
3061.00,0.0257
3060.00,0.0256
3059.00,0.0256
3058.00,0.0256
3057.00,0.0256
3056.00,0.0256
3055.00,0.0256
3054.00,0.0256
3053.00,0.0256
3052.00,0.0256
3051.00,0.0256
3050.00,0.0255
3049.00,0.0254
3048.00,0.0253
3047.00,0.0253
3046.00,0.0253
3045.00,0.0253
3044.00,0.0253
3043.00,0.0253
3042.00,0.0253
3041.00,0.0253
3040.00,0.0252
3039.00,0.0252
3038.00,0.0252
3037.00,0.0252
3036.00,0.0252
3035.00,0.0251
3034.00,0.0251
3033.00,0.0251
3032.00,0.0251
3031.00,0.0251
3030.00,0.0251
3029.00,0.0250
3028.00,0.0250
3027.00,0.0250
3026.00,0.0249
3025.00,0.0249
3024.00,0.0249
3023.00,0.0249
3022.00,0.0249
3021.00,0.0248
3020.00,0.0248
3019.00,0.0248
3018.00,0.0248
3017.00,0.0248
3016.00,0.0247
3015.00,0.0247
3014.00,0.0247
3013.00,0.0247
3012.00,0.0247
3011.00,0.0247
3010.00,0.0247
3009.00,0.0247
3008.00,0.0246
3007.00,0.0246
3006.00,0.0246
3005.00,0.0246
3004.00,0.0246
3003.00,0.0246
3002.00,0.0245
3001.00,0.0245
3000.00,0.0245
2999.00,0.0245
2998.00,0.0244
2997.00,0.0244
2996.00,0.0244
2995.00,0.0245
2994.00,0.0245
2993.00,0.0245
2992.00,0.0244
2991.00,0.0243
2990.00,0.0243
2989.00,0.0243
2988.00,0.0243
2987.00,0.0243
2986.00,0.0243
2985.00,0.0243
2984.00,0.0243
2983.00,0.0243
2982.00,0.0243
2981.00,0.0243
2980.00,0.0242
2979.00,0.0242
2978.00,0.0243
2977.00,0.0243
2976.00,0.0243
2975.00,0.0242
2974.00,0.0242
2973.00,0.0241
2972.00,0.0240
2971.00,0.0239
2970.00,0.0239
2969.00,0.0238
2968.00,0.0238
2967.00,0.0238
2966.00,0.0237
2965.00,0.0237
2964.00,0.0237
2963.00,0.0236
2962.00,0.0236
2961.00,0.0235
2960.00,0.0235
2959.00,0.0235
2958.00,0.0235
2957.00,0.0235
2956.00,0.0235
2955.00,0.0235
2954.00,0.0235
2953.00,0.0235
2952.00,0.0236
2951.00,0.0236
2950.00,0.0236
2949.00,0.0236
2948.00,0.0236
2947.00,0.0236
2946.00,0.0236
2945.00,0.0236
2944.00,0.0236
2943.00,0.0236
2942.00,0.0235
2941.00,0.0235
2940.00,0.0234
2939.00,0.0234
2938.00,0.0233
2937.00,0.0233
2936.00,0.0232
2935.00,0.0232
2934.00,0.0231
2933.00,0.0230
2932.00,0.0229
2931.00,0.0228
2930.00,0.0227
2929.00,0.0226
2928.00,0.0225
2927.00,0.0224
2926.00,0.0223
2925.00,0.0222
2924.00,0.0222
2923.00,0.0222
2922.00,0.0223
2921.00,0.0223
2920.00,0.0223
2919.00,0.0222
2918.00,0.0221
2917.00,0.0221
2916.00,0.0221
2915.00,0.0223
2914.00,0.0224
2913.00,0.0226
2912.00,0.0227
2911.00,0.0228
2910.00,0.0229
2909.00,0.0229
2908.00,0.0229
2907.00,0.0230
2906.00,0.0230
2905.00,0.0230
2904.00,0.0230
2903.00,0.0231
2902.00,0.0231
2901.00,0.0231
2900.00,0.0231
2899.00,0.0231
2898.00,0.0230
2897.00,0.0230
2896.00,0.0230
2895.00,0.0230
2894.00,0.0230
2893.00,0.0230
2892.00,0.0231
2891.00,0.0231
2890.00,0.0231
2889.00,0.0231
2888.00,0.0231
2887.00,0.0231
2886.00,0.0231
2885.00,0.0231
2884.00,0.0231
2883.00,0.0231
2882.00,0.0231
2881.00,0.0231
2880.00,0.0230
2879.00,0.0229
2878.00,0.0229
2877.00,0.0229
2876.00,0.0228
2875.00,0.0227
2874.00,0.0226
2873.00,0.0225
2872.00,0.0225
2871.00,0.0225
2870.00,0.0225
2869.00,0.0225
2868.00,0.0224
2867.00,0.0224
2866.00,0.0223
2865.00,0.0222
2864.00,0.0222
2863.00,0.0222
2862.00,0.0221
2861.00,0.0221
2860.00,0.0220
2859.00,0.0219
2858.00,0.0219
2857.00,0.0218
2856.00,0.0217
2855.00,0.0217
2854.00,0.0216
2853.00,0.0216
2852.00,0.0216
2851.00,0.0215
2850.00,0.0215
2849.00,0.0215
2848.00,0.0215
2847.00,0.0216
2846.00,0.0216
2845.00,0.0216
2844.00,0.0217
2843.00,0.0217
2842.00,0.0218
2841.00,0.0218
2840.00,0.0219
2839.00,0.0219
2838.00,0.0220
2837.00,0.0220
2836.00,0.0220
2835.00,0.0219
2834.00,0.0218
2833.00,0.0218
2832.00,0.0218
2831.00,0.0217
2830.00,0.0217
2829.00,0.0217
2828.00,0.0217
2827.00,0.0217
2826.00,0.0217
2825.00,0.0217
2824.00,0.0216
2823.00,0.0216
2822.00,0.0215
2821.00,0.0215
2820.00,0.0215
2819.00,0.0215
2818.00,0.0215
2817.00,0.0215
2816.00,0.0215
2815.00,0.0214
2814.00,0.0214
2813.00,0.0214
2812.00,0.0214
2811.00,0.0213
2810.00,0.0213
2809.00,0.0213
2808.00,0.0212
2807.00,0.0212
2806.00,0.0212
2805.00,0.0211
2804.00,0.0211
2803.00,0.0211
2802.00,0.0211
2801.00,0.0211
2800.00,0.0211
2799.00,0.0211
2798.00,0.0210
2797.00,0.0210
2796.00,0.0210
2795.00,0.0210
2794.00,0.0209
2793.00,0.0209
2792.00,0.0209
2791.00,0.0209
2790.00,0.0209
2789.00,0.0209
2788.00,0.0209
2787.00,0.0209
2786.00,0.0209
2785.00,0.0208
2784.00,0.0208
2783.00,0.0208
2782.00,0.0207
2781.00,0.0207
2780.00,0.0206
2779.00,0.0206
2778.00,0.0206
2777.00,0.0206
2776.00,0.0206
2775.00,0.0206
2774.00,0.0206
2773.00,0.0206
2772.00,0.0205
2771.00,0.0205
2770.00,0.0204
2769.00,0.0204
2768.00,0.0204
2767.00,0.0204
2766.00,0.0204
2765.00,0.0204
2764.00,0.0204
2763.00,0.0204
2762.00,0.0203
2761.00,0.0203
2760.00,0.0203
2759.00,0.0202
2758.00,0.0202
2757.00,0.0202
2756.00,0.0202
2755.00,0.0201
2754.00,0.0201
2753.00,0.0201
2752.00,0.0201
2751.00,0.0201
2750.00,0.0201
2749.00,0.0201
2748.00,0.0201
2747.00,0.0201
2746.00,0.0200
2745.00,0.0200
2744.00,0.0199
2743.00,0.0199
2742.00,0.0199
2741.00,0.0199
2740.00,0.0200
2739.00,0.0199
2738.00,0.0199
2737.00,0.0199
2736.00,0.0198
2735.00,0.0198
2734.00,0.0198
2733.00,0.0197
2732.00,0.0197
2731.00,0.0197
2730.00,0.0197
2729.00,0.0197
2728.00,0.0197
2727.00,0.0197
2726.00,0.0197
2725.00,0.0196
2724.00,0.0196
2723.00,0.0196
2722.00,0.0195
2721.00,0.0195
2720.00,0.0195
2719.00,0.0195
2718.00,0.0195
2717.00,0.0195
2716.00,0.0195
2715.00,0.0194
2714.00,0.0194
2713.00,0.0194
2712.00,0.0194
2711.00,0.0194
2710.00,0.0194
2709.00,0.0194
2708.00,0.0194
2707.00,0.0193
2706.00,0.0193
2705.00,0.0193
2704.00,0.0193
2703.00,0.0193
2702.00,0.0193
2701.00,0.0193
2700.00,0.0192
2699.00,0.0192
2698.00,0.0191
2697.00,0.0191
2696.00,0.0191
2695.00,0.0191
2694.00,0.0191
2693.00,0.0191
2692.00,0.0191
2691.00,0.0191
2690.00,0.0191
2689.00,0.0191
2688.00,0.0190
2687.00,0.0190
2686.00,0.0190
2685.00,0.0189
2684.00,0.0189
2683.00,0.0189
2682.00,0.0189
2681.00,0.0189
2680.00,0.0189
2679.00,0.0189
2678.00,0.0189
2677.00,0.0189
2676.00,0.0189
2675.00,0.0189
2674.00,0.0188
2673.00,0.0188
2672.00,0.0188
2671.00,0.0187
2670.00,0.0187
2669.00,0.0187
2668.00,0.0187
2667.00,0.0187
2666.00,0.0187
2665.00,0.0187
2664.00,0.0187
2663.00,0.0187
2662.00,0.0187
2661.00,0.0187
2660.00,0.0187
2659.00,0.0187
2658.00,0.0187
2657.00,0.0188
2656.00,0.0188
2655.00,0.0188
2654.00,0.0188
2653.00,0.0188
2652.00,0.0188
2651.00,0.0188
2650.00,0.0188
2649.00,0.0188
2648.00,0.0188
2647.00,0.0188
2646.00,0.0188
2645.00,0.0189
2644.00,0.0189
2643.00,0.0189
2642.00,0.0189
2641.00,0.0189
2640.00,0.0189
2639.00,0.0188
2638.00,0.0188
2637.00,0.0188
2636.00,0.0187
2635.00,0.0187
2634.00,0.0187
2633.00,0.0187
2632.00,0.0187
2631.00,0.0187
2630.00,0.0186
2629.00,0.0187
2628.00,0.0187
2627.00,0.0187
2626.00,0.0187
2625.00,0.0187
2624.00,0.0187
2623.00,0.0187
2622.00,0.0186
2621.00,0.0186
2620.00,0.0185
2619.00,0.0185
2618.00,0.0186
2617.00,0.0187
2616.00,0.0187
2615.00,0.0187
2614.00,0.0186
2613.00,0.0186
2612.00,0.0186
2611.00,0.0186
2610.00,0.0185
2609.00,0.0185
2608.00,0.0185
2607.00,0.0185
2606.00,0.0185
2605.00,0.0186
2604.00,0.0186
2603.00,0.0186
2602.00,0.0186
2601.00,0.0186
2600.00,0.0186
2599.00,0.0186
2598.00,0.0185
2597.00,0.0185
2596.00,0.0185
2595.00,0.0184
2594.00,0.0184
2593.00,0.0185
2592.00,0.0185
2591.00,0.0185
2590.00,0.0185
2589.00,0.0185
2588.00,0.0185
2587.00,0.0184
2586.00,0.0184
2585.00,0.0183
2584.00,0.0184
2583.00,0.0184
2582.00,0.0184
2581.00,0.0184
2580.00,0.0183
2579.00,0.0183
2578.00,0.0183
2577.00,0.0184
2576.00,0.0184
2575.00,0.0184
2574.00,0.0183
2573.00,0.0183
2572.00,0.0182
2571.00,0.0182
2570.00,0.0182
2569.00,0.0182
2568.00,0.0182
2567.00,0.0183
2566.00,0.0183
2565.00,0.0183
2564.00,0.0183
2563.00,0.0183
2562.00,0.0182
2561.00,0.0182
2560.00,0.0182
2559.00,0.0182
2558.00,0.0183
2557.00,0.0183
2556.00,0.0183
2555.00,0.0183
2554.00,0.0183
2553.00,0.0183
2552.00,0.0183
2551.00,0.0183
2550.00,0.0183
2549.00,0.0182
2548.00,0.0182
2547.00,0.0181
2546.00,0.0181
2545.00,0.0181
2544.00,0.0181
2543.00,0.0181
2542.00,0.0182
2541.00,0.0183
2540.00,0.0183
2539.00,0.0183
2538.00,0.0183
2537.00,0.0183
2536.00,0.0183
2535.00,0.0182
2534.00,0.0182
2533.00,0.0182
2532.00,0.0182
2531.00,0.0182
2530.00,0.0182
2529.00,0.0182
2528.00,0.0182
2527.00,0.0182
2526.00,0.0181
2525.00,0.0181
2524.00,0.0181
2523.00,0.0181
2522.00,0.0182
2521.00,0.0182
2520.00,0.0182
2519.00,0.0181
2518.00,0.0181
2517.00,0.0180
2516.00,0.0179
2515.00,0.0179
2514.00,0.0180
2513.00,0.0180
2512.00,0.0181
2511.00,0.0181
2510.00,0.0181
2509.00,0.0180
2508.00,0.0179
2507.00,0.0179
2506.00,0.0179
2505.00,0.0179
2504.00,0.0179
2503.00,0.0180
2502.00,0.0180
2501.00,0.0180
2500.00,0.0179
2499.00,0.0179
2498.00,0.0178
2497.00,0.0178
2496.00,0.0178
2495.00,0.0178
2494.00,0.0178
2493.00,0.0178
2492.00,0.0179
2491.00,0.0179
2490.00,0.0178
2489.00,0.0178
2488.00,0.0178
2487.00,0.0178
2486.00,0.0177
2485.00,0.0177
2484.00,0.0177
2483.00,0.0177
2482.00,0.0177
2481.00,0.0178
2480.00,0.0178
2479.00,0.0178
2478.00,0.0178
2477.00,0.0177
2476.00,0.0177
2475.00,0.0177
2474.00,0.0177
2473.00,0.0177
2472.00,0.0177
2471.00,0.0176
2470.00,0.0176
2469.00,0.0176
2468.00,0.0177
2467.00,0.0177
2466.00,0.0176
2465.00,0.0176
2464.00,0.0176
2463.00,0.0176
2462.00,0.0176
2461.00,0.0176
2460.00,0.0177
2459.00,0.0177
2458.00,0.0178
2457.00,0.0178
2456.00,0.0177
2455.00,0.0177
2454.00,0.0176
2453.00,0.0176
2452.00,0.0176
2451.00,0.0176
2450.00,0.0175
2449.00,0.0175
2448.00,0.0175
2447.00,0.0175
2446.00,0.0175
2445.00,0.0175
2444.00,0.0175
2443.00,0.0175
2442.00,0.0175
2441.00,0.0174
2440.00,0.0174
2439.00,0.0173
2438.00,0.0173
2437.00,0.0173
2436.00,0.0173
2435.00,0.0173
2434.00,0.0173
2433.00,0.0173
2432.00,0.0173
2431.00,0.0173
2430.00,0.0173
2429.00,0.0173
2428.00,0.0173
2427.00,0.0173
2426.00,0.0173
2425.00,0.0173
2424.00,0.0173
2423.00,0.0172
2422.00,0.0172
2421.00,0.0171
2420.00,0.0171
2419.00,0.0171
2418.00,0.0170
2417.00,0.0170
2416.00,0.0171
2415.00,0.0171
2414.00,0.0171
2413.00,0.0171
2412.00,0.0170
2411.00,0.0170
2410.00,0.0170
2409.00,0.0169
2408.00,0.0169
2407.00,0.0169
2406.00,0.0169
2405.00,0.0169
2404.00,0.0169
2403.00,0.0169
2402.00,0.0168
2401.00,0.0168
2400.00,0.0168
2399.00,0.0167
2398.00,0.0167
2397.00,0.0167
2396.00,0.0167
2395.00,0.0167
2394.00,0.0167
2393.00,0.0167
2392.00,0.0167
2391.00,0.0167
2390.00,0.0166
2389.00,0.0166
2388.00,0.0165
2387.00,0.0165
2386.00,0.0164
2385.00,0.0164
2384.00,0.0163
2383.00,0.0163
2382.00,0.0161
2381.00,0.0160
2380.00,0.0159
2379.00,0.0158
2378.00,0.0157
2377.00,0.0156
2376.00,0.0155
2375.00,0.0154
2374.00,0.0153
2373.00,0.0153
2372.00,0.0153
2371.00,0.0153
2370.00,0.0153
2369.00,0.0153
2368.00,0.0154
2367.00,0.0154
2366.00,0.0154
2365.00,0.0154
2364.00,0.0153
2363.00,0.0152
2362.00,0.0153
2361.00,0.0154
2360.00,0.0155
2359.00,0.0155
2358.00,0.0155
2357.00,0.0155
2356.00,0.0156
2355.00,0.0156
2354.00,0.0156
2353.00,0.0155
2352.00,0.0154
2351.00,0.0152
2350.00,0.0151
2349.00,0.0152
2348.00,0.0151
2347.00,0.0148
2346.00,0.0143
2345.00,0.0139
2344.00,0.0138
2343.00,0.0139
2342.00,0.0142
2341.00,0.0144
2340.00,0.0147
2339.00,0.0149
2338.00,0.0150
2337.00,0.0152
2336.00,0.0153
2335.00,0.0154
2334.00,0.0155
2333.00,0.0156
2332.00,0.0156
2331.00,0.0157
2330.00,0.0157
2329.00,0.0159
2328.00,0.0162
2327.00,0.0165
2326.00,0.0167
2325.00,0.0168
2324.00,0.0167
2323.00,0.0166
2322.00,0.0166
2321.00,0.0166
2320.00,0.0165
2319.00,0.0165
2318.00,0.0164
2317.00,0.0164
2316.00,0.0165
2315.00,0.0165
2314.00,0.0164
2313.00,0.0164
2312.00,0.0163
2311.00,0.0162
2310.00,0.0161
2309.00,0.0160
2308.00,0.0160
2307.00,0.0160
2306.00,0.0161
2305.00,0.0161
2304.00,0.0161
2303.00,0.0161
2302.00,0.0160
2301.00,0.0159
2300.00,0.0159
2299.00,0.0158
2298.00,0.0158
2297.00,0.0158
2296.00,0.0158
2295.00,0.0158
2294.00,0.0158
2293.00,0.0159
2292.00,0.0159
2291.00,0.0160
2290.00,0.0160
2289.00,0.0160
2288.00,0.0160
2287.00,0.0160
2286.00,0.0160
2285.00,0.0161
2284.00,0.0161
2283.00,0.0160
2282.00,0.0160
2281.00,0.0159
2280.00,0.0159
2279.00,0.0159
2278.00,0.0160
2277.00,0.0159
2276.00,0.0159
2275.00,0.0158
2274.00,0.0158
2273.00,0.0158
2272.00,0.0159
2271.00,0.0158
2270.00,0.0157
2269.00,0.0156
2268.00,0.0156
2267.00,0.0157
2266.00,0.0157
2265.00,0.0157
2264.00,0.0156
2263.00,0.0156
2262.00,0.0156
2261.00,0.0156
2260.00,0.0155
2259.00,0.0156
2258.00,0.0156
2257.00,0.0156
2256.00,0.0156
2255.00,0.0156
2254.00,0.0155
2253.00,0.0155
2252.00,0.0155
2251.00,0.0155
2250.00,0.0155
2249.00,0.0155
2248.00,0.0155
2247.00,0.0155
2246.00,0.0154
2245.00,0.0154
2244.00,0.0153
2243.00,0.0153
2242.00,0.0154
2241.00,0.0154
2240.00,0.0154
2239.00,0.0153
2238.00,0.0152
2237.00,0.0152
2236.00,0.0152
2235.00,0.0153
2234.00,0.0153
2233.00,0.0154
2232.00,0.0154
2231.00,0.0154
2230.00,0.0154
2229.00,0.0155
2228.00,0.0155
2227.00,0.0156
2226.00,0.0157
2225.00,0.0157
2224.00,0.0157
2223.00,0.0156
2222.00,0.0156
2221.00,0.0156
2220.00,0.0155
2219.00,0.0154
2218.00,0.0153
2217.00,0.0152
2216.00,0.0153
2215.00,0.0154
2214.00,0.0155
2213.00,0.0155
2212.00,0.0154
2211.00,0.0153
2210.00,0.0152
2209.00,0.0151
2208.00,0.0151
2207.00,0.0152
2206.00,0.0152
2205.00,0.0153
2204.00,0.0154
2203.00,0.0153
2202.00,0.0152
2201.00,0.0152
2200.00,0.0152
2199.00,0.0152
2198.00,0.0151
2197.00,0.0151
2196.00,0.0152
2195.00,0.0151
2194.00,0.0150
2193.00,0.0149
2192.00,0.0149
2191.00,0.0150
2190.00,0.0151
2189.00,0.0152
2188.00,0.0152
2187.00,0.0151
2186.00,0.0151
2185.00,0.0151
2184.00,0.0151
2183.00,0.0151
2182.00,0.0151
2181.00,0.0151
2180.00,0.0152
2179.00,0.0152
2178.00,0.0152
2177.00,0.0150
2176.00,0.0148
2175.00,0.0147
2174.00,0.0147
2173.00,0.0149
2172.00,0.0151
2171.00,0.0152
2170.00,0.0152
2169.00,0.0151
2168.00,0.0152
2167.00,0.0153
2166.00,0.0154
2165.00,0.0156
2164.00,0.0157
2163.00,0.0156
2162.00,0.0155
2161.00,0.0152
2160.00,0.0148
2159.00,0.0143
2158.00,0.0141
2157.00,0.0140
2156.00,0.0140
2155.00,0.0140
2154.00,0.0140
2153.00,0.0140
2152.00,0.0139
2151.00,0.0139
2150.00,0.0140
2149.00,0.0141
2148.00,0.0140
2147.00,0.0139
2146.00,0.0138
2145.00,0.0137
2144.00,0.0137
2143.00,0.0138
2142.00,0.0138
2141.00,0.0138
2140.00,0.0138
2139.00,0.0138
2138.00,0.0137
2137.00,0.0135
2136.00,0.0133
2135.00,0.0131
2134.00,0.0130
2133.00,0.0129
2132.00,0.0130
2131.00,0.0131
2130.00,0.0132
2129.00,0.0132
2128.00,0.0132
2127.00,0.0131
2126.00,0.0131
2125.00,0.0131
2124.00,0.0132
2123.00,0.0132
2122.00,0.0133
2121.00,0.0134
2120.00,0.0135
2119.00,0.0136
2118.00,0.0137
2117.00,0.0137
2116.00,0.0138
2115.00,0.0138
2114.00,0.0137
2113.00,0.0136
2112.00,0.0135
2111.00,0.0134
2110.00,0.0134
2109.00,0.0134
2108.00,0.0135
2107.00,0.0135
2106.00,0.0135
2105.00,0.0134
2104.00,0.0133
2103.00,0.0133
2102.00,0.0133
2101.00,0.0133
2100.00,0.0134
2099.00,0.0134
2098.00,0.0134
2097.00,0.0134
2096.00,0.0132
2095.00,0.0131
2094.00,0.0131
2093.00,0.0131
2092.00,0.0132
2091.00,0.0134
2090.00,0.0134
2089.00,0.0134
2088.00,0.0133
2087.00,0.0133
2086.00,0.0133
2085.00,0.0133
2084.00,0.0133
2083.00,0.0133
2082.00,0.0133
2081.00,0.0132
2080.00,0.0131
2079.00,0.0130
2078.00,0.0130
2077.00,0.0131
2076.00,0.0132
2075.00,0.0132
2074.00,0.0131
2073.00,0.0130
2072.00,0.0130
2071.00,0.0130
2070.00,0.0131
2069.00,0.0131
2068.00,0.0131
2067.00,0.0130
2066.00,0.0130
2065.00,0.0131
2064.00,0.0131
2063.00,0.0130
2062.00,0.0130
2061.00,0.0130
2060.00,0.0131
2059.00,0.0131
2058.00,0.0131
2057.00,0.0131
2056.00,0.0130
2055.00,0.0130
2054.00,0.0130
2053.00,0.0130
2052.00,0.0131
2051.00,0.0132
2050.00,0.0133
2049.00,0.0134
2048.00,0.0134
2047.00,0.0135
2046.00,0.0135
2045.00,0.0134
2044.00,0.0134
2043.00,0.0133
2042.00,0.0132
2041.00,0.0133
2040.00,0.0133
2039.00,0.0133
2038.00,0.0133
2037.00,0.0132
2036.00,0.0132
2035.00,0.0130
2034.00,0.0129
2033.00,0.0128
2032.00,0.0127
2031.00,0.0127
2030.00,0.0128
2029.00,0.0128
2028.00,0.0129
2027.00,0.0128
2026.00,0.0126
2025.00,0.0125
2024.00,0.0124
2023.00,0.0124
2022.00,0.0125
2021.00,0.0127
2020.00,0.0128
2019.00,0.0128
2018.00,0.0126
2017.00,0.0124
2016.00,0.0123
2015.00,0.0123
2014.00,0.0123
2013.00,0.0123
2012.00,0.0122
2011.00,0.0120
2010.00,0.0119
2009.00,0.0118
2008.00,0.0117
2007.00,0.0116
2006.00,0.0116
2005.00,0.0118
2004.00,0.0120
2003.00,0.0122
2002.00,0.0124
2001.00,0.0125
2000.00,0.0125
1999.00,0.0125
1998.00,0.0124
1997.00,0.0124
1996.00,0.0124
1995.00,0.0125
1994.00,0.0125
1993.00,0.0126
1992.00,0.0126
1991.00,0.0125
1990.00,0.0125
1989.00,0.0124
1988.00,0.0123
1987.00,0.0121
1986.00,0.0119
1985.00,0.0120
1984.00,0.0122
1983.00,0.0124
1982.00,0.0127
1981.00,0.0128
1980.00,0.0127
1979.00,0.0125
1978.00,0.0123
1977.00,0.0122
1976.00,0.0122
1975.00,0.0122
1974.00,0.0120
1973.00,0.0120
1972.00,0.0120
1971.00,0.0121
1970.00,0.0121
1969.00,0.0121
1968.00,0.0120
1967.00,0.0118
1966.00,0.0116
1965.00,0.0115
1964.00,0.0115
1963.00,0.0116
1962.00,0.0117
1961.00,0.0117
1960.00,0.0116
1959.00,0.0115
1958.00,0.0113
1957.00,0.0111
1956.00,0.0110
1955.00,0.0109
1954.00,0.0109
1953.00,0.0110
1952.00,0.0110
1951.00,0.0109
1950.00,0.0108
1949.00,0.0108
1948.00,0.0108
1947.00,0.0107
1946.00,0.0108
1945.00,0.0108
1944.00,0.0109
1943.00,0.0108
1942.00,0.0108
1941.00,0.0107
1940.00,0.0107
1939.00,0.0107
1938.00,0.0108
1937.00,0.0108
1936.00,0.0108
1935.00,0.0108
1934.00,0.0108
1933.00,0.0107
1932.00,0.0107
1931.00,0.0107
1930.00,0.0107
1929.00,0.0106
1928.00,0.0106
1927.00,0.0106
1926.00,0.0106
1925.00,0.0108
1924.00,0.0109
1923.00,0.0107
1922.00,0.0105
1921.00,0.0105
1920.00,0.0106
1919.00,0.0106
1918.00,0.0105
1917.00,0.0104
1916.00,0.0103
1915.00,0.0102
1914.00,0.0102
1913.00,0.0102
1912.00,0.0101
1911.00,0.0101
1910.00,0.0100
1909.00,0.0100
1908.00,0.0099
1907.00,0.0099
1906.00,0.0099
1905.00,0.0099
1904.00,0.0099
1903.00,0.0099
1902.00,0.0099
1901.00,0.0099
1900.00,0.0098
1899.00,0.0098
1898.00,0.0098
1897.00,0.0098
1896.00,0.0097
1895.00,0.0097
1894.00,0.0097
1893.00,0.0097
1892.00,0.0097
1891.00,0.0096
1890.00,0.0095
1889.00,0.0093
1888.00,0.0093
1887.00,0.0093
1886.00,0.0094
1885.00,0.0095
1884.00,0.0095
1883.00,0.0094
1882.00,0.0094
1881.00,0.0095
1880.00,0.0094
1879.00,0.0093
1878.00,0.0093
1877.00,0.0092
1876.00,0.0092
1875.00,0.0091
1874.00,0.0091
1873.00,0.0091
1872.00,0.0092
1871.00,0.0092
1870.00,0.0090
1869.00,0.0087
1868.00,0.0084
1867.00,0.0084
1866.00,0.0086
1865.00,0.0088
1864.00,0.0089
1863.00,0.0088
1862.00,0.0088
1861.00,0.0087
1860.00,0.0087
1859.00,0.0086
1858.00,0.0086
1857.00,0.0086
1856.00,0.0086
1855.00,0.0086
1854.00,0.0086
1853.00,0.0085
1852.00,0.0084
1851.00,0.0084
1850.00,0.0083
1849.00,0.0083
1848.00,0.0083
1847.00,0.0083
1846.00,0.0084
1845.00,0.0084
1844.00,0.0081
1843.00,0.0079
1842.00,0.0079
1841.00,0.0081
1840.00,0.0081
1839.00,0.0081
1838.00,0.0079
1837.00,0.0079
1836.00,0.0078
1835.00,0.0078
1834.00,0.0079
1833.00,0.0080
1832.00,0.0081
1831.00,0.0080
1830.00,0.0077
1829.00,0.0075
1828.00,0.0076
1827.00,0.0078
1826.00,0.0078
1825.00,0.0077
1824.00,0.0076
1823.00,0.0075
1822.00,0.0076
1821.00,0.0076
1820.00,0.0076
1819.00,0.0075
1818.00,0.0074
1817.00,0.0074
1816.00,0.0074
1815.00,0.0074
1814.00,0.0074
1813.00,0.0074
1812.00,0.0074
1811.00,0.0072
1810.00,0.0071
1809.00,0.0071
1808.00,0.0072
1807.00,0.0073
1806.00,0.0074
1805.00,0.0076
1804.00,0.0077
1803.00,0.0078
1802.00,0.0078
1801.00,0.0077
1800.00,0.0077
1799.00,0.0076
1798.00,0.0076
1797.00,0.0077
1796.00,0.0079
1795.00,0.0080
1794.00,0.0081
1793.00,0.0082
1792.00,0.0082
1791.00,0.0081
1790.00,0.0083
1789.00,0.0085
1788.00,0.0087
1787.00,0.0088
1786.00,0.0088
1785.00,0.0089
1784.00,0.0090
1783.00,0.0091
1782.00,0.0093
1781.00,0.0094
1780.00,0.0094
1779.00,0.0096
1778.00,0.0098
1777.00,0.0100
1776.00,0.0103
1775.00,0.0105
1774.00,0.0107
1773.00,0.0108
1772.00,0.0107
1771.00,0.0107
1770.00,0.0110
1769.00,0.0114
1768.00,0.0116
1767.00,0.0117
1766.00,0.0118
1765.00,0.0121
1764.00,0.0124
1763.00,0.0125
1762.00,0.0125
1761.00,0.0125
1760.00,0.0126
1759.00,0.0129
1758.00,0.0131
1757.00,0.0132
1756.00,0.0133
1755.00,0.0134
1754.00,0.0136
1753.00,0.0138
1752.00,0.0139
1751.00,0.0139
1750.00,0.0140
1749.00,0.0142
1748.00,0.0144
1747.00,0.0147
1746.00,0.0150
1745.00,0.0153
1744.00,0.0155
1743.00,0.0158
1742.00,0.0161
1741.00,0.0165
1740.00,0.0167
1739.00,0.0169
1738.00,0.0172
1737.00,0.0177
1736.00,0.0182
1735.00,0.0185
1734.00,0.0187
1733.00,0.0187
1732.00,0.0189
1731.00,0.0193
1730.00,0.0197
1729.00,0.0201
1728.00,0.0204
1727.00,0.0207
1726.00,0.0209
1725.00,0.0212
1724.00,0.0214
1723.00,0.0216
1722.00,0.0218
1721.00,0.0220
1720.00,0.0222
1719.00,0.0222
1718.00,0.0222
1717.00,0.0224
1716.00,0.0227
1715.00,0.0229
1714.00,0.0232
1713.00,0.0235
1712.00,0.0236
1711.00,0.0236
1710.00,0.0236
1709.00,0.0237
1708.00,0.0237
1707.00,0.0238
1706.00,0.0238
1705.00,0.0239
1704.00,0.0240
1703.00,0.0243
1702.00,0.0244
1701.00,0.0245
1700.00,0.0244
1699.00,0.0242
1698.00,0.0244
1697.00,0.0246
1696.00,0.0245
1695.00,0.0242
1694.00,0.0242
1693.00,0.0244
1692.00,0.0246
1691.00,0.0245
1690.00,0.0244
1689.00,0.0243
1688.00,0.0244
1687.00,0.0244
1686.00,0.0243
1685.00,0.0242
1684.00,0.0243
1683.00,0.0244
1682.00,0.0248
1681.00,0.0252
1680.00,0.0254
1679.00,0.0255
1678.00,0.0257
1677.00,0.0259
1676.00,0.0262
1675.00,0.0264
1674.00,0.0265
1673.00,0.0265
1672.00,0.0266
1671.00,0.0267
1670.00,0.0269
1669.00,0.0272
1668.00,0.0275
1667.00,0.0277
1666.00,0.0279
1665.00,0.0280
1664.00,0.0281
1663.00,0.0284
1662.00,0.0286
1661.00,0.0289
1660.00,0.0291
1659.00,0.0293
1658.00,0.0293
1657.00,0.0294
1656.00,0.0294
1655.00,0.0295
1654.00,0.0300
1653.00,0.0308
1652.00,0.0306
1651.00,0.0307
1650.00,0.0310
1649.00,0.0311
1648.00,0.0313
1647.00,0.0318
1646.00,0.0323
1645.00,0.0327
1644.00,0.0330
1643.00,0.0333
1642.00,0.0335
1641.00,0.0336
1640.00,0.0337
1639.00,0.0338
1638.00,0.0338
1637.00,0.0341
1636.00,0.0348
1635.00,0.0355
1634.00,0.0359
1633.00,0.0362
1632.00,0.0365
1631.00,0.0366
1630.00,0.0368
1629.00,0.0371
1628.00,0.0374
1627.00,0.0377
1626.00,0.0380
1625.00,0.0383
1624.00,0.0386
1623.00,0.0390
1622.00,0.0393
1621.00,0.0395
1620.00,0.0396
1619.00,0.0397
1618.00,0.0399
1617.00,0.0403
1616.00,0.0407
1615.00,0.0410
1614.00,0.0413
1613.00,0.0415
1612.00,0.0416
1611.00,0.0417
1610.00,0.0419
1609.00,0.0422
1608.00,0.0424
1607.00,0.0426
1606.00,0.0428
1605.00,0.0429
1604.00,0.0431
1603.00,0.0433
1602.00,0.0435
1601.00,0.0436
1600.00,0.0438
1599.00,0.0440
1598.00,0.0441
1597.00,0.0441
1596.00,0.0442
1595.00,0.0443
1594.00,0.0444
1593.00,0.0445
1592.00,0.0446
1591.00,0.0446
1590.00,0.0447
1589.00,0.0448
1588.00,0.0449
1587.00,0.0450
1586.00,0.0450
1585.00,0.0450
1584.00,0.0450
1583.00,0.0450
1582.00,0.0450
1581.00,0.0449
1580.00,0.0448
1579.00,0.0447
1578.00,0.0445
1577.00,0.0446
1576.00,0.0448
1575.00,0.0449
1574.00,0.0450
1573.00,0.0449
1572.00,0.0447
1571.00,0.0445
1570.00,0.0445
1569.00,0.0446
1568.00,0.0445
1567.00,0.0445
1566.00,0.0443
1565.00,0.0441
1564.00,0.0439
1563.00,0.0437
1562.00,0.0433
1561.00,0.0426
1560.00,0.0421
1559.00,0.0429
1558.00,0.0432
1557.00,0.0433
1556.00,0.0433
1555.00,0.0431
1554.00,0.0427
1553.00,0.0423
1552.00,0.0420
1551.00,0.0418
1550.00,0.0416
1549.00,0.0413
1548.00,0.0410
1547.00,0.0406
1546.00,0.0402
1545.00,0.0398
1544.00,0.0395
1543.00,0.0391
1542.00,0.0386
1541.00,0.0383
1540.00,0.0383
1539.00,0.0382
1538.00,0.0380
1537.00,0.0380
1536.00,0.0378
1535.00,0.0375
1534.00,0.0373
1533.00,0.0371
1532.00,0.0369
1531.00,0.0367
1530.00,0.0364
1529.00,0.0361
1528.00,0.0358
1527.00,0.0355
1526.00,0.0353
1525.00,0.0350
1524.00,0.0348
1523.00,0.0345
1522.00,0.0342
1521.00,0.0341
1520.00,0.0340
1519.00,0.0339
1518.00,0.0338
1517.00,0.0336
1516.00,0.0335
1515.00,0.0334
1514.00,0.0332
1513.00,0.0330
1512.00,0.0327
1511.00,0.0324
1510.00,0.0321
1509.00,0.0318
1508.00,0.0316
1507.00,0.0317
1506.00,0.0317
1505.00,0.0316
1504.00,0.0317
1503.00,0.0316
1502.00,0.0314
1501.00,0.0311
1500.00,0.0309
1499.00,0.0308
1498.00,0.0308
1497.00,0.0309
1496.00,0.0310
1495.00,0.0310
1494.00,0.0310
1493.00,0.0310
1492.00,0.0310
1491.00,0.0309
1490.00,0.0309
1489.00,0.0310
1488.00,0.0312
1487.00,0.0313
1486.00,0.0314
1485.00,0.0314
1484.00,0.0314
1483.00,0.0314
1482.00,0.0314
1481.00,0.0314
1480.00,0.0315
1479.00,0.0316
1478.00,0.0316
1477.00,0.0316
1476.00,0.0317
1475.00,0.0318
1474.00,0.0319
1473.00,0.0321
1472.00,0.0323
1471.00,0.0324
1470.00,0.0324
1469.00,0.0325
1468.00,0.0325
1467.00,0.0325
1466.00,0.0327
1465.00,0.0329
1464.00,0.0330
1463.00,0.0331
1462.00,0.0330
1461.00,0.0329
1460.00,0.0327
1459.00,0.0326
1458.00,0.0328
1457.00,0.0333
1456.00,0.0336
1455.00,0.0337
1454.00,0.0339
1453.00,0.0339
1452.00,0.0340
1451.00,0.0341
1450.00,0.0343
1449.00,0.0345
1448.00,0.0348
1447.00,0.0349
1446.00,0.0350
1445.00,0.0351
1444.00,0.0352
1443.00,0.0353
1442.00,0.0353
1441.00,0.0354
1440.00,0.0355
1439.00,0.0357
1438.00,0.0359
1437.00,0.0362
1436.00,0.0366
1435.00,0.0367
1434.00,0.0367
1433.00,0.0367
1432.00,0.0367
1431.00,0.0368
1430.00,0.0370
1429.00,0.0371
1428.00,0.0373
1427.00,0.0373
1426.00,0.0373
1425.00,0.0373
1424.00,0.0374
1423.00,0.0376
1422.00,0.0377
1421.00,0.0378
1420.00,0.0379
1419.00,0.0382
1418.00,0.0384
1417.00,0.0385
1416.00,0.0386
1415.00,0.0387
1414.00,0.0386
1413.00,0.0386
1412.00,0.0387
1411.00,0.0388
1410.00,0.0388
1409.00,0.0388
1408.00,0.0389
1407.00,0.0389
1406.00,0.0390
1405.00,0.0391
1404.00,0.0393
1403.00,0.0395
1402.00,0.0395
1401.00,0.0395
1400.00,0.0396
1399.00,0.0398
1398.00,0.0400
1397.00,0.0401
1396.00,0.0403
1395.00,0.0405
1394.00,0.0406
1393.00,0.0406
1392.00,0.0406
1391.00,0.0405
1390.00,0.0405
1389.00,0.0405
1388.00,0.0407
1387.00,0.0409
1386.00,0.0411
1385.00,0.0412
1384.00,0.0413
1383.00,0.0413
1382.00,0.0412
1381.00,0.0413
1380.00,0.0413
1379.00,0.0413
1378.00,0.0413
1377.00,0.0413
1376.00,0.0413
1375.00,0.0414
1374.00,0.0416
1373.00,0.0417
1372.00,0.0417
1371.00,0.0418
1370.00,0.0418
1369.00,0.0417
1368.00,0.0417
1367.00,0.0417
1366.00,0.0416
1365.00,0.0415
1364.00,0.0414
1363.00,0.0415
1362.00,0.0416
1361.00,0.0417
1360.00,0.0418
1359.00,0.0417
1358.00,0.0416
1357.00,0.0414
1356.00,0.0413
1355.00,0.0412
1354.00,0.0411
1353.00,0.0411
1352.00,0.0410
1351.00,0.0409
1350.00,0.0408
1349.00,0.0408
1348.00,0.0408
1347.00,0.0407
1346.00,0.0407
1345.00,0.0406
1344.00,0.0405
1343.00,0.0404
1342.00,0.0403
1341.00,0.0402
1340.00,0.0401
1339.00,0.0402
1338.00,0.0402
1337.00,0.0402
1336.00,0.0402
1335.00,0.0401
1334.00,0.0400
1333.00,0.0399
1332.00,0.0399
1331.00,0.0398
1330.00,0.0398
1329.00,0.0397
1328.00,0.0396
1327.00,0.0396
1326.00,0.0395
1325.00,0.0395
1324.00,0.0395
1323.00,0.0395
1322.00,0.0394
1321.00,0.0393
1320.00,0.0392
1319.00,0.0392
1318.00,0.0392
1317.00,0.0393
1316.00,0.0393
1315.00,0.0394
1314.00,0.0393
1313.00,0.0393
1312.00,0.0393
1311.00,0.0393
1310.00,0.0392
1309.00,0.0392
1308.00,0.0392
1307.00,0.0392
1306.00,0.0392
1305.00,0.0392
1304.00,0.0392
1303.00,0.0393
1302.00,0.0393
1301.00,0.0393
1300.00,0.0393
1299.00,0.0393
1298.00,0.0394
1297.00,0.0394
1296.00,0.0394
1295.00,0.0395
1294.00,0.0395
1293.00,0.0396
1292.00,0.0396
1291.00,0.0397
1290.00,0.0398
1289.00,0.0398
1288.00,0.0399
1287.00,0.0400
1286.00,0.0401
1285.00,0.0402
1284.00,0.0402
1283.00,0.0403
1282.00,0.0403
1281.00,0.0404
1280.00,0.0405
1279.00,0.0406
1278.00,0.0406
1277.00,0.0407
1276.00,0.0407
1275.00,0.0408
1274.00,0.0409
1273.00,0.0410
1272.00,0.0410
1271.00,0.0411
1270.00,0.0411
1269.00,0.0412
1268.00,0.0412
1267.00,0.0413
1266.00,0.0413
1265.00,0.0413
1264.00,0.0413
1263.00,0.0414
1262.00,0.0415
1261.00,0.0416
1260.00,0.0417
1259.00,0.0418
1258.00,0.0419
1257.00,0.0420
1256.00,0.0422
1255.00,0.0423
1254.00,0.0425
1253.00,0.0426
1252.00,0.0428
1251.00,0.0429
1250.00,0.0430
1249.00,0.0431
1248.00,0.0432
1247.00,0.0433
1246.00,0.0434
1245.00,0.0434
1244.00,0.0435
1243.00,0.0436
1242.00,0.0436
1241.00,0.0436
1240.00,0.0437
1239.00,0.0437
1238.00,0.0438
1237.00,0.0438
1236.00,0.0439
1235.00,0.0439
1234.00,0.0438
1233.00,0.0438
1232.00,0.0438
1231.00,0.0439
1230.00,0.0439
1229.00,0.0440
1228.00,0.0440
1227.00,0.0440
1226.00,0.0440
1225.00,0.0441
1224.00,0.0441
1223.00,0.0441
1222.00,0.0441
1221.00,0.0440
1220.00,0.0440
1219.00,0.0440
1218.00,0.0440
1217.00,0.0440
1216.00,0.0440
1215.00,0.0440
1214.00,0.0439
1213.00,0.0440
1212.00,0.0440
1211.00,0.0440
1210.00,0.0440
1209.00,0.0440
1208.00,0.0440
1207.00,0.0440
1206.00,0.0440
1205.00,0.0440
1204.00,0.0440
1203.00,0.0439
1202.00,0.0439
1201.00,0.0439
1200.00,0.0440
1199.00,0.0440
1198.00,0.0440
1197.00,0.0440
1196.00,0.0440
1195.00,0.0440
1194.00,0.0440
1193.00,0.0440
1192.00,0.0440
1191.00,0.0440
1190.00,0.0441
1189.00,0.0441
1188.00,0.0442
1187.00,0.0442
1186.00,0.0442
1185.00,0.0443
1184.00,0.0444
1183.00,0.0444
1182.00,0.0443
1181.00,0.0443
1180.00,0.0444
1179.00,0.0445
1178.00,0.0446
1177.00,0.0447
1176.00,0.0447
1175.00,0.0447
1174.00,0.0447
1173.00,0.0447
1172.00,0.0448
1171.00,0.0449
1170.00,0.0450
1169.00,0.0451
1168.00,0.0453
1167.00,0.0454
1166.00,0.0455
1165.00,0.0455
1164.00,0.0455
1163.00,0.0455
1162.00,0.0454
1161.00,0.0454
1160.00,0.0454
1159.00,0.0454
1158.00,0.0454
1157.00,0.0454
1156.00,0.0453
1155.00,0.0454
1154.00,0.0454
1153.00,0.0455
1152.00,0.0455
1151.00,0.0455
1150.00,0.0455
1149.00,0.0456
1148.00,0.0457
1147.00,0.0458
1146.00,0.0459
1145.00,0.0460
1144.00,0.0460
1143.00,0.0460
1142.00,0.0459
1141.00,0.0459
1140.00,0.0458
1139.00,0.0459
1138.00,0.0460
1137.00,0.0462
1136.00,0.0463
1135.00,0.0464
1134.00,0.0465
1133.00,0.0466
1132.00,0.0467
1131.00,0.0469
1130.00,0.0470
1129.00,0.0471
1128.00,0.0473
1127.00,0.0476
1126.00,0.0478
1125.00,0.0480
1124.00,0.0482
1123.00,0.0483
1122.00,0.0485
1121.00,0.0488
1120.00,0.0491
1119.00,0.0495
1118.00,0.0498
1117.00,0.0500
1116.00,0.0502
1115.00,0.0503
1114.00,0.0505
1113.00,0.0506
1112.00,0.0507
1111.00,0.0508
1110.00,0.0509
1109.00,0.0511
1108.00,0.0513
1107.00,0.0516
1106.00,0.0519
1105.00,0.0522
1104.00,0.0524
1103.00,0.0526
1102.00,0.0528
1101.00,0.0529
1100.00,0.0530
1099.00,0.0532
1098.00,0.0534
1097.00,0.0535
1096.00,0.0536
1095.00,0.0537
1094.00,0.0538
1093.00,0.0541
1092.00,0.0543
1091.00,0.0545
1090.00,0.0546
1089.00,0.0546
1088.00,0.0547
1087.00,0.0547
1086.00,0.0547
1085.00,0.0547
1084.00,0.0548
1083.00,0.0549
1082.00,0.0551
1081.00,0.0552
1080.00,0.0553
1079.00,0.0554
1078.00,0.0554
1077.00,0.0555
1076.00,0.0556
1075.00,0.0558
1074.00,0.0559
1073.00,0.0561
1072.00,0.0562
1071.00,0.0562
1070.00,0.0562
1069.00,0.0562
1068.00,0.0563
1067.00,0.0565
1066.00,0.0566
1065.00,0.0567
1064.00,0.0568
1063.00,0.0569
1062.00,0.0569
1061.00,0.0570
1060.00,0.0571
1059.00,0.0573
1058.00,0.0575
1057.00,0.0576
1056.00,0.0576
1055.00,0.0577
1054.00,0.0577
1053.00,0.0578
1052.00,0.0581
1051.00,0.0583
1050.00,0.0586
1049.00,0.0588
1048.00,0.0589
1047.00,0.0589
1046.00,0.0590
1045.00,0.0590
1044.00,0.0591
1043.00,0.0592
1042.00,0.0593
1041.00,0.0594
1040.00,0.0596
1039.00,0.0597
1038.00,0.0597
1037.00,0.0598
1036.00,0.0600
1035.00,0.0601
1034.00,0.0601
1033.00,0.0602
1032.00,0.0601
1031.00,0.0600
1030.00,0.0598
1029.00,0.0595
1028.00,0.0593
1027.00,0.0591
1026.00,0.0589
1025.00,0.0586
1024.00,0.0584
1023.00,0.0581
1022.00,0.0579
1021.00,0.0577
1020.00,0.0575
1019.00,0.0574
1018.00,0.0572
1017.00,0.0571
1016.00,0.0571
1015.00,0.0571
1014.00,0.0571
1013.00,0.0572
1012.00,0.0572
1011.00,0.0572
1010.00,0.0572
1009.00,0.0572
1008.00,0.0573
1007.00,0.0573
1006.00,0.0573
1005.00,0.0572
1004.00,0.0571
1003.00,0.0570
1002.00,0.0568
1001.00,0.0565
1000.00,0.0562
999.00,0.0560
998.00,0.0556
997.00,0.0553
996.00,0.0549
995.00,0.0545
994.00,0.0542
993.00,0.0540
992.00,0.0538
991.00,0.0536
990.00,0.0532
989.00,0.0529
988.00,0.0527
987.00,0.0525
986.00,0.0524
985.00,0.0522
984.00,0.0520
983.00,0.0517
982.00,0.0515
981.00,0.0513
980.00,0.0511
979.00,0.0509
978.00,0.0507
977.00,0.0506
976.00,0.0504
975.00,0.0502
974.00,0.0500
973.00,0.0497
972.00,0.0496
971.00,0.0494
970.00,0.0493
969.00,0.0493
968.00,0.0492
967.00,0.0491
966.00,0.0489
965.00,0.0488
964.00,0.0487
963.00,0.0485
962.00,0.0484
961.00,0.0482
960.00,0.0481
959.00,0.0481
958.00,0.0480
957.00,0.0479
956.00,0.0478
955.00,0.0477
954.00,0.0478
953.00,0.0478
952.00,0.0477
951.00,0.0476
950.00,0.0475
949.00,0.0475
948.00,0.0475
947.00,0.0477
946.00,0.0478
945.00,0.0479
944.00,0.0480
943.00,0.0480
942.00,0.0480
941.00,0.0480
940.00,0.0480
939.00,0.0481
938.00,0.0482
937.00,0.0483
936.00,0.0484
935.00,0.0485
934.00,0.0484
933.00,0.0482
932.00,0.0480
931.00,0.0479
930.00,0.0479
929.00,0.0479
928.00,0.0481
927.00,0.0482
926.00,0.0483
925.00,0.0484
924.00,0.0485
923.00,0.0486
922.00,0.0487
921.00,0.0488
920.00,0.0489
919.00,0.0490
918.00,0.0493
917.00,0.0495
916.00,0.0497
915.00,0.0498
914.00,0.0498
913.00,0.0499
912.00,0.0499
911.00,0.0499
910.00,0.0499
909.00,0.0499
908.00,0.0498
907.00,0.0497
906.00,0.0495
905.00,0.0492
904.00,0.0491
903.00,0.0490
902.00,0.0490
901.00,0.0490
900.00,0.0489
899.00,0.0488
898.00,0.0487
897.00,0.0485
896.00,0.0483
895.00,0.0481
894.00,0.0481
893.00,0.0480
892.00,0.0480
891.00,0.0479
890.00,0.0478
889.00,0.0477
888.00,0.0476
887.00,0.0474
886.00,0.0474
885.00,0.0474
884.00,0.0474
883.00,0.0473
882.00,0.0473
881.00,0.0472
880.00,0.0471
879.00,0.0470
878.00,0.0469
877.00,0.0468
876.00,0.0467
875.00,0.0466
874.00,0.0465
873.00,0.0465
872.00,0.0464
871.00,0.0462
870.00,0.0462
869.00,0.0461
868.00,0.0461
867.00,0.0460
866.00,0.0458
865.00,0.0457
864.00,0.0457
863.00,0.0458
862.00,0.0459
861.00,0.0460
860.00,0.0460
859.00,0.0460
858.00,0.0460
857.00,0.0460
856.00,0.0461
855.00,0.0462
854.00,0.0463
853.00,0.0463
852.00,0.0462
851.00,0.0462
850.00,0.0462
849.00,0.0463
848.00,0.0463
847.00,0.0464
846.00,0.0466
845.00,0.0468
844.00,0.0470
843.00,0.0472
842.00,0.0473
841.00,0.0475
840.00,0.0477
839.00,0.0479
838.00,0.0481
837.00,0.0484
836.00,0.0486
835.00,0.0487
834.00,0.0488
833.00,0.0489
832.00,0.0490
831.00,0.0492
830.00,0.0493
829.00,0.0493
828.00,0.0492
827.00,0.0492
826.00,0.0493
825.00,0.0494
824.00,0.0496
823.00,0.0497
822.00,0.0499
821.00,0.0501
820.00,0.0503
819.00,0.0503
818.00,0.0503
817.00,0.0502
816.00,0.0502
815.00,0.0502
814.00,0.0502
813.00,0.0504
812.00,0.0506
811.00,0.0509
810.00,0.0514
809.00,0.0519
808.00,0.0522
807.00,0.0524
806.00,0.0525
805.00,0.0524
804.00,0.0524
803.00,0.0525
802.00,0.0529
801.00,0.0535
800.00,0.0540
799.00,0.0542
798.00,0.0543
797.00,0.0543
796.00,0.0545
795.00,0.0546
794.00,0.0546
793.00,0.0546
792.00,0.0547
791.00,0.0548
790.00,0.0549
789.00,0.0550
788.00,0.0552
787.00,0.0553
786.00,0.0554
785.00,0.0555
784.00,0.0556
783.00,0.0557
782.00,0.0558
781.00,0.0558
780.00,0.0559
779.00,0.0560
778.00,0.0560
777.00,0.0560
776.00,0.0561
775.00,0.0562
774.00,0.0563
773.00,0.0563
772.00,0.0564
771.00,0.0564
770.00,0.0563
769.00,0.0562
768.00,0.0561
767.00,0.0560
766.00,0.0561
765.00,0.0562
764.00,0.0564
763.00,0.0565
762.00,0.0566
761.00,0.0567
760.00,0.0570
759.00,0.0574
758.00,0.0576
757.00,0.0578
756.00,0.0578
755.00,0.0578
754.00,0.0577
753.00,0.0576
752.00,0.0577
751.00,0.0577
750.00,0.0578
749.00,0.0578
748.00,0.0578
747.00,0.0578
746.00,0.0578
745.00,0.0577
744.00,0.0577
743.00,0.0578
742.00,0.0578
741.00,0.0577
740.00,0.0575
739.00,0.0572
738.00,0.0570
737.00,0.0569
736.00,0.0569
735.00,0.0570
734.00,0.0571
733.00,0.0572
732.00,0.0574
731.00,0.0576
730.00,0.0576
729.00,0.0574
728.00,0.0572
727.00,0.0571
726.00,0.0571
725.00,0.0574
724.00,0.0576
723.00,0.0578
722.00,0.0580
721.00,0.0582
720.00,0.0584
719.00,0.0585
718.00,0.0585
717.00,0.0584
716.00,0.0583
715.00,0.0584
714.00,0.0587
713.00,0.0591
712.00,0.0596
711.00,0.0598
710.00,0.0598
709.00,0.0595
708.00,0.0594
707.00,0.0596
706.00,0.0602
705.00,0.0608
704.00,0.0613
703.00,0.0615
702.00,0.0615
701.00,0.0615
700.00,0.0618
699.00,0.0624
698.00,0.0628
697.00,0.0632
696.00,0.0634
695.00,0.0634
694.00,0.0634
693.00,0.0635
692.00,0.0636
691.00,0.0639
690.00,0.0640
689.00,0.0639
688.00,0.0636
687.00,0.0634
686.00,0.0632
685.00,0.0631
684.00,0.0632
683.00,0.0633
682.00,0.0635
681.00,0.0638
680.00,0.0641
679.00,0.0643
678.00,0.0645
677.00,0.0649
676.00,0.0653
675.00,0.0656
674.00,0.0657
673.00,0.0655
672.00,0.0653
671.00,0.0650
670.00,0.0649
669.00,0.0655
668.00,0.0670
667.00,0.0685
666.00,0.0689
665.00,0.0683
664.00,0.0672
663.00,0.0663
662.00,0.0659
661.00,0.0661
660.00,0.0668
659.00,0.0676
658.00,0.0680
657.00,0.0679
656.00,0.0678
655.00,0.0681
654.00,0.0685
653.00,0.0686
652.00,0.0684
651.00,0.0680
650.00,0.0678
