Created as New Dataset,
cm-1,A
4000.00,0.0485
3999.00,0.0484
3998.00,0.0484
3997.00,0.0484
3996.00,0.0484
3995.00,0.0484
3994.00,0.0484
3993.00,0.0485
3992.00,0.0485
3991.00,0.0484
3990.00,0.0484
3989.00,0.0483
3988.00,0.0483
3987.00,0.0483
3986.00,0.0483
3985.00,0.0483
3984.00,0.0483
3983.00,0.0483
3982.00,0.0483
3981.00,0.0482
3980.00,0.0482
3979.00,0.0482
3978.00,0.0482
3977.00,0.0482
3976.00,0.0482
3975.00,0.0483
3974.00,0.0483
3973.00,0.0483
3972.00,0.0483
3971.00,0.0483
3970.00,0.0482
3969.00,0.0481
3968.00,0.0480
3967.00,0.0480
3966.00,0.0479
3965.00,0.0480
3964.00,0.0480
3963.00,0.0480
3962.00,0.0480
3961.00,0.0480
3960.00,0.0480
3959.00,0.0480
3958.00,0.0480
3957.00,0.0480
3956.00,0.0479
3955.00,0.0479
3954.00,0.0479
3953.00,0.0479
3952.00,0.0479
3951.00,0.0480
3950.00,0.0481
3949.00,0.0482
3948.00,0.0481
3947.00,0.0481
3946.00,0.0481
3945.00,0.0482
3944.00,0.0482
3943.00,0.0482
3942.00,0.0481
3941.00,0.0480
3940.00,0.0480
3939.00,0.0479
3938.00,0.0477
3937.00,0.0476
3936.00,0.0476
3935.00,0.0477
3934.00,0.0478
3933.00,0.0479
3932.00,0.0480
3931.00,0.0481
3930.00,0.0481
3929.00,0.0480
3928.00,0.0479
3927.00,0.0479
3926.00,0.0479
3925.00,0.0478
3924.00,0.0478
3923.00,0.0478
3922.00,0.0479
3921.00,0.0478
3920.00,0.0477
3919.00,0.0478
3918.00,0.0478
3917.00,0.0478
3916.00,0.0477
3915.00,0.0476
3914.00,0.0475
3913.00,0.0474
3912.00,0.0472
3911.00,0.0471
3910.00,0.0471
3909.00,0.0471
3908.00,0.0473
3907.00,0.0474
3906.00,0.0476
3905.00,0.0477
3904.00,0.0479
3903.00,0.0481
3902.00,0.0485
3901.00,0.0486
3900.00,0.0485
3899.00,0.0482
3898.00,0.0478
3897.00,0.0476
3896.00,0.0475
3895.00,0.0475
3894.00,0.0475
3893.00,0.0475
3892.00,0.0475
3891.00,0.0473
3890.00,0.0471
3889.00,0.0474
3888.00,0.0477
3887.00,0.0477
3886.00,0.0474
3885.00,0.0472
3884.00,0.0475
3883.00,0.0480
3882.00,0.0482
3881.00,0.0480
3880.00,0.0476
3879.00,0.0473
3878.00,0.0473
3877.00,0.0474
3876.00,0.0474
3875.00,0.0472
3874.00,0.0470
3873.00,0.0472
3872.00,0.0477
3871.00,0.0479
3870.00,0.0475
3869.00,0.0472
3868.00,0.0473
3867.00,0.0477
3866.00,0.0478
3865.00,0.0475
3864.00,0.0473
3863.00,0.0474
3862.00,0.0475
3861.00,0.0473
3860.00,0.0470
3859.00,0.0468
3858.00,0.0467
3857.00,0.0468
3856.00,0.0469
3855.00,0.0468
3854.00,0.0466
3853.00,0.0466
3852.00,0.0468
3851.00,0.0471
3850.00,0.0472
3849.00,0.0471
3848.00,0.0468
3847.00,0.0466
3846.00,0.0466
3845.00,0.0465
3844.00,0.0465
3843.00,0.0465
3842.00,0.0468
3841.00,0.0471
3840.00,0.0473
3839.00,0.0473
3838.00,0.0471
3837.00,0.0470
3836.00,0.0469
3835.00,0.0469
3834.00,0.0470
3833.00,0.0469
3832.00,0.0467
3831.00,0.0464
3830.00,0.0464
3829.00,0.0465
3828.00,0.0466
3827.00,0.0464
3826.00,0.0462
3825.00,0.0462
3824.00,0.0465
3823.00,0.0468
3822.00,0.0467
3821.00,0.0464
3820.00,0.0463
3819.00,0.0467
3818.00,0.0471
3817.00,0.0469
3816.00,0.0463
3815.00,0.0458
3814.00,0.0459
3813.00,0.0461
3812.00,0.0459
3811.00,0.0456
3810.00,0.0455
3809.00,0.0456
3808.00,0.0456
3807.00,0.0454
3806.00,0.0452
3805.00,0.0456
3804.00,0.0462
3803.00,0.0465
3802.00,0.0462
3801.00,0.0458
3800.00,0.0459
3799.00,0.0463
3798.00,0.0465
3797.00,0.0463
3796.00,0.0459
3795.00,0.0456
3794.00,0.0456
3793.00,0.0456
3792.00,0.0455
3791.00,0.0453
3790.00,0.0453
3789.00,0.0452
3788.00,0.0453
3787.00,0.0453
3786.00,0.0454
3785.00,0.0454
3784.00,0.0453
3783.00,0.0454
3782.00,0.0455
3781.00,0.0455
3780.00,0.0454
3779.00,0.0452
3778.00,0.0452
3777.00,0.0452
3776.00,0.0452
3775.00,0.0450
3774.00,0.0448
3773.00,0.0448
3772.00,0.0449
3771.00,0.0450
3770.00,0.0450
3769.00,0.0450
3768.00,0.0453
3767.00,0.0455
3766.00,0.0454
3765.00,0.0452
3764.00,0.0450
3763.00,0.0451
3762.00,0.0453
3761.00,0.0453
3760.00,0.0452
3759.00,0.0452
3758.00,0.0453
3757.00,0.0453
3756.00,0.0452
3755.00,0.0452
3754.00,0.0451
3753.00,0.0448
3752.00,0.0447
3751.00,0.0449
3750.00,0.0450
3749.00,0.0451
3748.00,0.0453
3747.00,0.0458
3746.00,0.0460
3745.00,0.0454
3744.00,0.0446
3743.00,0.0444
3742.00,0.0448
3741.00,0.0451
3740.00,0.0450
3739.00,0.0448
3738.00,0.0448
3737.00,0.0450
3736.00,0.0453
3735.00,0.0456
3734.00,0.0458
3733.00,0.0457
3732.00,0.0451
3731.00,0.0446
3730.00,0.0444
3729.00,0.0445
3728.00,0.0446
3727.00,0.0445
3726.00,0.0445
3725.00,0.0446
3724.00,0.0449
3723.00,0.0449
3722.00,0.0448
3721.00,0.0447
3720.00,0.0446
3719.00,0.0445
3718.00,0.0442
3717.00,0.0440
3716.00,0.0439
3715.00,0.0440
3714.00,0.0440
3713.00,0.0440
3712.00,0.0442
3711.00,0.0444
3710.00,0.0446
3709.00,0.0446
3708.00,0.0444
3707.00,0.0441
3706.00,0.0439
3705.00,0.0439
3704.00,0.0440
3703.00,0.0441
3702.00,0.0441
3701.00,0.0441
3700.00,0.0441
3699.00,0.0441
3698.00,0.0441
3697.00,0.0441
3696.00,0.0440
3695.00,0.0440
3694.00,0.0441
3693.00,0.0442
3692.00,0.0443
3691.00,0.0445
3690.00,0.0447
3689.00,0.0447
3688.00,0.0444
3687.00,0.0442
3686.00,0.0443
3685.00,0.0443
3684.00,0.0442
3683.00,0.0440
3682.00,0.0439
3681.00,0.0439
3680.00,0.0438
3679.00,0.0439
3678.00,0.0443
3677.00,0.0448
3676.00,0.0449
3675.00,0.0447
3674.00,0.0447
3673.00,0.0451
3672.00,0.0453
3671.00,0.0452
3670.00,0.0448
3669.00,0.0448
3668.00,0.0448
3667.00,0.0449
3666.00,0.0447
3665.00,0.0445
3664.00,0.0443
3663.00,0.0442
3662.00,0.0442
3661.00,0.0442
3660.00,0.0443
3659.00,0.0445
3658.00,0.0448
3657.00,0.0450
3656.00,0.0450
3655.00,0.0451
3654.00,0.0455
3653.00,0.0459
3652.00,0.0461
3651.00,0.0460
3650.00,0.0465
3649.00,0.0473
3648.00,0.0478
3647.00,0.0477
3646.00,0.0474
3645.00,0.0470
3644.00,0.0468
3643.00,0.0465
3642.00,0.0463
3641.00,0.0462
3640.00,0.0463
3639.00,0.0464
3638.00,0.0464
3637.00,0.0465
3636.00,0.0467
3635.00,0.0467
3634.00,0.0467
3633.00,0.0468
3632.00,0.0471
3631.00,0.0476
3630.00,0.0479
3629.00,0.0481
3628.00,0.0483
3627.00,0.0485
3626.00,0.0486
3625.00,0.0485
3624.00,0.0484
3623.00,0.0484
3622.00,0.0487
3621.00,0.0491
3620.00,0.0494
3619.00,0.0497
3618.00,0.0498
3617.00,0.0500
3616.00,0.0501
3615.00,0.0501
3614.00,0.0500
3613.00,0.0499
3612.00,0.0500
3611.00,0.0501
3610.00,0.0501
3609.00,0.0502
3608.00,0.0502
3607.00,0.0502
3606.00,0.0503
3605.00,0.0503
3604.00,0.0502
3603.00,0.0502
3602.00,0.0503
3601.00,0.0504
3600.00,0.0506
3599.00,0.0508
3598.00,0.0509
3597.00,0.0510
3596.00,0.0512
3595.00,0.0513
3594.00,0.0515
3593.00,0.0515
3592.00,0.0514
3591.00,0.0515
3590.00,0.0516
3589.00,0.0519
3588.00,0.0523
3587.00,0.0527
3586.00,0.0528
3585.00,0.0528
3584.00,0.0526
3583.00,0.0524
3582.00,0.0522
3581.00,0.0522
3580.00,0.0522
3579.00,0.0524
3578.00,0.0524
3577.00,0.0525
3576.00,0.0525
3575.00,0.0525
3574.00,0.0525
3573.00,0.0526
3572.00,0.0526
3571.00,0.0527
3570.00,0.0530
3569.00,0.0534
3568.00,0.0540
3567.00,0.0546
3566.00,0.0549
3565.00,0.0550
3564.00,0.0548
3563.00,0.0546
3562.00,0.0543
3561.00,0.0542
3560.00,0.0541
3559.00,0.0541
3558.00,0.0540
3557.00,0.0540
3556.00,0.0540
3555.00,0.0540
3554.00,0.0542
3553.00,0.0544
3552.00,0.0546
3551.00,0.0547
3550.00,0.0548
3549.00,0.0549
3548.00,0.0550
3547.00,0.0553
3546.00,0.0555
3545.00,0.0557
3544.00,0.0557
3543.00,0.0556
3542.00,0.0554
3541.00,0.0553
3540.00,0.0552
3539.00,0.0553
3538.00,0.0554
3537.00,0.0555
3536.00,0.0557
3535.00,0.0557
3534.00,0.0558
3533.00,0.0558
3532.00,0.0557
3531.00,0.0558
3530.00,0.0559
3529.00,0.0561
3528.00,0.0563
3527.00,0.0565
3526.00,0.0567
3525.00,0.0568
3524.00,0.0569
3523.00,0.0570
3522.00,0.0569
3521.00,0.0569
3520.00,0.0568
3519.00,0.0568
3518.00,0.0567
3517.00,0.0567
3516.00,0.0568
3515.00,0.0569
3514.00,0.0570
3513.00,0.0571
3512.00,0.0572
3511.00,0.0573
3510.00,0.0575
3509.00,0.0576
3508.00,0.0576
3507.00,0.0576
3506.00,0.0576
3505.00,0.0576
3504.00,0.0578
3503.00,0.0579
3502.00,0.0581
3501.00,0.0582
3500.00,0.0582
3499.00,0.0581
3498.00,0.0581
3497.00,0.0581
3496.00,0.0581
3495.00,0.0582
3494.00,0.0583
3493.00,0.0583
3492.00,0.0583
3491.00,0.0583
3490.00,0.0583
3489.00,0.0583
3488.00,0.0585
3487.00,0.0586
3486.00,0.0588
3485.00,0.0589
3484.00,0.0590
3483.00,0.0591
3482.00,0.0592
3481.00,0.0592
3480.00,0.0593
3479.00,0.0593
3478.00,0.0593
3477.00,0.0593
3476.00,0.0594
3475.00,0.0594
3474.00,0.0595
3473.00,0.0595
3472.00,0.0596
3471.00,0.0596
3470.00,0.0597
3469.00,0.0597
3468.00,0.0597
3467.00,0.0598
3466.00,0.0598
3465.00,0.0599
3464.00,0.0600
3463.00,0.0601
3462.00,0.0601
3461.00,0.0602
3460.00,0.0602
3459.00,0.0603
3458.00,0.0603
3457.00,0.0604
3456.00,0.0604
3455.00,0.0605
3454.00,0.0606
3453.00,0.0606
3452.00,0.0606
3451.00,0.0606
3450.00,0.0606
3449.00,0.0607
3448.00,0.0608
3447.00,0.0610
3446.00,0.0611
3445.00,0.0611
3444.00,0.0612
3443.00,0.0612
3442.00,0.0612
3441.00,0.0612
3440.00,0.0612
3439.00,0.0612
3438.00,0.0612
3437.00,0.0612
3436.00,0.0612
3435.00,0.0612
3434.00,0.0613
3433.00,0.0613
3432.00,0.0614
3431.00,0.0614
3430.00,0.0615
3429.00,0.0615
3428.00,0.0615
3427.00,0.0616
3426.00,0.0617
3425.00,0.0618
3424.00,0.0618
3423.00,0.0618
3422.00,0.0619
3421.00,0.0620
3420.00,0.0621
3419.00,0.0622
3418.00,0.0622
3417.00,0.0621
3416.00,0.0621
3415.00,0.0621
3414.00,0.0621
3413.00,0.0622
3412.00,0.0623
3411.00,0.0624
3410.00,0.0624
3409.00,0.0624
3408.00,0.0624
3407.00,0.0625
3406.00,0.0626
3405.00,0.0626
3404.00,0.0627
3403.00,0.0627
3402.00,0.0627
3401.00,0.0627
3400.00,0.0627
3399.00,0.0627
3398.00,0.0628
3397.00,0.0628
3396.00,0.0628
3395.00,0.0629
3394.00,0.0629
3393.00,0.0630
3392.00,0.0631
3391.00,0.0631
3390.00,0.0631
3389.00,0.0630
3388.00,0.0630
3387.00,0.0631
3386.00,0.0632
3385.00,0.0632
3384.00,0.0632
3383.00,0.0632
3382.00,0.0631
3381.00,0.0631
3380.00,0.0631
3379.00,0.0632
3378.00,0.0632
3377.00,0.0633
3376.00,0.0633
3375.00,0.0634
3374.00,0.0634
3373.00,0.0635
3372.00,0.0635
3371.00,0.0634
3370.00,0.0634
3369.00,0.0634
3368.00,0.0634
3367.00,0.0635
3366.00,0.0636
3365.00,0.0636
3364.00,0.0637
3363.00,0.0637
3362.00,0.0637
3361.00,0.0637
3360.00,0.0637
3359.00,0.0637
3358.00,0.0637
3357.00,0.0638
3356.00,0.0638
3355.00,0.0638
3354.00,0.0637
3353.00,0.0637
3352.00,0.0637
3351.00,0.0636
3350.00,0.0636
3349.00,0.0636
3348.00,0.0636
3347.00,0.0636
3346.00,0.0637
3345.00,0.0637
3344.00,0.0638
3343.00,0.0638
3342.00,0.0638
3341.00,0.0638
3340.00,0.0638
3339.00,0.0638
3338.00,0.0638
3337.00,0.0639
3336.00,0.0640
3335.00,0.0640
3334.00,0.0640
3333.00,0.0639
3332.00,0.0639
3331.00,0.0639
3330.00,0.0639
3329.00,0.0639
3328.00,0.0639
3327.00,0.0639
3326.00,0.0639
3325.00,0.0640
3324.00,0.0640
3323.00,0.0640
3322.00,0.0640
3321.00,0.0639
3320.00,0.0639
3319.00,0.0638
3318.00,0.0639
3317.00,0.0639
3316.00,0.0639
3315.00,0.0639
3314.00,0.0639
3313.00,0.0639
3312.00,0.0640
3311.00,0.0640
3310.00,0.0641
3309.00,0.0641
3308.00,0.0641
3307.00,0.0641
3306.00,0.0641
3305.00,0.0642
3304.00,0.0642
3303.00,0.0642
3302.00,0.0641
3301.00,0.0640
3300.00,0.0640
3299.00,0.0640
3298.00,0.0641
3297.00,0.0641
3296.00,0.0642
3295.00,0.0641
3294.00,0.0641
3293.00,0.0641
3292.00,0.0641
3291.00,0.0641
3290.00,0.0642
3289.00,0.0642
3288.00,0.0642
3287.00,0.0642
3286.00,0.0642
3285.00,0.0642
3284.00,0.0642
3283.00,0.0642
3282.00,0.0642
3281.00,0.0642
3280.00,0.0642
3279.00,0.0642
3278.00,0.0642
3277.00,0.0642
3276.00,0.0642
3275.00,0.0642
3274.00,0.0643
3273.00,0.0644
3272.00,0.0644
3271.00,0.0645
3270.00,0.0644
3269.00,0.0644
3268.00,0.0643
3267.00,0.0643
3266.00,0.0643
3265.00,0.0643
3264.00,0.0643
3263.00,0.0644
3262.00,0.0644
3261.00,0.0644
3260.00,0.0644
3259.00,0.0644
3258.00,0.0644
3257.00,0.0644
3256.00,0.0644
3255.00,0.0644
3254.00,0.0644
3253.00,0.0644
3252.00,0.0644
3251.00,0.0643
3250.00,0.0644
3249.00,0.0644
3248.00,0.0645
3247.00,0.0646
3246.00,0.0646
3245.00,0.0647
3244.00,0.0647
3243.00,0.0647
3242.00,0.0646
3241.00,0.0646
3240.00,0.0646
3239.00,0.0646
3238.00,0.0646
3237.00,0.0646
3236.00,0.0646
3235.00,0.0646
3234.00,0.0646
3233.00,0.0646
3232.00,0.0647
3231.00,0.0647
3230.00,0.0647
3229.00,0.0647
3228.00,0.0647
3227.00,0.0647
3226.00,0.0647
3225.00,0.0647
3224.00,0.0646
3223.00,0.0646
3222.00,0.0646
3221.00,0.0646
3220.00,0.0646
3219.00,0.0646
3218.00,0.0646
3217.00,0.0646
3216.00,0.0646
3215.00,0.0645
3214.00,0.0646
3213.00,0.0646
3212.00,0.0646
3211.00,0.0647
3210.00,0.0647
3209.00,0.0646
3208.00,0.0646
3207.00,0.0646
3206.00,0.0646
3205.00,0.0646
3204.00,0.0646
3203.00,0.0646
3202.00,0.0646
3201.00,0.0647
3200.00,0.0647
3199.00,0.0647
3198.00,0.0647
3197.00,0.0647
3196.00,0.0646
3195.00,0.0646
3194.00,0.0646
3193.00,0.0646
3192.00,0.0646
3191.00,0.0645
3190.00,0.0645
3189.00,0.0645
3188.00,0.0645
3187.00,0.0645
3186.00,0.0645
3185.00,0.0645
3184.00,0.0645
3183.00,0.0645
3182.00,0.0645
3181.00,0.0645
3180.00,0.0645
3179.00,0.0645
3178.00,0.0645
3177.00,0.0645
3176.00,0.0644
3175.00,0.0644
3174.00,0.0644
3173.00,0.0643
3172.00,0.0643
3171.00,0.0643
3170.00,0.0643
3169.00,0.0643
3168.00,0.0643
3167.00,0.0642
3166.00,0.0642
3165.00,0.0642
3164.00,0.0642
3163.00,0.0642
3162.00,0.0642
3161.00,0.0642
3160.00,0.0642
3159.00,0.0642
3158.00,0.0642
3157.00,0.0642
3156.00,0.0641
3155.00,0.0640
3154.00,0.0640
3153.00,0.0640
3152.00,0.0640
3151.00,0.0640
3150.00,0.0640
3149.00,0.0640
3148.00,0.0640
3147.00,0.0640
3146.00,0.0640
3145.00,0.0640
3144.00,0.0640
3143.00,0.0639
3142.00,0.0639
3141.00,0.0639
3140.00,0.0639
3139.00,0.0638
3138.00,0.0638
3137.00,0.0638
3136.00,0.0638
3135.00,0.0637
3134.00,0.0637
3133.00,0.0637
3132.00,0.0637
3131.00,0.0637
3130.00,0.0637
3129.00,0.0637
3128.00,0.0637
3127.00,0.0637
3126.00,0.0637
3125.00,0.0636
3124.00,0.0636
3123.00,0.0636
3122.00,0.0636
3121.00,0.0636
3120.00,0.0636
3119.00,0.0636
3118.00,0.0636
3117.00,0.0635
3116.00,0.0636
3115.00,0.0636
3114.00,0.0636
3113.00,0.0636
3112.00,0.0636
3111.00,0.0635
3110.00,0.0635
3109.00,0.0634
3108.00,0.0634
3107.00,0.0634
3106.00,0.0634
3105.00,0.0634
3104.00,0.0634
3103.00,0.0634
3102.00,0.0634
3101.00,0.0634
3100.00,0.0634
3099.00,0.0634
3098.00,0.0634
3097.00,0.0634
3096.00,0.0634
3095.00,0.0634
3094.00,0.0634
3093.00,0.0633
3092.00,0.0632
3091.00,0.0631
3090.00,0.0631
3089.00,0.0631
3088.00,0.0631
3087.00,0.0632
3086.00,0.0632
3085.00,0.0632
3084.00,0.0631
3083.00,0.0631
3082.00,0.0631
3081.00,0.0631
3080.00,0.0631
3079.00,0.0631
3078.00,0.0631
3077.00,0.0631
3076.00,0.0631
3075.00,0.0630
3074.00,0.0630
3073.00,0.0630
3072.00,0.0630
3071.00,0.0630
3070.00,0.0630
3069.00,0.0629
3068.00,0.0629
3067.00,0.0629
3066.00,0.0629
3065.00,0.0629
3064.00,0.0629
3063.00,0.0629
3062.00,0.0628
3061.00,0.0628
3060.00,0.0628
3059.00,0.0627
3058.00,0.0628
3057.00,0.0628
3056.00,0.0628
3055.00,0.0628
3054.00,0.0628
3053.00,0.0627
3052.00,0.0627
3051.00,0.0626
3050.00,0.0626
3049.00,0.0625
3048.00,0.0625
3047.00,0.0624
3046.00,0.0625
3045.00,0.0625
3044.00,0.0625
3043.00,0.0625
3042.00,0.0624
3041.00,0.0624
3040.00,0.0623
3039.00,0.0623
3038.00,0.0623
3037.00,0.0623
3036.00,0.0622
3035.00,0.0622
3034.00,0.0622
3033.00,0.0622
3032.00,0.0622
3031.00,0.0622
3030.00,0.0622
3029.00,0.0622
3028.00,0.0621
3027.00,0.0620
3026.00,0.0620
3025.00,0.0619
3024.00,0.0619
3023.00,0.0619
3022.00,0.0620
3021.00,0.0620
3020.00,0.0620
3019.00,0.0619
3018.00,0.0619
3017.00,0.0619
3016.00,0.0619
3015.00,0.0619
3014.00,0.0619
3013.00,0.0620
3012.00,0.0620
3011.00,0.0621
3010.00,0.0621
3009.00,0.0621
3008.00,0.0620
3007.00,0.0620
3006.00,0.0620
3005.00,0.0620
3004.00,0.0621
3003.00,0.0621
3002.00,0.0622
3001.00,0.0622
3000.00,0.0622
2999.00,0.0622
2998.00,0.0622
2997.00,0.0622
2996.00,0.0622
2995.00,0.0622
2994.00,0.0623
2993.00,0.0623
2992.00,0.0622
2991.00,0.0622
2990.00,0.0622
2989.00,0.0622
2988.00,0.0622
2987.00,0.0622
2986.00,0.0623
2985.00,0.0624
2984.00,0.0625
2983.00,0.0626
2982.00,0.0627
2981.00,0.0627
2980.00,0.0626
2979.00,0.0625
2978.00,0.0624
2977.00,0.0623
2976.00,0.0622
2975.00,0.0621
2974.00,0.0621
2973.00,0.0620
2972.00,0.0620
2971.00,0.0619
2970.00,0.0617
2969.00,0.0616
2968.00,0.0615
2967.00,0.0614
2966.00,0.0613
2965.00,0.0612
2964.00,0.0611
2963.00,0.0611
2962.00,0.0610
2961.00,0.0609
2960.00,0.0608
2959.00,0.0607
2958.00,0.0607
2957.00,0.0606
2956.00,0.0606
2955.00,0.0605
2954.00,0.0605
2953.00,0.0605
2952.00,0.0605
2951.00,0.0605
2950.00,0.0604
2949.00,0.0603
2948.00,0.0602
2947.00,0.0602
2946.00,0.0601
2945.00,0.0601
2944.00,0.0600
2943.00,0.0600
2942.00,0.0599
2941.00,0.0598
2940.00,0.0598
2939.00,0.0597
2938.00,0.0596
2937.00,0.0595
2936.00,0.0594
2935.00,0.0593
2934.00,0.0592
2933.00,0.0592
2932.00,0.0591
2931.00,0.0590
2930.00,0.0588
2929.00,0.0587
2928.00,0.0586
2927.00,0.0585
2926.00,0.0585
2925.00,0.0584
2924.00,0.0584
2923.00,0.0584
2922.00,0.0585
2921.00,0.0585
2920.00,0.0585
2919.00,0.0584
2918.00,0.0584
2917.00,0.0583
2916.00,0.0584
2915.00,0.0585
2914.00,0.0586
2913.00,0.0588
2912.00,0.0589
2911.00,0.0589
2910.00,0.0590
2909.00,0.0590
2908.00,0.0590
2907.00,0.0591
2906.00,0.0591
2905.00,0.0591
2904.00,0.0591
2903.00,0.0591
2902.00,0.0590
2901.00,0.0590
2900.00,0.0590
2899.00,0.0590
2898.00,0.0590
2897.00,0.0590
2896.00,0.0589
2895.00,0.0589
2894.00,0.0590
2893.00,0.0590
2892.00,0.0590
2891.00,0.0590
2890.00,0.0590
2889.00,0.0590
2888.00,0.0590
2887.00,0.0590
2886.00,0.0590
2885.00,0.0590
2884.00,0.0590
2883.00,0.0590
2882.00,0.0589
2881.00,0.0589
2880.00,0.0588
2879.00,0.0587
2878.00,0.0586
2877.00,0.0585
2876.00,0.0585
2875.00,0.0583
2874.00,0.0582
2873.00,0.0581
2872.00,0.0581
2871.00,0.0580
2870.00,0.0580
2869.00,0.0580
2868.00,0.0579
2867.00,0.0578
2866.00,0.0577
2865.00,0.0577
2864.00,0.0576
2863.00,0.0576
2862.00,0.0576
2861.00,0.0575
2860.00,0.0575
2859.00,0.0574
2858.00,0.0573
2857.00,0.0572
2856.00,0.0572
2855.00,0.0571
2854.00,0.0570
2853.00,0.0570
2852.00,0.0569
2851.00,0.0569
2850.00,0.0569
2849.00,0.0569
2848.00,0.0569
2847.00,0.0570
2846.00,0.0570
2845.00,0.0571
2844.00,0.0571
2843.00,0.0572
2842.00,0.0572
2841.00,0.0572
2840.00,0.0572
2839.00,0.0572
2838.00,0.0572
2837.00,0.0572
2836.00,0.0571
2835.00,0.0571
2834.00,0.0571
2833.00,0.0571
2832.00,0.0570
2831.00,0.0570
2830.00,0.0570
2829.00,0.0570
2828.00,0.0570
2827.00,0.0569
2826.00,0.0569
2825.00,0.0569
2824.00,0.0568
2823.00,0.0568
2822.00,0.0567
2821.00,0.0567
2820.00,0.0566
2819.00,0.0566
2818.00,0.0566
2817.00,0.0566
2816.00,0.0565
2815.00,0.0565
2814.00,0.0565
2813.00,0.0564
2812.00,0.0564
2811.00,0.0563
2810.00,0.0563
2809.00,0.0563
2808.00,0.0563
2807.00,0.0562
2806.00,0.0562
2805.00,0.0561
2804.00,0.0561
2803.00,0.0561
2802.00,0.0561
2801.00,0.0561
2800.00,0.0561
2799.00,0.0560
2798.00,0.0560
2797.00,0.0559
2796.00,0.0559
2795.00,0.0558
2794.00,0.0558
2793.00,0.0557
2792.00,0.0557
2791.00,0.0557
2790.00,0.0557
2789.00,0.0557
2788.00,0.0557
2787.00,0.0557
2786.00,0.0556
2785.00,0.0556
2784.00,0.0555
2783.00,0.0555
2782.00,0.0554
2781.00,0.0554
2780.00,0.0554
2779.00,0.0553
2778.00,0.0553
2777.00,0.0553
2776.00,0.0553
2775.00,0.0553
2774.00,0.0552
2773.00,0.0552
2772.00,0.0552
2771.00,0.0551
2770.00,0.0551
2769.00,0.0550
2768.00,0.0550
2767.00,0.0550
2766.00,0.0549
2765.00,0.0549
2764.00,0.0549
2763.00,0.0548
2762.00,0.0548
2761.00,0.0547
2760.00,0.0547
2759.00,0.0547
2758.00,0.0547
2757.00,0.0546
2756.00,0.0546
2755.00,0.0546
2754.00,0.0546
2753.00,0.0545
2752.00,0.0545
2751.00,0.0545
2750.00,0.0545
2749.00,0.0545
2748.00,0.0545
2747.00,0.0544
2746.00,0.0543
2745.00,0.0543
2744.00,0.0542
2743.00,0.0542
2742.00,0.0542
2741.00,0.0542
2740.00,0.0542
2739.00,0.0541
2738.00,0.0541
2737.00,0.0540
2736.00,0.0540
2735.00,0.0539
2734.00,0.0538
2733.00,0.0538
2732.00,0.0538
2731.00,0.0538
2730.00,0.0538
2729.00,0.0538
2728.00,0.0538
2727.00,0.0538
2726.00,0.0537
2725.00,0.0537
2724.00,0.0537
2723.00,0.0537
2722.00,0.0536
2721.00,0.0536
2720.00,0.0535
2719.00,0.0535
2718.00,0.0534
2717.00,0.0534
2716.00,0.0534
2715.00,0.0534
2714.00,0.0533
2713.00,0.0533
2712.00,0.0533
2711.00,0.0533
2710.00,0.0532
2709.00,0.0532
2708.00,0.0531
2707.00,0.0531
2706.00,0.0531
2705.00,0.0530
2704.00,0.0530
2703.00,0.0530
2702.00,0.0530
2701.00,0.0530
2700.00,0.0529
2699.00,0.0529
2698.00,0.0528
2697.00,0.0528
2696.00,0.0527
2695.00,0.0527
2694.00,0.0527
2693.00,0.0527
2692.00,0.0527
2691.00,0.0527
2690.00,0.0526
2689.00,0.0526
2688.00,0.0526
2687.00,0.0525
2686.00,0.0525
2685.00,0.0525
2684.00,0.0525
2683.00,0.0524
2682.00,0.0524
2681.00,0.0524
2680.00,0.0524
2679.00,0.0524
2678.00,0.0524
2677.00,0.0524
2676.00,0.0524
2675.00,0.0524
2674.00,0.0523
2673.00,0.0523
2672.00,0.0522
2671.00,0.0522
2670.00,0.0521
2669.00,0.0521
2668.00,0.0520
2667.00,0.0520
2666.00,0.0520
2665.00,0.0520
2664.00,0.0520
2663.00,0.0520
2662.00,0.0520
2661.00,0.0520
2660.00,0.0520
2659.00,0.0520
2658.00,0.0520
2657.00,0.0520
2656.00,0.0519
2655.00,0.0519
2654.00,0.0519
2653.00,0.0519
2652.00,0.0519
2651.00,0.0519
2650.00,0.0519
2649.00,0.0519
2648.00,0.0519
2647.00,0.0519
2646.00,0.0519
2645.00,0.0519
2644.00,0.0520
2643.00,0.0520
2642.00,0.0520
2641.00,0.0520
2640.00,0.0520
2639.00,0.0520
2638.00,0.0519
2637.00,0.0519
2636.00,0.0519
2635.00,0.0519
2634.00,0.0519
2633.00,0.0519
2632.00,0.0518
2631.00,0.0518
2630.00,0.0518
2629.00,0.0518
2628.00,0.0518
2627.00,0.0518
2626.00,0.0518
2625.00,0.0518
2624.00,0.0518
2623.00,0.0517
2622.00,0.0517
2621.00,0.0517
2620.00,0.0517
2619.00,0.0517
2618.00,0.0517
2617.00,0.0518
2616.00,0.0518
2615.00,0.0517
2614.00,0.0517
2613.00,0.0517
2612.00,0.0516
2611.00,0.0516
2610.00,0.0516
2609.00,0.0516
2608.00,0.0516
2607.00,0.0516
2606.00,0.0516
2605.00,0.0516
2604.00,0.0516
2603.00,0.0516
2602.00,0.0516
2601.00,0.0516
2600.00,0.0516
2599.00,0.0516
2598.00,0.0516
2597.00,0.0515
2596.00,0.0515
2595.00,0.0515
2594.00,0.0515
2593.00,0.0515
2592.00,0.0516
2591.00,0.0516
2590.00,0.0515
2589.00,0.0515
2588.00,0.0514
2587.00,0.0514
2586.00,0.0514
2585.00,0.0514
2584.00,0.0514
2583.00,0.0515
2582.00,0.0515
2581.00,0.0515
2580.00,0.0514
2579.00,0.0514
2578.00,0.0514
2577.00,0.0514
2576.00,0.0514
2575.00,0.0514
2574.00,0.0514
2573.00,0.0514
2572.00,0.0513
2571.00,0.0513
2570.00,0.0513
2569.00,0.0512
2568.00,0.0512
2567.00,0.0512
2566.00,0.0512
2565.00,0.0513
2564.00,0.0513
2563.00,0.0513
2562.00,0.0513
2561.00,0.0513
2560.00,0.0512
2559.00,0.0512
2558.00,0.0512
2557.00,0.0513
2556.00,0.0513
2555.00,0.0513
2554.00,0.0513
2553.00,0.0513
2552.00,0.0512
2551.00,0.0512
2550.00,0.0512
2549.00,0.0512
2548.00,0.0511
2547.00,0.0511
2546.00,0.0510
2545.00,0.0509
2544.00,0.0509
2543.00,0.0509
2542.00,0.0510
2541.00,0.0510
2540.00,0.0510
2539.00,0.0510
2538.00,0.0510
2537.00,0.0510
2536.00,0.0511
2535.00,0.0511
2534.00,0.0511
2533.00,0.0510
2532.00,0.0510
2531.00,0.0510
2530.00,0.0510
2529.00,0.0510
2528.00,0.0510
2527.00,0.0510
2526.00,0.0510
2525.00,0.0509
2524.00,0.0509
2523.00,0.0509
2522.00,0.0508
2521.00,0.0508
2520.00,0.0508
2519.00,0.0508
2518.00,0.0507
2517.00,0.0507
2516.00,0.0507
2515.00,0.0507
2514.00,0.0507
2513.00,0.0508
2512.00,0.0508
2511.00,0.0508
2510.00,0.0508
2509.00,0.0507
2508.00,0.0506
2507.00,0.0506
2506.00,0.0506
2505.00,0.0506
2504.00,0.0506
2503.00,0.0506
2502.00,0.0506
2501.00,0.0507
2500.00,0.0506
2499.00,0.0506
2498.00,0.0505
2497.00,0.0504
2496.00,0.0504
2495.00,0.0503
2494.00,0.0503
2493.00,0.0503
2492.00,0.0503
2491.00,0.0504
2490.00,0.0504
2489.00,0.0504
2488.00,0.0504
2487.00,0.0503
2486.00,0.0503
2485.00,0.0502
2484.00,0.0502
2483.00,0.0503
2482.00,0.0503
2481.00,0.0503
2480.00,0.0503
2479.00,0.0503
2478.00,0.0503
2477.00,0.0503
2476.00,0.0502
2475.00,0.0502
2474.00,0.0502
2473.00,0.0502
2472.00,0.0502
2471.00,0.0501
2470.00,0.0501
2469.00,0.0501
2468.00,0.0501
2467.00,0.0500
2466.00,0.0500
2465.00,0.0500
2464.00,0.0500
2463.00,0.0500
2462.00,0.0500
2461.00,0.0500
2460.00,0.0500
2459.00,0.0500
2458.00,0.0500
2457.00,0.0500
2456.00,0.0499
2455.00,0.0499
2454.00,0.0498
2453.00,0.0499
2452.00,0.0499
2451.00,0.0500
2450.00,0.0500
2449.00,0.0500
2448.00,0.0499
2447.00,0.0499
2446.00,0.0498
2445.00,0.0498
2444.00,0.0498
2443.00,0.0497
2442.00,0.0497
2441.00,0.0497
2440.00,0.0496
2439.00,0.0496
2438.00,0.0495
2437.00,0.0495
2436.00,0.0494
2435.00,0.0494
2434.00,0.0494
2433.00,0.0494
2432.00,0.0494
2431.00,0.0494
2430.00,0.0494
2429.00,0.0494
2428.00,0.0494
2427.00,0.0494
2426.00,0.0493
2425.00,0.0493
2424.00,0.0493
2423.00,0.0492
2422.00,0.0492
2421.00,0.0491
2420.00,0.0491
2419.00,0.0491
2418.00,0.0491
2417.00,0.0491
2416.00,0.0491
2415.00,0.0491
2414.00,0.0491
2413.00,0.0491
2412.00,0.0490
2411.00,0.0490
2410.00,0.0489
2409.00,0.0489
2408.00,0.0488
2407.00,0.0488
2406.00,0.0488
2405.00,0.0488
2404.00,0.0488
2403.00,0.0488
2402.00,0.0487
2401.00,0.0486
2400.00,0.0486
2399.00,0.0486
2398.00,0.0485
2397.00,0.0485
2396.00,0.0485
2395.00,0.0485
2394.00,0.0485
2393.00,0.0484
2392.00,0.0484
2391.00,0.0483
2390.00,0.0482
2389.00,0.0481
2388.00,0.0480
2387.00,0.0479
2386.00,0.0477
2385.00,0.0475
2384.00,0.0473
2383.00,0.0471
2382.00,0.0470
2381.00,0.0470
2380.00,0.0471
2379.00,0.0472
2378.00,0.0474
2377.00,0.0476
2376.00,0.0478
2375.00,0.0479
2374.00,0.0480
2373.00,0.0480
2372.00,0.0480
2371.00,0.0479
2370.00,0.0479
2369.00,0.0479
2368.00,0.0478
2367.00,0.0478
2366.00,0.0478
2365.00,0.0478
2364.00,0.0479
2363.00,0.0481
2362.00,0.0483
2361.00,0.0486
2360.00,0.0488
2359.00,0.0489
2358.00,0.0488
2357.00,0.0488
2356.00,0.0487
2355.00,0.0487
2354.00,0.0488
2353.00,0.0488
2352.00,0.0488
2351.00,0.0486
2350.00,0.0481
2349.00,0.0473
2348.00,0.0467
2347.00,0.0463
2346.00,0.0464
2345.00,0.0469
2344.00,0.0474
2343.00,0.0477
2342.00,0.0478
2341.00,0.0478
2340.00,0.0478
2339.00,0.0479
2338.00,0.0479
2337.00,0.0479
2336.00,0.0478
2335.00,0.0477
2334.00,0.0477
2333.00,0.0477
2332.00,0.0477
2331.00,0.0477
2330.00,0.0479
2329.00,0.0481
2328.00,0.0482
2327.00,0.0481
2326.00,0.0480
2325.00,0.0478
2324.00,0.0477
2323.00,0.0478
2322.00,0.0478
2321.00,0.0478
2320.00,0.0478
2319.00,0.0476
2318.00,0.0475
2317.00,0.0474
2316.00,0.0473
2315.00,0.0472
2314.00,0.0470
2313.00,0.0470
2312.00,0.0470
2311.00,0.0470
2310.00,0.0469
2309.00,0.0468
2308.00,0.0468
2307.00,0.0467
2306.00,0.0468
2305.00,0.0467
2304.00,0.0467
2303.00,0.0467
2302.00,0.0466
2301.00,0.0466
2300.00,0.0465
2299.00,0.0464
2298.00,0.0464
2297.00,0.0463
2296.00,0.0463
2295.00,0.0463
2294.00,0.0463
2293.00,0.0464
2292.00,0.0464
2291.00,0.0465
2290.00,0.0465
2289.00,0.0465
2288.00,0.0465
2287.00,0.0464
2286.00,0.0464
2285.00,0.0464
2284.00,0.0463
2283.00,0.0463
2282.00,0.0462
2281.00,0.0463
2280.00,0.0463
2279.00,0.0464
2278.00,0.0463
2277.00,0.0463
2276.00,0.0462
2275.00,0.0462
2274.00,0.0462
2273.00,0.0462
2272.00,0.0462
2271.00,0.0462
2270.00,0.0461
2269.00,0.0460
2268.00,0.0460
2267.00,0.0460
2266.00,0.0460
2265.00,0.0460
2264.00,0.0460
2263.00,0.0460
2262.00,0.0460
2261.00,0.0460
2260.00,0.0461
2259.00,0.0462
2258.00,0.0463
2257.00,0.0463
2256.00,0.0463
2255.00,0.0462
2254.00,0.0460
2253.00,0.0458
2252.00,0.0457
2251.00,0.0457
2250.00,0.0458
2249.00,0.0459
2248.00,0.0459
2247.00,0.0459
2246.00,0.0458
2245.00,0.0457
2244.00,0.0456
2243.00,0.0456
2242.00,0.0456
2241.00,0.0456
2240.00,0.0456
2239.00,0.0456
2238.00,0.0455
2237.00,0.0454
2236.00,0.0454
2235.00,0.0455
2234.00,0.0455
2233.00,0.0455
2232.00,0.0455
2231.00,0.0455
2230.00,0.0456
2229.00,0.0457
2228.00,0.0457
2227.00,0.0458
2226.00,0.0457
2225.00,0.0456
2224.00,0.0454
2223.00,0.0453
2222.00,0.0453
2221.00,0.0453
2220.00,0.0453
2219.00,0.0453
2218.00,0.0453
2217.00,0.0454
2216.00,0.0454
2215.00,0.0454
2214.00,0.0454
2213.00,0.0454
2212.00,0.0453
2211.00,0.0452
2210.00,0.0451
2209.00,0.0451
2208.00,0.0450
2207.00,0.0450
2206.00,0.0451
2205.00,0.0452
2204.00,0.0452
2203.00,0.0452
2202.00,0.0451
2201.00,0.0450
2200.00,0.0450
2199.00,0.0450
2198.00,0.0451
2197.00,0.0451
2196.00,0.0451
2195.00,0.0452
2194.00,0.0451
2193.00,0.0450
2192.00,0.0449
2191.00,0.0449
2190.00,0.0449
2189.00,0.0451
2188.00,0.0451
2187.00,0.0451
2186.00,0.0449
2185.00,0.0448
2184.00,0.0447
2183.00,0.0448
2182.00,0.0448
2181.00,0.0449
2180.00,0.0449
2179.00,0.0448
2178.00,0.0448
2177.00,0.0446
2176.00,0.0445
2175.00,0.0445
2174.00,0.0445
2173.00,0.0446
2172.00,0.0446
2171.00,0.0445
2170.00,0.0443
2169.00,0.0442
2168.00,0.0442
2167.00,0.0444
2166.00,0.0446
2165.00,0.0447
2164.00,0.0448
2163.00,0.0448
2162.00,0.0446
2161.00,0.0443
2160.00,0.0439
2159.00,0.0435
2158.00,0.0435
2157.00,0.0436
2156.00,0.0438
2155.00,0.0439
2154.00,0.0439
2153.00,0.0438
2152.00,0.0437
2151.00,0.0436
2150.00,0.0436
2149.00,0.0436
2148.00,0.0434
2147.00,0.0432
2146.00,0.0430
2145.00,0.0429
2144.00,0.0428
2143.00,0.0428
2142.00,0.0429
2141.00,0.0430
2140.00,0.0430
2139.00,0.0429
2138.00,0.0428
2137.00,0.0428
2136.00,0.0427
2135.00,0.0426
2134.00,0.0426
2133.00,0.0425
2132.00,0.0425
2131.00,0.0424
2130.00,0.0425
2129.00,0.0425
2128.00,0.0424
2127.00,0.0423
2126.00,0.0423
2125.00,0.0422
2124.00,0.0422
2123.00,0.0422
2122.00,0.0422
2121.00,0.0423
2120.00,0.0424
2119.00,0.0425
2118.00,0.0425
2117.00,0.0425
2116.00,0.0425
2115.00,0.0424
2114.00,0.0424
2113.00,0.0423
2112.00,0.0421
2111.00,0.0420
2110.00,0.0419
2109.00,0.0420
2108.00,0.0420
2107.00,0.0421
2106.00,0.0421
2105.00,0.0420
2104.00,0.0419
2103.00,0.0418
2102.00,0.0417
2101.00,0.0417
2100.00,0.0417
2099.00,0.0418
2098.00,0.0419
2097.00,0.0419
2096.00,0.0418
2095.00,0.0418
2094.00,0.0417
2093.00,0.0417
2092.00,0.0417
2091.00,0.0417
2090.00,0.0416
2089.00,0.0416
2088.00,0.0416
2087.00,0.0416
2086.00,0.0416
2085.00,0.0416
2084.00,0.0415
2083.00,0.0415
2082.00,0.0414
2081.00,0.0414
2080.00,0.0414
2079.00,0.0413
2078.00,0.0413
2077.00,0.0414
2076.00,0.0414
2075.00,0.0414
2074.00,0.0414
2073.00,0.0413
2072.00,0.0412
2071.00,0.0411
2070.00,0.0412
2069.00,0.0413
2068.00,0.0413
2067.00,0.0413
2066.00,0.0412
2065.00,0.0411
2064.00,0.0411
2063.00,0.0410
2062.00,0.0410
2061.00,0.0410
2060.00,0.0410
2059.00,0.0410
2058.00,0.0410
2057.00,0.0411
2056.00,0.0411
2055.00,0.0410
2054.00,0.0410
2053.00,0.0411
2052.00,0.0412
2051.00,0.0413
2050.00,0.0413
2049.00,0.0412
2048.00,0.0412
2047.00,0.0411
2046.00,0.0412
2045.00,0.0412
2044.00,0.0411
2043.00,0.0409
2042.00,0.0408
2041.00,0.0408
2040.00,0.0408
2039.00,0.0408
2038.00,0.0408
2037.00,0.0408
2036.00,0.0407
2035.00,0.0406
2034.00,0.0406
2033.00,0.0408
2032.00,0.0409
2031.00,0.0409
2030.00,0.0410
2029.00,0.0410
2028.00,0.0410
2027.00,0.0409
2026.00,0.0407
2025.00,0.0405
2024.00,0.0403
2023.00,0.0403
2022.00,0.0403
2021.00,0.0404
2020.00,0.0404
2019.00,0.0403
2018.00,0.0401
2017.00,0.0399
2016.00,0.0398
2015.00,0.0399
2014.00,0.0400
2013.00,0.0401
2012.00,0.0399
2011.00,0.0397
2010.00,0.0395
2009.00,0.0394
2008.00,0.0394
2007.00,0.0394
2006.00,0.0395
2005.00,0.0395
2004.00,0.0395
2003.00,0.0395
2002.00,0.0396
2001.00,0.0397
2000.00,0.0397
1999.00,0.0395
1998.00,0.0394
1997.00,0.0393
1996.00,0.0393
1995.00,0.0394
1994.00,0.0396
1993.00,0.0397
1992.00,0.0396
1991.00,0.0394
1990.00,0.0392
1989.00,0.0391
1988.00,0.0390
1987.00,0.0389
1986.00,0.0388
1985.00,0.0388
1984.00,0.0389
1983.00,0.0390
1982.00,0.0391
1981.00,0.0392
1980.00,0.0392
1979.00,0.0392
1978.00,0.0391
1977.00,0.0391
1976.00,0.0392
1975.00,0.0393
1974.00,0.0393
1973.00,0.0392
1972.00,0.0391
1971.00,0.0389
1970.00,0.0389
1969.00,0.0390
1968.00,0.0390
1967.00,0.0390
1966.00,0.0388
1965.00,0.0386
1964.00,0.0384
1963.00,0.0384
1962.00,0.0385
1961.00,0.0384
1960.00,0.0383
1959.00,0.0380
1958.00,0.0378
1957.00,0.0376
1956.00,0.0374
1955.00,0.0373
1954.00,0.0372
1953.00,0.0372
1952.00,0.0373
1951.00,0.0372
1950.00,0.0371
1949.00,0.0370
1948.00,0.0370
1947.00,0.0370
1946.00,0.0372
1945.00,0.0373
1944.00,0.0373
1943.00,0.0372
1942.00,0.0370
1941.00,0.0369
1940.00,0.0369
1939.00,0.0370
1938.00,0.0369
1937.00,0.0369
1936.00,0.0368
1935.00,0.0366
1934.00,0.0365
1933.00,0.0365
1932.00,0.0364
1931.00,0.0364
1930.00,0.0363
1929.00,0.0363
1928.00,0.0362
1927.00,0.0362
1926.00,0.0364
1925.00,0.0366
1924.00,0.0367
1923.00,0.0366
1922.00,0.0364
1921.00,0.0363
1920.00,0.0362
1919.00,0.0360
1918.00,0.0358
1917.00,0.0356
1916.00,0.0356
1915.00,0.0355
1914.00,0.0355
1913.00,0.0355
1912.00,0.0355
1911.00,0.0354
1910.00,0.0354
1909.00,0.0353
1908.00,0.0352
1907.00,0.0351
1906.00,0.0350
1905.00,0.0349
1904.00,0.0349
1903.00,0.0348
1902.00,0.0348
1901.00,0.0347
1900.00,0.0346
1899.00,0.0345
1898.00,0.0344
1897.00,0.0344
1896.00,0.0344
1895.00,0.0344
1894.00,0.0344
1893.00,0.0344
1892.00,0.0344
1891.00,0.0343
1890.00,0.0342
1889.00,0.0340
1888.00,0.0339
1887.00,0.0338
1886.00,0.0338
1885.00,0.0338
1884.00,0.0337
1883.00,0.0337
1882.00,0.0336
1881.00,0.0336
1880.00,0.0335
1879.00,0.0334
1878.00,0.0333
1877.00,0.0332
1876.00,0.0332
1875.00,0.0331
1874.00,0.0331
1873.00,0.0332
1872.00,0.0334
1871.00,0.0334
1870.00,0.0332
1869.00,0.0330
1868.00,0.0328
1867.00,0.0327
1866.00,0.0326
1865.00,0.0327
1864.00,0.0326
1863.00,0.0325
1862.00,0.0323
1861.00,0.0323
1860.00,0.0322
1859.00,0.0321
1858.00,0.0320
1857.00,0.0320
1856.00,0.0319
1855.00,0.0319
1854.00,0.0318
1853.00,0.0317
1852.00,0.0316
1851.00,0.0315
1850.00,0.0315
1849.00,0.0315
1848.00,0.0316
1847.00,0.0317
1846.00,0.0316
1845.00,0.0313
1844.00,0.0309
1843.00,0.0306
1842.00,0.0306
1841.00,0.0309
1840.00,0.0310
1839.00,0.0309
1838.00,0.0308
1837.00,0.0307
1836.00,0.0306
1835.00,0.0306
1834.00,0.0306
1833.00,0.0307
1832.00,0.0309
1831.00,0.0307
1830.00,0.0304
1829.00,0.0301
1828.00,0.0301
1827.00,0.0302
1826.00,0.0301
1825.00,0.0299
1824.00,0.0296
1823.00,0.0295
1822.00,0.0294
1821.00,0.0294
1820.00,0.0293
1819.00,0.0292
1818.00,0.0290
1817.00,0.0290
1816.00,0.0290
1815.00,0.0290
1814.00,0.0290
1813.00,0.0290
1812.00,0.0289
1811.00,0.0288
1810.00,0.0287
1809.00,0.0286
1808.00,0.0286
1807.00,0.0286
1806.00,0.0286
1805.00,0.0287
1804.00,0.0289
1803.00,0.0290
1802.00,0.0290
1801.00,0.0289
1800.00,0.0289
1799.00,0.0288
1798.00,0.0288
1797.00,0.0289
1796.00,0.0291
1795.00,0.0293
1794.00,0.0293
1793.00,0.0292
1792.00,0.0290
1791.00,0.0289
1790.00,0.0290
1789.00,0.0292
1788.00,0.0295
1787.00,0.0296
1786.00,0.0297
1785.00,0.0298
1784.00,0.0300
1783.00,0.0302
1782.00,0.0305
1781.00,0.0307
1780.00,0.0309
1779.00,0.0310
1778.00,0.0313
1777.00,0.0317
1776.00,0.0322
1775.00,0.0327
1774.00,0.0330
1773.00,0.0330
1772.00,0.0330
1771.00,0.0332
1770.00,0.0335
1769.00,0.0339
1768.00,0.0341
1767.00,0.0344
1766.00,0.0348
1765.00,0.0353
1764.00,0.0359
1763.00,0.0362
1762.00,0.0364
1761.00,0.0366
1760.00,0.0370
1759.00,0.0375
1758.00,0.0380
1757.00,0.0383
1756.00,0.0385
1755.00,0.0389
1754.00,0.0394
1753.00,0.0399
1752.00,0.0402
1751.00,0.0407
1750.00,0.0412
1749.00,0.0418
1748.00,0.0424
1747.00,0.0429
1746.00,0.0433
1745.00,0.0438
1744.00,0.0443
1743.00,0.0448
1742.00,0.0452
1741.00,0.0455
1740.00,0.0458
1739.00,0.0461
1738.00,0.0465
1737.00,0.0471
1736.00,0.0476
1735.00,0.0477
1734.00,0.0479
1733.00,0.0482
1732.00,0.0488
1731.00,0.0495
1730.00,0.0500
1729.00,0.0503
1728.00,0.0505
1727.00,0.0507
1726.00,0.0509
1725.00,0.0512
1724.00,0.0514
1723.00,0.0517
1722.00,0.0519
1721.00,0.0522
1720.00,0.0524
1719.00,0.0522
1718.00,0.0521
1717.00,0.0522
1716.00,0.0524
1715.00,0.0526
1714.00,0.0527
1713.00,0.0527
1712.00,0.0527
1711.00,0.0526
1710.00,0.0526
1709.00,0.0526
1708.00,0.0527
1707.00,0.0528
1706.00,0.0527
1705.00,0.0527
1704.00,0.0527
1703.00,0.0528
1702.00,0.0526
1701.00,0.0520
1700.00,0.0514
1699.00,0.0512
1698.00,0.0516
1697.00,0.0519
1696.00,0.0516
1695.00,0.0510
1694.00,0.0508
1693.00,0.0512
1692.00,0.0515
1691.00,0.0516
1690.00,0.0516
1689.00,0.0517
1688.00,0.0518
1687.00,0.0520
1686.00,0.0518
1685.00,0.0515
1684.00,0.0515
1683.00,0.0516
1682.00,0.0520
1681.00,0.0524
1680.00,0.0527
1679.00,0.0528
1678.00,0.0529
1677.00,0.0530
1676.00,0.0530
1675.00,0.0531
1674.00,0.0533
1673.00,0.0538
1672.00,0.0543
1671.00,0.0548
1670.00,0.0551
1669.00,0.0555
1668.00,0.0557
1667.00,0.0560
1666.00,0.0563
1665.00,0.0567
1664.00,0.0570
1663.00,0.0574
1662.00,0.0578
1661.00,0.0581
1660.00,0.0585
1659.00,0.0589
1658.00,0.0592
1657.00,0.0596
1656.00,0.0601
1655.00,0.0603
1654.00,0.0605
1653.00,0.0612
1652.00,0.0614
1651.00,0.0619
1650.00,0.0627
1649.00,0.0636
1648.00,0.0642
1647.00,0.0648
1646.00,0.0653
1645.00,0.0655
1644.00,0.0658
1643.00,0.0663
1642.00,0.0668
1641.00,0.0673
1640.00,0.0677
1639.00,0.0681
1638.00,0.0686
1637.00,0.0692
1636.00,0.0700
1635.00,0.0708
1634.00,0.0712
1633.00,0.0717
1632.00,0.0722
1631.00,0.0727
1630.00,0.0733
1629.00,0.0740
1628.00,0.0747
1627.00,0.0753
1626.00,0.0759
1625.00,0.0764
1624.00,0.0771
1623.00,0.0779
1622.00,0.0785
1621.00,0.0789
1620.00,0.0792
1619.00,0.0795
1618.00,0.0798
1617.00,0.0805
1616.00,0.0812
1615.00,0.0819
1614.00,0.0824
1613.00,0.0829
1612.00,0.0833
1611.00,0.0837
1610.00,0.0843
1609.00,0.0850
1608.00,0.0856
1607.00,0.0861
1606.00,0.0866
1605.00,0.0869
1604.00,0.0873
1603.00,0.0878
1602.00,0.0883
1601.00,0.0888
1600.00,0.0891
1599.00,0.0895
1598.00,0.0898
1597.00,0.0902
1596.00,0.0906
1595.00,0.0910
1594.00,0.0914
1593.00,0.0916
1592.00,0.0919
1591.00,0.0922
1590.00,0.0925
1589.00,0.0928
1588.00,0.0930
1587.00,0.0933
1586.00,0.0935
1585.00,0.0936
1584.00,0.0937
1583.00,0.0939
1582.00,0.0941
1581.00,0.0941
1580.00,0.0941
1579.00,0.0941
1578.00,0.0940
1577.00,0.0941
1576.00,0.0944
1575.00,0.0947
1574.00,0.0947
1573.00,0.0946
1572.00,0.0944
1571.00,0.0943
1570.00,0.0943
1569.00,0.0945
1568.00,0.0944
1567.00,0.0943
1566.00,0.0941
1565.00,0.0938
1564.00,0.0935
1563.00,0.0932
1562.00,0.0927
1561.00,0.0918
1560.00,0.0912
1559.00,0.0923
1558.00,0.0928
1557.00,0.0921
1556.00,0.0916
1555.00,0.0913
1554.00,0.0909
1553.00,0.0905
1552.00,0.0902
1551.00,0.0899
1550.00,0.0896
1549.00,0.0891
1548.00,0.0885
1547.00,0.0880
1546.00,0.0875
1545.00,0.0871
1544.00,0.0868
1543.00,0.0864
1542.00,0.0857
1541.00,0.0852
1540.00,0.0852
1539.00,0.0849
1538.00,0.0843
1537.00,0.0838
1536.00,0.0836
1535.00,0.0832
1534.00,0.0829
1533.00,0.0826
1532.00,0.0822
1531.00,0.0817
1530.00,0.0812
1529.00,0.0807
1528.00,0.0804
1527.00,0.0800
1526.00,0.0797
1525.00,0.0792
1524.00,0.0788
1523.00,0.0784
1522.00,0.0781
1521.00,0.0779
1520.00,0.0777
1519.00,0.0774
1518.00,0.0772
1517.00,0.0770
1516.00,0.0767
1515.00,0.0762
1514.00,0.0756
1513.00,0.0752
1512.00,0.0749
1511.00,0.0747
1510.00,0.0745
1509.00,0.0744
1508.00,0.0743
1507.00,0.0744
1506.00,0.0738
1505.00,0.0728
1504.00,0.0723
1503.00,0.0722
1502.00,0.0720
1501.00,0.0716
1500.00,0.0713
1499.00,0.0710
1498.00,0.0707
1497.00,0.0706
1496.00,0.0706
1495.00,0.0706
1494.00,0.0706
1493.00,0.0707
1492.00,0.0707
1491.00,0.0709
1490.00,0.0711
1489.00,0.0713
1488.00,0.0713
1487.00,0.0710
1486.00,0.0707
1485.00,0.0705
1484.00,0.0703
1483.00,0.0703
1482.00,0.0703
1481.00,0.0703
1480.00,0.0704
1479.00,0.0703
1478.00,0.0703
1477.00,0.0704
1476.00,0.0705
1475.00,0.0705
1474.00,0.0705
1473.00,0.0707
1472.00,0.0708
1471.00,0.0707
1470.00,0.0706
1469.00,0.0707
1468.00,0.0707
1467.00,0.0708
1466.00,0.0709
1465.00,0.0711
1464.00,0.0713
1463.00,0.0713
1462.00,0.0714
1461.00,0.0714
1460.00,0.0715
1459.00,0.0716
1458.00,0.0717
1457.00,0.0720
1456.00,0.0722
1455.00,0.0723
1454.00,0.0726
1453.00,0.0728
1452.00,0.0730
1451.00,0.0731
1450.00,0.0733
1449.00,0.0736
1448.00,0.0740
1447.00,0.0743
1446.00,0.0743
1445.00,0.0744
1444.00,0.0745
1443.00,0.0747
1442.00,0.0749
1441.00,0.0750
1440.00,0.0752
1439.00,0.0753
1438.00,0.0754
1437.00,0.0757
1436.00,0.0763
1435.00,0.0766
1434.00,0.0768
1433.00,0.0770
1432.00,0.0772
1431.00,0.0774
1430.00,0.0776
1429.00,0.0778
1428.00,0.0780
1427.00,0.0780
1426.00,0.0781
1425.00,0.0782
1424.00,0.0785
1423.00,0.0788
1422.00,0.0788
1421.00,0.0786
1420.00,0.0787
1419.00,0.0792
1418.00,0.0796
1417.00,0.0798
1416.00,0.0800
1415.00,0.0800
1414.00,0.0800
1413.00,0.0800
1412.00,0.0801
1411.00,0.0803
1410.00,0.0803
1409.00,0.0803
1408.00,0.0804
1407.00,0.0806
1406.00,0.0808
1405.00,0.0811
1404.00,0.0814
1403.00,0.0816
1402.00,0.0817
1401.00,0.0818
1400.00,0.0821
1399.00,0.0825
1398.00,0.0828
1397.00,0.0830
1396.00,0.0832
1395.00,0.0835
1394.00,0.0835
1393.00,0.0835
1392.00,0.0835
1391.00,0.0835
1390.00,0.0835
1389.00,0.0836
1388.00,0.0839
1387.00,0.0842
1386.00,0.0844
1385.00,0.0845
1384.00,0.0846
1383.00,0.0846
1382.00,0.0847
1381.00,0.0848
1380.00,0.0849
1379.00,0.0850
1378.00,0.0851
1377.00,0.0852
1376.00,0.0853
1375.00,0.0856
1374.00,0.0858
1373.00,0.0858
1372.00,0.0856
1371.00,0.0855
1370.00,0.0855
1369.00,0.0855
1368.00,0.0855
1367.00,0.0855
1366.00,0.0854
1365.00,0.0853
1364.00,0.0854
1363.00,0.0856
1362.00,0.0857
1361.00,0.0857
1360.00,0.0855
1359.00,0.0854
1358.00,0.0852
1357.00,0.0851
1356.00,0.0850
1355.00,0.0850
1354.00,0.0849
1353.00,0.0848
1352.00,0.0847
1351.00,0.0846
1350.00,0.0845
1349.00,0.0844
1348.00,0.0844
1347.00,0.0844
1346.00,0.0843
1345.00,0.0842
1344.00,0.0841
1343.00,0.0841
1342.00,0.0840
1341.00,0.0841
1340.00,0.0843
1339.00,0.0844
1338.00,0.0843
1337.00,0.0841
1336.00,0.0839
1335.00,0.0837
1334.00,0.0835
1333.00,0.0833
1332.00,0.0832
1331.00,0.0831
1330.00,0.0830
1329.00,0.0828
1328.00,0.0826
1327.00,0.0825
1326.00,0.0824
1325.00,0.0823
1324.00,0.0821
1323.00,0.0820
1322.00,0.0819
1321.00,0.0818
1320.00,0.0817
1319.00,0.0817
1318.00,0.0817
1317.00,0.0817
1316.00,0.0816
1315.00,0.0816
1314.00,0.0815
1313.00,0.0814
1312.00,0.0813
1311.00,0.0812
1310.00,0.0811
1309.00,0.0810
1308.00,0.0810
1307.00,0.0810
1306.00,0.0810
1305.00,0.0809
1304.00,0.0809
1303.00,0.0809
1302.00,0.0809
1301.00,0.0809
1300.00,0.0809
1299.00,0.0810
1298.00,0.0809
1297.00,0.0809
1296.00,0.0810
1295.00,0.0810
1294.00,0.0810
1293.00,0.0811
1292.00,0.0811
1291.00,0.0812
1290.00,0.0813
1289.00,0.0814
1288.00,0.0815
1287.00,0.0816
1286.00,0.0816
1285.00,0.0816
1284.00,0.0817
1283.00,0.0817
1282.00,0.0818
1281.00,0.0819
1280.00,0.0820
1279.00,0.0821
1278.00,0.0822
1277.00,0.0822
1276.00,0.0823
1275.00,0.0824
1274.00,0.0825
1273.00,0.0826
1272.00,0.0827
1271.00,0.0828
1270.00,0.0829
1269.00,0.0830
1268.00,0.0830
1267.00,0.0831
1266.00,0.0831
1265.00,0.0831
1264.00,0.0831
1263.00,0.0832
1262.00,0.0833
1261.00,0.0834
1260.00,0.0835
1259.00,0.0835
1258.00,0.0836
1257.00,0.0837
1256.00,0.0838
1255.00,0.0839
1254.00,0.0839
1253.00,0.0840
1252.00,0.0841
1251.00,0.0842
1250.00,0.0842
1249.00,0.0842
1248.00,0.0841
1247.00,0.0841
1246.00,0.0841
1245.00,0.0841
1244.00,0.0841
1243.00,0.0840
1242.00,0.0840
1241.00,0.0840
1240.00,0.0840
1239.00,0.0839
1238.00,0.0838
1237.00,0.0837
1236.00,0.0836
1235.00,0.0835
1234.00,0.0833
1233.00,0.0832
1232.00,0.0831
1231.00,0.0831
1230.00,0.0830
1229.00,0.0829
1228.00,0.0828
1227.00,0.0826
1226.00,0.0825
1225.00,0.0824
1224.00,0.0823
1223.00,0.0822
1222.00,0.0820
1221.00,0.0818
1220.00,0.0817
1219.00,0.0816
1218.00,0.0815
1217.00,0.0814
1216.00,0.0812
1215.00,0.0811
1214.00,0.0810
1213.00,0.0808
1212.00,0.0807
1211.00,0.0806
1210.00,0.0805
1209.00,0.0803
1208.00,0.0802
1207.00,0.0801
1206.00,0.0800
1205.00,0.0799
1204.00,0.0797
1203.00,0.0796
1202.00,0.0795
1201.00,0.0793
1200.00,0.0793
1199.00,0.0792
1198.00,0.0791
1197.00,0.0790
1196.00,0.0789
1195.00,0.0789
1194.00,0.0788
1193.00,0.0787
1192.00,0.0786
1191.00,0.0785
1190.00,0.0784
1189.00,0.0783
1188.00,0.0783
1187.00,0.0783
1186.00,0.0782
1185.00,0.0782
1184.00,0.0781
1183.00,0.0780
1182.00,0.0779
1181.00,0.0778
1180.00,0.0778
1179.00,0.0778
1178.00,0.0778
1177.00,0.0779
1176.00,0.0779
1175.00,0.0779
1174.00,0.0777
1173.00,0.0776
1172.00,0.0775
1171.00,0.0774
1170.00,0.0773
1169.00,0.0773
1168.00,0.0774
1167.00,0.0774
1166.00,0.0774
1165.00,0.0774
1164.00,0.0773
1163.00,0.0772
1162.00,0.0771
1161.00,0.0770
1160.00,0.0770
1159.00,0.0769
1158.00,0.0769
1157.00,0.0768
1156.00,0.0768
1155.00,0.0768
1154.00,0.0768
1153.00,0.0768
1152.00,0.0768
1151.00,0.0767
1150.00,0.0767
1149.00,0.0766
1148.00,0.0767
1147.00,0.0767
1146.00,0.0768
1145.00,0.0768
1144.00,0.0767
1143.00,0.0766
1142.00,0.0764
1141.00,0.0762
1140.00,0.0761
1139.00,0.0761
1138.00,0.0761
1137.00,0.0762
1136.00,0.0762
1135.00,0.0762
1134.00,0.0761
1133.00,0.0761
1132.00,0.0762
1131.00,0.0762
1130.00,0.0762
1129.00,0.0762
1128.00,0.0762
1127.00,0.0763
1126.00,0.0764
1125.00,0.0765
1124.00,0.0765
1123.00,0.0765
1122.00,0.0765
1121.00,0.0766
1120.00,0.0768
1119.00,0.0769
1118.00,0.0770
1117.00,0.0771
1116.00,0.0771
1115.00,0.0771
1114.00,0.0770
1113.00,0.0769
1112.00,0.0769
1111.00,0.0769
1110.00,0.0770
1109.00,0.0771
1108.00,0.0771
1107.00,0.0772
1106.00,0.0773
1105.00,0.0774
1104.00,0.0775
1103.00,0.0776
1102.00,0.0776
1101.00,0.0776
1100.00,0.0776
1099.00,0.0776
1098.00,0.0776
1097.00,0.0776
1096.00,0.0776
1095.00,0.0776
1094.00,0.0776
1093.00,0.0778
1092.00,0.0779
1091.00,0.0781
1090.00,0.0781
1089.00,0.0781
1088.00,0.0781
1087.00,0.0781
1086.00,0.0781
1085.00,0.0781
1084.00,0.0782
1083.00,0.0783
1082.00,0.0784
1081.00,0.0784
1080.00,0.0783
1079.00,0.0782
1078.00,0.0782
1077.00,0.0783
1076.00,0.0785
1075.00,0.0786
1074.00,0.0788
1073.00,0.0788
1072.00,0.0789
1071.00,0.0789
1070.00,0.0789
1069.00,0.0790
1068.00,0.0791
1067.00,0.0791
1066.00,0.0792
1065.00,0.0792
1064.00,0.0792
1063.00,0.0792
1062.00,0.0792
1061.00,0.0793
1060.00,0.0794
1059.00,0.0795
1058.00,0.0796
1057.00,0.0796
1056.00,0.0796
1055.00,0.0796
1054.00,0.0797
1053.00,0.0799
1052.00,0.0801
1051.00,0.0804
1050.00,0.0806
1049.00,0.0807
1048.00,0.0809
1047.00,0.0810
1046.00,0.0812
1045.00,0.0812
1044.00,0.0813
1043.00,0.0814
1042.00,0.0815
1041.00,0.0816
1040.00,0.0817
1039.00,0.0817
1038.00,0.0817
1037.00,0.0818
1036.00,0.0818
1035.00,0.0818
1034.00,0.0818
1033.00,0.0818
1032.00,0.0817
1031.00,0.0815
1030.00,0.0813
1029.00,0.0810
1028.00,0.0808
1027.00,0.0806
1026.00,0.0803
1025.00,0.0801
1024.00,0.0800
1023.00,0.0799
1022.00,0.0798
1021.00,0.0797
1020.00,0.0795
1019.00,0.0794
1018.00,0.0794
1017.00,0.0794
1016.00,0.0795
1015.00,0.0796
1014.00,0.0796
1013.00,0.0796
1012.00,0.0796
1011.00,0.0797
1010.00,0.0798
1009.00,0.0799
1008.00,0.0800
1007.00,0.0801
1006.00,0.0801
1005.00,0.0801
1004.00,0.0800
1003.00,0.0799
1002.00,0.0797
1001.00,0.0795
1000.00,0.0793
999.00,0.0790
998.00,0.0788
997.00,0.0786
996.00,0.0783
995.00,0.0781
994.00,0.0778
993.00,0.0777
992.00,0.0776
991.00,0.0774
990.00,0.0772
989.00,0.0770
988.00,0.0769
987.00,0.0768
986.00,0.0767
985.00,0.0766
984.00,0.0765
983.00,0.0764
982.00,0.0763
981.00,0.0762
980.00,0.0761
979.00,0.0760
978.00,0.0759
977.00,0.0759
976.00,0.0758
975.00,0.0758
974.00,0.0758
973.00,0.0757
972.00,0.0758
971.00,0.0758
970.00,0.0760
969.00,0.0761
968.00,0.0761
967.00,0.0761
966.00,0.0760
965.00,0.0759
964.00,0.0757
963.00,0.0757
962.00,0.0756
961.00,0.0756
960.00,0.0757
959.00,0.0758
958.00,0.0758
957.00,0.0757
956.00,0.0756
955.00,0.0757
954.00,0.0758
953.00,0.0759
952.00,0.0759
951.00,0.0759
950.00,0.0759
949.00,0.0759
948.00,0.0760
947.00,0.0761
946.00,0.0763
945.00,0.0764
944.00,0.0765
943.00,0.0765
942.00,0.0765
941.00,0.0767
940.00,0.0768
939.00,0.0770
938.00,0.0770
937.00,0.0770
936.00,0.0771
935.00,0.0771
934.00,0.0772
933.00,0.0771
932.00,0.0770
931.00,0.0769
930.00,0.0769
929.00,0.0770
928.00,0.0771
927.00,0.0772
926.00,0.0773
925.00,0.0775
924.00,0.0777
923.00,0.0778
922.00,0.0780
921.00,0.0781
920.00,0.0782
919.00,0.0783
918.00,0.0786
917.00,0.0788
916.00,0.0789
915.00,0.0790
914.00,0.0790
913.00,0.0790
912.00,0.0790
911.00,0.0789
910.00,0.0789
909.00,0.0789
908.00,0.0789
907.00,0.0788
906.00,0.0787
905.00,0.0785
904.00,0.0784
903.00,0.0784
902.00,0.0784
901.00,0.0783
900.00,0.0783
899.00,0.0782
898.00,0.0781
897.00,0.0780
896.00,0.0779
895.00,0.0779
894.00,0.0778
893.00,0.0778
892.00,0.0779
891.00,0.0779
890.00,0.0780
889.00,0.0779
888.00,0.0778
887.00,0.0777
886.00,0.0776
885.00,0.0776
884.00,0.0776
883.00,0.0776
882.00,0.0776
881.00,0.0776
880.00,0.0777
879.00,0.0776
878.00,0.0775
877.00,0.0773
876.00,0.0773
875.00,0.0773
874.00,0.0773
873.00,0.0772
872.00,0.0772
871.00,0.0771
870.00,0.0769
869.00,0.0768
868.00,0.0768
867.00,0.0767
866.00,0.0766
865.00,0.0767
864.00,0.0768
863.00,0.0770
862.00,0.0772
861.00,0.0773
860.00,0.0773
859.00,0.0775
858.00,0.0776
857.00,0.0776
856.00,0.0778
855.00,0.0780
854.00,0.0782
853.00,0.0784
852.00,0.0785
851.00,0.0787
850.00,0.0788
849.00,0.0790
848.00,0.0793
847.00,0.0796
846.00,0.0799
845.00,0.0801
844.00,0.0803
843.00,0.0804
842.00,0.0805
841.00,0.0807
840.00,0.0809
839.00,0.0813
838.00,0.0817
837.00,0.0820
836.00,0.0822
835.00,0.0822
834.00,0.0821
833.00,0.0820
832.00,0.0820
831.00,0.0821
830.00,0.0824
829.00,0.0825
828.00,0.0826
827.00,0.0825
826.00,0.0823
825.00,0.0823
824.00,0.0824
823.00,0.0827
822.00,0.0830
821.00,0.0832
820.00,0.0834
819.00,0.0835
818.00,0.0835
817.00,0.0834
816.00,0.0833
815.00,0.0832
814.00,0.0831
813.00,0.0832
812.00,0.0834
811.00,0.0838
810.00,0.0841
809.00,0.0843
808.00,0.0844
807.00,0.0844
806.00,0.0844
805.00,0.0843
804.00,0.0843
803.00,0.0843
802.00,0.0845
801.00,0.0849
800.00,0.0852
799.00,0.0854
798.00,0.0854
797.00,0.0855
796.00,0.0857
795.00,0.0858
794.00,0.0860
793.00,0.0860
792.00,0.0861
791.00,0.0862
790.00,0.0863
789.00,0.0865
788.00,0.0865
787.00,0.0865
786.00,0.0866
785.00,0.0869
784.00,0.0873
783.00,0.0876
782.00,0.0878
781.00,0.0879
780.00,0.0879
779.00,0.0879
778.00,0.0880
777.00,0.0881
776.00,0.0882
775.00,0.0882
774.00,0.0883
773.00,0.0885
772.00,0.0887
771.00,0.0888
770.00,0.0888
769.00,0.0887
768.00,0.0888
767.00,0.0889
766.00,0.0890
765.00,0.0891
764.00,0.0893
763.00,0.0893
762.00,0.0894
761.00,0.0895
760.00,0.0897
759.00,0.0900
758.00,0.0903
757.00,0.0904
756.00,0.0906
755.00,0.0907
754.00,0.0909
753.00,0.0910
752.00,0.0912
751.00,0.0914
750.00,0.0915
749.00,0.0915
748.00,0.0915
747.00,0.0916
746.00,0.0916
745.00,0.0917
744.00,0.0918
743.00,0.0919
742.00,0.0918
741.00,0.0918
740.00,0.0917
739.00,0.0919
738.00,0.0920
737.00,0.0921
736.00,0.0922
735.00,0.0922
734.00,0.0922
733.00,0.0924
732.00,0.0927
731.00,0.0930
730.00,0.0933
729.00,0.0934
728.00,0.0934
727.00,0.0935
726.00,0.0937
725.00,0.0938
724.00,0.0940
723.00,0.0941
722.00,0.0943
721.00,0.0946
720.00,0.0950
719.00,0.0954
718.00,0.0957
717.00,0.0958
716.00,0.0959
715.00,0.0961
714.00,0.0965
713.00,0.0970
712.00,0.0977
711.00,0.0982
710.00,0.0984
709.00,0.0984
708.00,0.0985
707.00,0.0987
706.00,0.0992
705.00,0.0999
704.00,0.1005
703.00,0.1008
702.00,0.1008
701.00,0.1008
700.00,0.1010
699.00,0.1013
698.00,0.1016
697.00,0.1017
696.00,0.1017
695.00,0.1017
694.00,0.1017
693.00,0.1019
692.00,0.1022
691.00,0.1027
690.00,0.1031
689.00,0.1033
688.00,0.1032
687.00,0.1031
686.00,0.1029
685.00,0.1029
684.00,0.1031
683.00,0.1034
682.00,0.1037
681.00,0.1041
680.00,0.1044
679.00,0.1047
678.00,0.1050
677.00,0.1056
676.00,0.1063
675.00,0.1069
674.00,0.1070
673.00,0.1068
672.00,0.1064
671.00,0.1062
670.00,0.1062
669.00,0.1075
668.00,0.1101
667.00,0.1114
666.00,0.1106
665.00,0.1094
664.00,0.1085
663.00,0.1082
662.00,0.1084
661.00,0.1091
660.00,0.1099
659.00,0.1104
658.00,0.1104
657.00,0.1103
656.00,0.1105
655.00,0.1112
654.00,0.1120
653.00,0.1127
652.00,0.1131
651.00,0.1132
650.00,0.1130
