Created as New Dataset,
cm-1,A
4000.00,0.0116
3999.00,0.0116
3998.00,0.0116
3997.00,0.0116
3996.00,0.0116
3995.00,0.0116
3994.00,0.0115
3993.00,0.0116
3992.00,0.0116
3991.00,0.0116
3990.00,0.0115
3989.00,0.0115
3988.00,0.0114
3987.00,0.0114
3986.00,0.0114
3985.00,0.0114
3984.00,0.0114
3983.00,0.0114
3982.00,0.0114
3981.00,0.0114
3980.00,0.0115
3979.00,0.0115
3978.00,0.0114
3977.00,0.0114
3976.00,0.0114
3975.00,0.0114
3974.00,0.0114
3973.00,0.0114
3972.00,0.0114
3971.00,0.0113
3970.00,0.0113
3969.00,0.0112
3968.00,0.0112
3967.00,0.0111
3966.00,0.0111
3965.00,0.0111
3964.00,0.0112
3963.00,0.0112
3962.00,0.0113
3961.00,0.0113
3960.00,0.0113
3959.00,0.0113
3958.00,0.0113
3957.00,0.0112
3956.00,0.0112
3955.00,0.0111
3954.00,0.0111
3953.00,0.0110
3952.00,0.0110
3951.00,0.0109
3950.00,0.0109
3949.00,0.0109
3948.00,0.0109
3947.00,0.0108
3946.00,0.0108
3945.00,0.0108
3944.00,0.0109
3943.00,0.0110
3942.00,0.0109
3941.00,0.0109
3940.00,0.0109
3939.00,0.0110
3938.00,0.0110
3937.00,0.0110
3936.00,0.0109
3935.00,0.0109
3934.00,0.0108
3933.00,0.0108
3932.00,0.0107
3931.00,0.0107
3930.00,0.0106
3929.00,0.0106
3928.00,0.0106
3927.00,0.0106
3926.00,0.0107
3925.00,0.0106
3924.00,0.0105
3923.00,0.0104
3922.00,0.0104
3921.00,0.0105
3920.00,0.0105
3919.00,0.0105
3918.00,0.0106
3917.00,0.0106
3916.00,0.0106
3915.00,0.0106
3914.00,0.0107
3913.00,0.0109
3912.00,0.0109
3911.00,0.0109
3910.00,0.0108
3909.00,0.0106
3908.00,0.0103
3907.00,0.0100
3906.00,0.0098
3905.00,0.0096
3904.00,0.0095
3903.00,0.0094
3902.00,0.0095
3901.00,0.0097
3900.00,0.0099
3899.00,0.0101
3898.00,0.0101
3897.00,0.0101
3896.00,0.0102
3895.00,0.0102
3894.00,0.0102
3893.00,0.0102
3892.00,0.0103
3891.00,0.0102
3890.00,0.0100
3889.00,0.0099
3888.00,0.0100
3887.00,0.0102
3886.00,0.0102
3885.00,0.0100
3884.00,0.0097
3883.00,0.0097
3882.00,0.0099
3881.00,0.0101
3880.00,0.0100
3879.00,0.0099
3878.00,0.0098
3877.00,0.0100
3876.00,0.0101
3875.00,0.0099
3874.00,0.0096
3873.00,0.0092
3872.00,0.0092
3871.00,0.0095
3870.00,0.0095
3869.00,0.0093
3868.00,0.0092
3867.00,0.0094
3866.00,0.0097
3865.00,0.0098
3864.00,0.0097
3863.00,0.0097
3862.00,0.0098
3861.00,0.0099
3860.00,0.0099
3859.00,0.0097
3858.00,0.0094
3857.00,0.0089
3856.00,0.0085
3855.00,0.0086
3854.00,0.0090
3853.00,0.0090
3852.00,0.0085
3851.00,0.0086
3850.00,0.0092
3849.00,0.0097
3848.00,0.0099
3847.00,0.0100
3846.00,0.0099
3845.00,0.0097
3844.00,0.0095
3843.00,0.0092
3842.00,0.0089
3841.00,0.0087
3840.00,0.0088
3839.00,0.0089
3838.00,0.0090
3837.00,0.0089
3836.00,0.0089
3835.00,0.0090
3834.00,0.0093
3833.00,0.0095
3832.00,0.0097
3831.00,0.0097
3830.00,0.0097
3829.00,0.0097
3828.00,0.0098
3827.00,0.0098
3826.00,0.0095
3825.00,0.0091
3824.00,0.0089
3823.00,0.0089
3822.00,0.0090
3821.00,0.0089
3820.00,0.0085
3819.00,0.0085
3818.00,0.0089
3817.00,0.0094
3816.00,0.0096
3815.00,0.0095
3814.00,0.0094
3813.00,0.0097
3812.00,0.0099
3811.00,0.0098
3810.00,0.0096
3809.00,0.0096
3808.00,0.0096
3807.00,0.0095
3806.00,0.0090
3805.00,0.0087
3804.00,0.0087
3803.00,0.0090
3802.00,0.0092
3801.00,0.0090
3800.00,0.0087
3799.00,0.0088
3798.00,0.0092
3797.00,0.0095
3796.00,0.0097
3795.00,0.0097
3794.00,0.0099
3793.00,0.0101
3792.00,0.0102
3791.00,0.0102
3790.00,0.0102
3789.00,0.0101
3788.00,0.0100
3787.00,0.0099
3786.00,0.0098
3785.00,0.0098
3784.00,0.0097
3783.00,0.0095
3782.00,0.0095
3781.00,0.0096
3780.00,0.0097
3779.00,0.0097
3778.00,0.0096
3777.00,0.0097
3776.00,0.0099
3775.00,0.0099
3774.00,0.0097
3773.00,0.0095
3772.00,0.0094
3771.00,0.0094
3770.00,0.0094
3769.00,0.0092
3768.00,0.0092
3767.00,0.0094
3766.00,0.0096
3765.00,0.0096
3764.00,0.0094
3763.00,0.0094
3762.00,0.0094
3761.00,0.0094
3760.00,0.0093
3759.00,0.0092
3758.00,0.0090
3757.00,0.0088
3756.00,0.0086
3755.00,0.0084
3754.00,0.0082
3753.00,0.0079
3752.00,0.0079
3751.00,0.0081
3750.00,0.0081
3749.00,0.0078
3748.00,0.0077
3747.00,0.0079
3746.00,0.0084
3745.00,0.0088
3744.00,0.0087
3743.00,0.0082
3742.00,0.0082
3741.00,0.0085
3740.00,0.0086
3739.00,0.0083
3738.00,0.0081
3737.00,0.0080
3736.00,0.0080
3735.00,0.0080
3734.00,0.0081
3733.00,0.0083
3732.00,0.0086
3731.00,0.0087
3730.00,0.0089
3729.00,0.0091
3728.00,0.0092
3727.00,0.0092
3726.00,0.0090
3725.00,0.0089
3724.00,0.0089
3723.00,0.0090
3722.00,0.0091
3721.00,0.0092
3720.00,0.0093
3719.00,0.0095
3718.00,0.0096
3717.00,0.0095
3716.00,0.0094
3715.00,0.0093
3714.00,0.0091
3713.00,0.0090
3712.00,0.0091
3711.00,0.0092
3710.00,0.0093
3709.00,0.0096
3708.00,0.0098
3707.00,0.0101
3706.00,0.0102
3705.00,0.0103
3704.00,0.0103
3703.00,0.0105
3702.00,0.0107
3701.00,0.0108
3700.00,0.0109
3699.00,0.0110
3698.00,0.0112
3697.00,0.0113
3696.00,0.0113
3695.00,0.0111
3694.00,0.0109
3693.00,0.0106
3692.00,0.0103
3691.00,0.0103
3690.00,0.0104
3689.00,0.0106
3688.00,0.0106
3687.00,0.0107
3686.00,0.0109
3685.00,0.0113
3684.00,0.0114
3683.00,0.0114
3682.00,0.0112
3681.00,0.0109
3680.00,0.0105
3679.00,0.0099
3678.00,0.0097
3677.00,0.0098
3676.00,0.0102
3675.00,0.0100
3674.00,0.0096
3673.00,0.0096
3672.00,0.0100
3671.00,0.0105
3670.00,0.0108
3669.00,0.0110
3668.00,0.0111
3667.00,0.0115
3666.00,0.0119
3665.00,0.0121
3664.00,0.0122
3663.00,0.0123
3662.00,0.0123
3661.00,0.0122
3660.00,0.0120
3659.00,0.0120
3658.00,0.0122
3657.00,0.0124
3656.00,0.0125
3655.00,0.0123
3654.00,0.0120
3653.00,0.0117
3652.00,0.0113
3651.00,0.0110
3650.00,0.0113
3649.00,0.0117
3648.00,0.0121
3647.00,0.0123
3646.00,0.0127
3645.00,0.0131
3644.00,0.0136
3643.00,0.0140
3642.00,0.0141
3641.00,0.0142
3640.00,0.0142
3639.00,0.0142
3638.00,0.0142
3637.00,0.0142
3636.00,0.0142
3635.00,0.0142
3634.00,0.0140
3633.00,0.0137
3632.00,0.0134
3631.00,0.0134
3630.00,0.0140
3629.00,0.0146
3628.00,0.0147
3627.00,0.0147
3626.00,0.0150
3625.00,0.0153
3624.00,0.0154
3623.00,0.0152
3622.00,0.0151
3621.00,0.0152
3620.00,0.0154
3619.00,0.0155
3618.00,0.0155
3617.00,0.0154
3616.00,0.0154
3615.00,0.0154
3614.00,0.0155
3613.00,0.0155
3612.00,0.0156
3611.00,0.0157
3610.00,0.0160
3609.00,0.0163
3608.00,0.0165
3607.00,0.0166
3606.00,0.0167
3605.00,0.0167
3604.00,0.0168
3603.00,0.0168
3602.00,0.0168
3601.00,0.0168
3600.00,0.0168
3599.00,0.0168
3598.00,0.0167
3597.00,0.0168
3596.00,0.0169
3595.00,0.0170
3594.00,0.0172
3593.00,0.0172
3592.00,0.0171
3591.00,0.0170
3590.00,0.0170
3589.00,0.0171
3588.00,0.0174
3587.00,0.0176
3586.00,0.0177
3585.00,0.0179
3584.00,0.0181
3583.00,0.0183
3582.00,0.0184
3581.00,0.0185
3580.00,0.0186
3579.00,0.0187
3578.00,0.0187
3577.00,0.0187
3576.00,0.0187
3575.00,0.0187
3574.00,0.0187
3573.00,0.0187
3572.00,0.0185
3571.00,0.0182
3570.00,0.0179
3569.00,0.0178
3568.00,0.0180
3567.00,0.0183
3566.00,0.0186
3565.00,0.0188
3564.00,0.0190
3563.00,0.0193
3562.00,0.0195
3561.00,0.0196
3560.00,0.0197
3559.00,0.0197
3558.00,0.0197
3557.00,0.0197
3556.00,0.0196
3555.00,0.0196
3554.00,0.0197
3553.00,0.0198
3552.00,0.0199
3551.00,0.0199
3550.00,0.0199
3549.00,0.0198
3548.00,0.0199
3547.00,0.0200
3546.00,0.0201
3545.00,0.0203
3544.00,0.0204
3543.00,0.0205
3542.00,0.0205
3541.00,0.0206
3540.00,0.0207
3539.00,0.0208
3538.00,0.0209
3537.00,0.0209
3536.00,0.0210
3535.00,0.0210
3534.00,0.0210
3533.00,0.0210
3532.00,0.0210
3531.00,0.0210
3530.00,0.0210
3529.00,0.0210
3528.00,0.0210
3527.00,0.0211
3526.00,0.0211
3525.00,0.0212
3524.00,0.0214
3523.00,0.0215
3522.00,0.0215
3521.00,0.0216
3520.00,0.0217
3519.00,0.0218
3518.00,0.0219
3517.00,0.0220
3516.00,0.0220
3515.00,0.0221
3514.00,0.0221
3513.00,0.0221
3512.00,0.0221
3511.00,0.0221
3510.00,0.0222
3509.00,0.0223
3508.00,0.0223
3507.00,0.0223
3506.00,0.0222
3505.00,0.0222
3504.00,0.0223
3503.00,0.0224
3502.00,0.0225
3501.00,0.0226
3500.00,0.0227
3499.00,0.0227
3498.00,0.0228
3497.00,0.0229
3496.00,0.0230
3495.00,0.0230
3494.00,0.0231
3493.00,0.0231
3492.00,0.0231
3491.00,0.0231
3490.00,0.0230
3489.00,0.0230
3488.00,0.0231
3487.00,0.0231
3486.00,0.0232
3485.00,0.0233
3484.00,0.0233
3483.00,0.0234
3482.00,0.0235
3481.00,0.0236
3480.00,0.0237
3479.00,0.0237
3478.00,0.0238
3477.00,0.0238
3476.00,0.0239
3475.00,0.0239
3474.00,0.0239
3473.00,0.0240
3472.00,0.0241
3471.00,0.0241
3470.00,0.0241
3469.00,0.0241
3468.00,0.0241
3467.00,0.0241
3466.00,0.0242
3465.00,0.0242
3464.00,0.0242
3463.00,0.0243
3462.00,0.0243
3461.00,0.0244
3460.00,0.0244
3459.00,0.0244
3458.00,0.0245
3457.00,0.0245
3456.00,0.0246
3455.00,0.0246
3454.00,0.0247
3453.00,0.0248
3452.00,0.0249
3451.00,0.0248
3450.00,0.0248
3449.00,0.0248
3448.00,0.0248
3447.00,0.0248
3446.00,0.0249
3445.00,0.0249
3444.00,0.0250
3443.00,0.0250
3442.00,0.0250
3441.00,0.0250
3440.00,0.0251
3439.00,0.0251
3438.00,0.0251
3437.00,0.0252
3436.00,0.0252
3435.00,0.0252
3434.00,0.0253
3433.00,0.0253
3432.00,0.0254
3431.00,0.0254
3430.00,0.0254
3429.00,0.0254
3428.00,0.0255
3427.00,0.0255
3426.00,0.0255
3425.00,0.0255
3424.00,0.0255
3423.00,0.0255
3422.00,0.0256
3421.00,0.0256
3420.00,0.0257
3419.00,0.0258
3418.00,0.0258
3417.00,0.0259
3416.00,0.0259
3415.00,0.0258
3414.00,0.0259
3413.00,0.0259
3412.00,0.0260
3411.00,0.0260
3410.00,0.0261
3409.00,0.0261
3408.00,0.0261
3407.00,0.0261
3406.00,0.0261
3405.00,0.0262
3404.00,0.0262
3403.00,0.0263
3402.00,0.0263
3401.00,0.0263
3400.00,0.0262
3399.00,0.0262
3398.00,0.0262
3397.00,0.0262
3396.00,0.0262
3395.00,0.0262
3394.00,0.0263
3393.00,0.0263
3392.00,0.0263
3391.00,0.0263
3390.00,0.0263
3389.00,0.0263
3388.00,0.0263
3387.00,0.0264
3386.00,0.0265
3385.00,0.0265
3384.00,0.0266
3383.00,0.0265
3382.00,0.0265
3381.00,0.0264
3380.00,0.0264
3379.00,0.0265
3378.00,0.0265
3377.00,0.0266
3376.00,0.0266
3375.00,0.0266
3374.00,0.0267
3373.00,0.0267
3372.00,0.0267
3371.00,0.0267
3370.00,0.0266
3369.00,0.0266
3368.00,0.0266
3367.00,0.0267
3366.00,0.0267
3365.00,0.0268
3364.00,0.0268
3363.00,0.0269
3362.00,0.0269
3361.00,0.0269
3360.00,0.0269
3359.00,0.0268
3358.00,0.0268
3357.00,0.0269
3356.00,0.0269
3355.00,0.0269
3354.00,0.0269
3353.00,0.0269
3352.00,0.0268
3351.00,0.0268
3350.00,0.0268
3349.00,0.0268
3348.00,0.0268
3347.00,0.0268
3346.00,0.0268
3345.00,0.0268
3344.00,0.0269
3343.00,0.0269
3342.00,0.0269
3341.00,0.0269
3340.00,0.0269
3339.00,0.0269
3338.00,0.0269
3337.00,0.0269
3336.00,0.0269
3335.00,0.0269
3334.00,0.0269
3333.00,0.0270
3332.00,0.0270
3331.00,0.0270
3330.00,0.0270
3329.00,0.0270
3328.00,0.0270
3327.00,0.0270
3326.00,0.0270
3325.00,0.0270
3324.00,0.0270
3323.00,0.0270
3322.00,0.0270
3321.00,0.0269
3320.00,0.0269
3319.00,0.0269
3318.00,0.0269
3317.00,0.0269
3316.00,0.0269
3315.00,0.0269
3314.00,0.0269
3313.00,0.0269
3312.00,0.0269
3311.00,0.0269
3310.00,0.0270
3309.00,0.0270
3308.00,0.0270
3307.00,0.0270
3306.00,0.0270
3305.00,0.0270
3304.00,0.0270
3303.00,0.0270
3302.00,0.0270
3301.00,0.0269
3300.00,0.0269
3299.00,0.0268
3298.00,0.0268
3297.00,0.0268
3296.00,0.0269
3295.00,0.0269
3294.00,0.0269
3293.00,0.0268
3292.00,0.0268
3291.00,0.0268
3290.00,0.0269
3289.00,0.0269
3288.00,0.0269
3287.00,0.0269
3286.00,0.0270
3285.00,0.0270
3284.00,0.0270
3283.00,0.0269
3282.00,0.0269
3281.00,0.0269
3280.00,0.0268
3279.00,0.0268
3278.00,0.0268
3277.00,0.0268
3276.00,0.0269
3275.00,0.0269
3274.00,0.0270
3273.00,0.0270
3272.00,0.0270
3271.00,0.0270
3270.00,0.0270
3269.00,0.0270
3268.00,0.0269
3267.00,0.0269
3266.00,0.0269
3265.00,0.0269
3264.00,0.0269
3263.00,0.0270
3262.00,0.0270
3261.00,0.0269
3260.00,0.0269
3259.00,0.0269
3258.00,0.0269
3257.00,0.0269
3256.00,0.0270
3255.00,0.0270
3254.00,0.0270
3253.00,0.0269
3252.00,0.0269
3251.00,0.0269
3250.00,0.0269
3249.00,0.0269
3248.00,0.0269
3247.00,0.0269
3246.00,0.0269
3245.00,0.0269
3244.00,0.0269
3243.00,0.0270
3242.00,0.0270
3241.00,0.0270
3240.00,0.0270
3239.00,0.0270
3238.00,0.0270
3237.00,0.0270
3236.00,0.0270
3235.00,0.0270
3234.00,0.0270
3233.00,0.0271
3232.00,0.0271
3231.00,0.0271
3230.00,0.0272
3229.00,0.0271
3228.00,0.0271
3227.00,0.0271
3226.00,0.0271
3225.00,0.0271
3224.00,0.0271
3223.00,0.0271
3222.00,0.0271
3221.00,0.0270
3220.00,0.0270
3219.00,0.0270
3218.00,0.0269
3217.00,0.0269
3216.00,0.0269
3215.00,0.0269
3214.00,0.0269
3213.00,0.0269
3212.00,0.0270
3211.00,0.0270
3210.00,0.0271
3209.00,0.0271
3208.00,0.0270
3207.00,0.0271
3206.00,0.0271
3205.00,0.0271
3204.00,0.0271
3203.00,0.0270
3202.00,0.0270
3201.00,0.0270
3200.00,0.0270
3199.00,0.0271
3198.00,0.0271
3197.00,0.0271
3196.00,0.0270
3195.00,0.0270
3194.00,0.0270
3193.00,0.0270
3192.00,0.0270
3191.00,0.0269
3190.00,0.0269
3189.00,0.0269
3188.00,0.0269
3187.00,0.0270
3186.00,0.0270
3185.00,0.0270
3184.00,0.0270
3183.00,0.0270
3182.00,0.0270
3181.00,0.0270
3180.00,0.0270
3179.00,0.0270
3178.00,0.0269
3177.00,0.0269
3176.00,0.0270
3175.00,0.0270
3174.00,0.0270
3173.00,0.0270
3172.00,0.0270
3171.00,0.0270
3170.00,0.0269
3169.00,0.0269
3168.00,0.0268
3167.00,0.0268
3166.00,0.0268
3165.00,0.0268
3164.00,0.0268
3163.00,0.0268
3162.00,0.0268
3161.00,0.0268
3160.00,0.0268
3159.00,0.0269
3158.00,0.0269
3157.00,0.0268
3156.00,0.0267
3155.00,0.0267
3154.00,0.0267
3153.00,0.0267
3152.00,0.0267
3151.00,0.0267
3150.00,0.0267
3149.00,0.0267
3148.00,0.0267
3147.00,0.0267
3146.00,0.0268
3145.00,0.0268
3144.00,0.0267
3143.00,0.0267
3142.00,0.0267
3141.00,0.0266
3140.00,0.0266
3139.00,0.0266
3138.00,0.0266
3137.00,0.0266
3136.00,0.0266
3135.00,0.0265
3134.00,0.0265
3133.00,0.0265
3132.00,0.0265
3131.00,0.0265
3130.00,0.0266
3129.00,0.0266
3128.00,0.0266
3127.00,0.0266
3126.00,0.0266
3125.00,0.0265
3124.00,0.0265
3123.00,0.0265
3122.00,0.0264
3121.00,0.0264
3120.00,0.0264
3119.00,0.0264
3118.00,0.0264
3117.00,0.0264
3116.00,0.0264
3115.00,0.0265
3114.00,0.0265
3113.00,0.0265
3112.00,0.0265
3111.00,0.0265
3110.00,0.0264
3109.00,0.0264
3108.00,0.0264
3107.00,0.0264
3106.00,0.0264
3105.00,0.0264
3104.00,0.0263
3103.00,0.0263
3102.00,0.0264
3101.00,0.0264
3100.00,0.0264
3099.00,0.0264
3098.00,0.0264
3097.00,0.0264
3096.00,0.0263
3095.00,0.0263
3094.00,0.0263
3093.00,0.0263
3092.00,0.0263
3091.00,0.0263
3090.00,0.0263
3089.00,0.0262
3088.00,0.0263
3087.00,0.0263
3086.00,0.0263
3085.00,0.0263
3084.00,0.0262
3083.00,0.0262
3082.00,0.0262
3081.00,0.0262
3080.00,0.0262
3079.00,0.0262
3078.00,0.0261
3077.00,0.0261
3076.00,0.0261
3075.00,0.0262
3074.00,0.0262
3073.00,0.0262
3072.00,0.0262
3071.00,0.0262
3070.00,0.0261
3069.00,0.0260
3068.00,0.0260
3067.00,0.0260
3066.00,0.0261
3065.00,0.0261
3064.00,0.0261
3063.00,0.0261
3062.00,0.0261
3061.00,0.0260
3060.00,0.0260
3059.00,0.0260
3058.00,0.0260
3057.00,0.0260
3056.00,0.0260
3055.00,0.0260
3054.00,0.0260
3053.00,0.0260
3052.00,0.0259
3051.00,0.0259
3050.00,0.0258
3049.00,0.0258
3048.00,0.0258
3047.00,0.0258
3046.00,0.0258
3045.00,0.0258
3044.00,0.0258
3043.00,0.0258
3042.00,0.0257
3041.00,0.0257
3040.00,0.0257
3039.00,0.0257
3038.00,0.0257
3037.00,0.0257
3036.00,0.0257
3035.00,0.0256
3034.00,0.0256
3033.00,0.0256
3032.00,0.0256
3031.00,0.0256
3030.00,0.0256
3029.00,0.0256
3028.00,0.0255
3027.00,0.0255
3026.00,0.0254
3025.00,0.0254
3024.00,0.0254
3023.00,0.0253
3022.00,0.0253
3021.00,0.0253
3020.00,0.0253
3019.00,0.0253
3018.00,0.0253
3017.00,0.0252
3016.00,0.0252
3015.00,0.0252
3014.00,0.0252
3013.00,0.0251
3012.00,0.0251
3011.00,0.0252
3010.00,0.0252
3009.00,0.0251
3008.00,0.0251
3007.00,0.0250
3006.00,0.0250
3005.00,0.0249
3004.00,0.0249
3003.00,0.0249
3002.00,0.0248
3001.00,0.0248
3000.00,0.0247
2999.00,0.0246
2998.00,0.0245
2997.00,0.0245
2996.00,0.0244
2995.00,0.0244
2994.00,0.0244
2993.00,0.0244
2992.00,0.0244
2991.00,0.0243
2990.00,0.0243
2989.00,0.0242
2988.00,0.0242
2987.00,0.0242
2986.00,0.0241
2985.00,0.0241
2984.00,0.0240
2983.00,0.0240
2982.00,0.0239
2981.00,0.0238
2980.00,0.0238
2979.00,0.0238
2978.00,0.0239
2977.00,0.0239
2976.00,0.0239
2975.00,0.0239
2974.00,0.0238
2973.00,0.0238
2972.00,0.0237
2971.00,0.0237
2970.00,0.0237
2969.00,0.0236
2968.00,0.0236
2967.00,0.0235
2966.00,0.0235
2965.00,0.0235
2964.00,0.0235
2963.00,0.0235
2962.00,0.0235
2961.00,0.0235
2960.00,0.0235
2959.00,0.0235
2958.00,0.0235
2957.00,0.0234
2956.00,0.0234
2955.00,0.0234
2954.00,0.0234
2953.00,0.0234
2952.00,0.0235
2951.00,0.0235
2950.00,0.0235
2949.00,0.0235
2948.00,0.0235
2947.00,0.0235
2946.00,0.0235
2945.00,0.0235
2944.00,0.0235
2943.00,0.0234
2942.00,0.0234
2941.00,0.0233
2940.00,0.0232
2939.00,0.0232
2938.00,0.0231
2937.00,0.0230
2936.00,0.0229
2935.00,0.0228
2934.00,0.0228
2933.00,0.0227
2932.00,0.0226
2931.00,0.0225
2930.00,0.0224
2929.00,0.0223
2928.00,0.0222
2927.00,0.0221
2926.00,0.0220
2925.00,0.0220
2924.00,0.0220
2923.00,0.0220
2922.00,0.0221
2921.00,0.0222
2920.00,0.0223
2919.00,0.0223
2918.00,0.0223
2917.00,0.0223
2916.00,0.0223
2915.00,0.0224
2914.00,0.0224
2913.00,0.0225
2912.00,0.0226
2911.00,0.0226
2910.00,0.0226
2909.00,0.0226
2908.00,0.0227
2907.00,0.0227
2906.00,0.0227
2905.00,0.0227
2904.00,0.0227
2903.00,0.0227
2902.00,0.0227
2901.00,0.0227
2900.00,0.0228
2899.00,0.0228
2898.00,0.0227
2897.00,0.0227
2896.00,0.0226
2895.00,0.0226
2894.00,0.0226
2893.00,0.0226
2892.00,0.0227
2891.00,0.0227
2890.00,0.0227
2889.00,0.0227
2888.00,0.0228
2887.00,0.0228
2886.00,0.0227
2885.00,0.0227
2884.00,0.0227
2883.00,0.0227
2882.00,0.0227
2881.00,0.0228
2880.00,0.0227
2879.00,0.0227
2878.00,0.0226
2877.00,0.0226
2876.00,0.0226
2875.00,0.0225
2874.00,0.0224
2873.00,0.0223
2872.00,0.0222
2871.00,0.0222
2870.00,0.0222
2869.00,0.0222
2868.00,0.0222
2867.00,0.0221
2866.00,0.0221
2865.00,0.0220
2864.00,0.0220
2863.00,0.0220
2862.00,0.0220
2861.00,0.0219
2860.00,0.0218
2859.00,0.0218
2858.00,0.0217
2857.00,0.0216
2856.00,0.0215
2855.00,0.0215
2854.00,0.0214
2853.00,0.0214
2852.00,0.0215
2851.00,0.0215
2850.00,0.0215
2849.00,0.0215
2848.00,0.0216
2847.00,0.0216
2846.00,0.0217
2845.00,0.0217
2844.00,0.0218
2843.00,0.0219
2842.00,0.0219
2841.00,0.0220
2840.00,0.0220
2839.00,0.0220
2838.00,0.0220
2837.00,0.0220
2836.00,0.0220
2835.00,0.0220
2834.00,0.0219
2833.00,0.0219
2832.00,0.0219
2831.00,0.0219
2830.00,0.0219
2829.00,0.0219
2828.00,0.0219
2827.00,0.0219
2826.00,0.0219
2825.00,0.0219
2824.00,0.0218
2823.00,0.0218
2822.00,0.0217
2821.00,0.0217
2820.00,0.0217
2819.00,0.0217
2818.00,0.0217
2817.00,0.0217
2816.00,0.0216
2815.00,0.0216
2814.00,0.0216
2813.00,0.0215
2812.00,0.0215
2811.00,0.0215
2810.00,0.0215
2809.00,0.0215
2808.00,0.0215
2807.00,0.0214
2806.00,0.0214
2805.00,0.0214
2804.00,0.0214
2803.00,0.0214
2802.00,0.0214
2801.00,0.0213
2800.00,0.0213
2799.00,0.0213
2798.00,0.0212
2797.00,0.0212
2796.00,0.0212
2795.00,0.0212
2794.00,0.0211
2793.00,0.0211
2792.00,0.0211
2791.00,0.0211
2790.00,0.0211
2789.00,0.0211
2788.00,0.0211
2787.00,0.0211
2786.00,0.0210
2785.00,0.0210
2784.00,0.0209
2783.00,0.0209
2782.00,0.0209
2781.00,0.0209
2780.00,0.0208
2779.00,0.0208
2778.00,0.0208
2777.00,0.0208
2776.00,0.0208
2775.00,0.0208
2774.00,0.0208
2773.00,0.0207
2772.00,0.0207
2771.00,0.0207
2770.00,0.0207
2769.00,0.0206
2768.00,0.0206
2767.00,0.0205
2766.00,0.0205
2765.00,0.0205
2764.00,0.0206
2763.00,0.0206
2762.00,0.0205
2761.00,0.0205
2760.00,0.0205
2759.00,0.0204
2758.00,0.0204
2757.00,0.0204
2756.00,0.0204
2755.00,0.0203
2754.00,0.0204
2753.00,0.0204
2752.00,0.0204
2751.00,0.0203
2750.00,0.0203
2749.00,0.0203
2748.00,0.0203
2747.00,0.0203
2746.00,0.0202
2745.00,0.0202
2744.00,0.0201
2743.00,0.0201
2742.00,0.0201
2741.00,0.0201
2740.00,0.0201
2739.00,0.0200
2738.00,0.0200
2737.00,0.0200
2736.00,0.0199
2735.00,0.0199
2734.00,0.0199
2733.00,0.0199
2732.00,0.0199
2731.00,0.0198
2730.00,0.0198
2729.00,0.0198
2728.00,0.0198
2727.00,0.0198
2726.00,0.0198
2725.00,0.0198
2724.00,0.0198
2723.00,0.0197
2722.00,0.0197
2721.00,0.0197
2720.00,0.0197
2719.00,0.0196
2718.00,0.0196
2717.00,0.0195
2716.00,0.0195
2715.00,0.0195
2714.00,0.0195
2713.00,0.0195
2712.00,0.0195
2711.00,0.0195
2710.00,0.0195
2709.00,0.0195
2708.00,0.0195
2707.00,0.0194
2706.00,0.0194
2705.00,0.0194
2704.00,0.0194
2703.00,0.0193
2702.00,0.0193
2701.00,0.0193
2700.00,0.0193
2699.00,0.0193
2698.00,0.0192
2697.00,0.0192
2696.00,0.0192
2695.00,0.0192
2694.00,0.0192
2693.00,0.0192
2692.00,0.0192
2691.00,0.0192
2690.00,0.0191
2689.00,0.0191
2688.00,0.0191
2687.00,0.0190
2686.00,0.0190
2685.00,0.0190
2684.00,0.0190
2683.00,0.0190
2682.00,0.0190
2681.00,0.0190
2680.00,0.0190
2679.00,0.0190
2678.00,0.0189
2677.00,0.0189
2676.00,0.0189
2675.00,0.0189
2674.00,0.0189
2673.00,0.0189
2672.00,0.0188
2671.00,0.0188
2670.00,0.0187
2669.00,0.0187
2668.00,0.0187
2667.00,0.0187
2666.00,0.0187
2665.00,0.0187
2664.00,0.0188
2663.00,0.0188
2662.00,0.0188
2661.00,0.0188
2660.00,0.0188
2659.00,0.0188
2658.00,0.0188
2657.00,0.0188
2656.00,0.0188
2655.00,0.0188
2654.00,0.0188
2653.00,0.0188
2652.00,0.0188
2651.00,0.0188
2650.00,0.0188
2649.00,0.0188
2648.00,0.0188
2647.00,0.0188
2646.00,0.0188
2645.00,0.0188
2644.00,0.0189
2643.00,0.0189
2642.00,0.0189
2641.00,0.0189
2640.00,0.0189
2639.00,0.0189
2638.00,0.0189
2637.00,0.0188
2636.00,0.0188
2635.00,0.0188
2634.00,0.0188
2633.00,0.0187
2632.00,0.0187
2631.00,0.0187
2630.00,0.0187
2629.00,0.0187
2628.00,0.0188
2627.00,0.0187
2626.00,0.0187
2625.00,0.0187
2624.00,0.0186
2623.00,0.0186
2622.00,0.0186
2621.00,0.0186
2620.00,0.0186
2619.00,0.0186
2618.00,0.0187
2617.00,0.0187
2616.00,0.0187
2615.00,0.0186
2614.00,0.0186
2613.00,0.0186
2612.00,0.0186
2611.00,0.0186
2610.00,0.0186
2609.00,0.0186
2608.00,0.0186
2607.00,0.0186
2606.00,0.0185
2605.00,0.0185
2604.00,0.0185
2603.00,0.0185
2602.00,0.0185
2601.00,0.0185
2600.00,0.0185
2599.00,0.0185
2598.00,0.0185
2597.00,0.0185
2596.00,0.0185
2595.00,0.0185
2594.00,0.0185
2593.00,0.0185
2592.00,0.0185
2591.00,0.0185
2590.00,0.0185
2589.00,0.0185
2588.00,0.0185
2587.00,0.0185
2586.00,0.0184
2585.00,0.0184
2584.00,0.0184
2583.00,0.0184
2582.00,0.0184
2581.00,0.0184
2580.00,0.0184
2579.00,0.0184
2578.00,0.0184
2577.00,0.0184
2576.00,0.0184
2575.00,0.0184
2574.00,0.0184
2573.00,0.0184
2572.00,0.0183
2571.00,0.0183
2570.00,0.0183
2569.00,0.0182
2568.00,0.0182
2567.00,0.0182
2566.00,0.0183
2565.00,0.0183
2564.00,0.0183
2563.00,0.0183
2562.00,0.0183
2561.00,0.0183
2560.00,0.0183
2559.00,0.0183
2558.00,0.0183
2557.00,0.0183
2556.00,0.0184
2555.00,0.0184
2554.00,0.0184
2553.00,0.0184
2552.00,0.0184
2551.00,0.0183
2550.00,0.0183
2549.00,0.0183
2548.00,0.0183
2547.00,0.0182
2546.00,0.0182
2545.00,0.0181
2544.00,0.0181
2543.00,0.0181
2542.00,0.0182
2541.00,0.0183
2540.00,0.0183
2539.00,0.0183
2538.00,0.0183
2537.00,0.0183
2536.00,0.0183
2535.00,0.0183
2534.00,0.0183
2533.00,0.0183
2532.00,0.0182
2531.00,0.0182
2530.00,0.0182
2529.00,0.0182
2528.00,0.0182
2527.00,0.0182
2526.00,0.0182
2525.00,0.0182
2524.00,0.0182
2523.00,0.0182
2522.00,0.0181
2521.00,0.0181
2520.00,0.0181
2519.00,0.0181
2518.00,0.0181
2517.00,0.0180
2516.00,0.0180
2515.00,0.0180
2514.00,0.0180
2513.00,0.0181
2512.00,0.0181
2511.00,0.0181
2510.00,0.0181
2509.00,0.0180
2508.00,0.0180
2507.00,0.0180
2506.00,0.0180
2505.00,0.0180
2504.00,0.0179
2503.00,0.0180
2502.00,0.0180
2501.00,0.0180
2500.00,0.0180
2499.00,0.0180
2498.00,0.0180
2497.00,0.0180
2496.00,0.0180
2495.00,0.0180
2494.00,0.0180
2493.00,0.0180
2492.00,0.0180
2491.00,0.0180
2490.00,0.0180
2489.00,0.0180
2488.00,0.0179
2487.00,0.0178
2486.00,0.0178
2485.00,0.0178
2484.00,0.0178
2483.00,0.0178
2482.00,0.0178
2481.00,0.0179
2480.00,0.0179
2479.00,0.0179
2478.00,0.0179
2477.00,0.0178
2476.00,0.0178
2475.00,0.0178
2474.00,0.0178
2473.00,0.0179
2472.00,0.0179
2471.00,0.0178
2470.00,0.0178
2469.00,0.0178
2468.00,0.0177
2467.00,0.0178
2466.00,0.0178
2465.00,0.0178
2464.00,0.0178
2463.00,0.0177
2462.00,0.0177
2461.00,0.0177
2460.00,0.0177
2459.00,0.0178
2458.00,0.0178
2457.00,0.0178
2456.00,0.0177
2455.00,0.0177
2454.00,0.0176
2453.00,0.0176
2452.00,0.0177
2451.00,0.0177
2450.00,0.0178
2449.00,0.0178
2448.00,0.0177
2447.00,0.0177
2446.00,0.0177
2445.00,0.0176
2444.00,0.0176
2443.00,0.0176
2442.00,0.0175
2441.00,0.0175
2440.00,0.0174
2439.00,0.0174
2438.00,0.0174
2437.00,0.0175
2436.00,0.0175
2435.00,0.0175
2434.00,0.0175
2433.00,0.0175
2432.00,0.0175
2431.00,0.0175
2430.00,0.0175
2429.00,0.0175
2428.00,0.0175
2427.00,0.0175
2426.00,0.0175
2425.00,0.0174
2424.00,0.0174
2423.00,0.0174
2422.00,0.0173
2421.00,0.0173
2420.00,0.0173
2419.00,0.0173
2418.00,0.0173
2417.00,0.0173
2416.00,0.0173
2415.00,0.0173
2414.00,0.0173
2413.00,0.0173
2412.00,0.0173
2411.00,0.0173
2410.00,0.0173
2409.00,0.0172
2408.00,0.0172
2407.00,0.0172
2406.00,0.0172
2405.00,0.0172
2404.00,0.0172
2403.00,0.0171
2402.00,0.0171
2401.00,0.0170
2400.00,0.0169
2399.00,0.0169
2398.00,0.0169
2397.00,0.0169
2396.00,0.0169
2395.00,0.0169
2394.00,0.0169
2393.00,0.0170
2392.00,0.0170
2391.00,0.0170
2390.00,0.0170
2389.00,0.0169
2388.00,0.0169
2387.00,0.0168
2386.00,0.0168
2385.00,0.0167
2384.00,0.0166
2383.00,0.0165
2382.00,0.0164
2381.00,0.0163
2380.00,0.0162
2379.00,0.0161
2378.00,0.0159
2377.00,0.0158
2376.00,0.0157
2375.00,0.0156
2374.00,0.0155
2373.00,0.0154
2372.00,0.0154
2371.00,0.0154
2370.00,0.0154
2369.00,0.0155
2368.00,0.0156
2367.00,0.0157
2366.00,0.0159
2365.00,0.0159
2364.00,0.0158
2363.00,0.0158
2362.00,0.0157
2361.00,0.0157
2360.00,0.0157
2359.00,0.0157
2358.00,0.0158
2357.00,0.0158
2356.00,0.0159
2355.00,0.0159
2354.00,0.0159
2353.00,0.0158
2352.00,0.0156
2351.00,0.0154
2350.00,0.0153
2349.00,0.0155
2348.00,0.0156
2347.00,0.0154
2346.00,0.0148
2345.00,0.0143
2344.00,0.0139
2343.00,0.0140
2342.00,0.0143
2341.00,0.0147
2340.00,0.0150
2339.00,0.0153
2338.00,0.0155
2337.00,0.0157
2336.00,0.0158
2335.00,0.0159
2334.00,0.0160
2333.00,0.0160
2332.00,0.0160
2331.00,0.0160
2330.00,0.0162
2329.00,0.0164
2328.00,0.0166
2327.00,0.0168
2326.00,0.0169
2325.00,0.0170
2324.00,0.0169
2323.00,0.0168
2322.00,0.0167
2321.00,0.0166
2320.00,0.0165
2319.00,0.0165
2318.00,0.0165
2317.00,0.0166
2316.00,0.0167
2315.00,0.0167
2314.00,0.0166
2313.00,0.0166
2312.00,0.0165
2311.00,0.0164
2310.00,0.0163
2309.00,0.0162
2308.00,0.0161
2307.00,0.0161
2306.00,0.0162
2305.00,0.0162
2304.00,0.0162
2303.00,0.0162
2302.00,0.0162
2301.00,0.0162
2300.00,0.0162
2299.00,0.0162
2298.00,0.0162
2297.00,0.0162
2296.00,0.0162
2295.00,0.0161
2294.00,0.0161
2293.00,0.0162
2292.00,0.0162
2291.00,0.0162
2290.00,0.0162
2289.00,0.0162
2288.00,0.0162
2287.00,0.0162
2286.00,0.0162
2285.00,0.0162
2284.00,0.0163
2283.00,0.0163
2282.00,0.0163
2281.00,0.0163
2280.00,0.0164
2279.00,0.0163
2278.00,0.0163
2277.00,0.0162
2276.00,0.0162
2275.00,0.0162
2274.00,0.0162
2273.00,0.0163
2272.00,0.0162
2271.00,0.0161
2270.00,0.0160
2269.00,0.0160
2268.00,0.0160
2267.00,0.0160
2266.00,0.0160
2265.00,0.0160
2264.00,0.0160
2263.00,0.0160
2262.00,0.0159
2261.00,0.0159
2260.00,0.0160
2259.00,0.0161
2258.00,0.0162
2257.00,0.0162
2256.00,0.0162
2255.00,0.0161
2254.00,0.0160
2253.00,0.0159
2252.00,0.0159
2251.00,0.0159
2250.00,0.0159
2249.00,0.0159
2248.00,0.0159
2247.00,0.0158
2246.00,0.0158
2245.00,0.0158
2244.00,0.0158
2243.00,0.0160
2242.00,0.0161
2241.00,0.0162
2240.00,0.0161
2239.00,0.0160
2238.00,0.0159
2237.00,0.0158
2236.00,0.0158
2235.00,0.0157
2234.00,0.0158
2233.00,0.0158
2232.00,0.0158
2231.00,0.0159
2230.00,0.0159
2229.00,0.0160
2228.00,0.0160
2227.00,0.0161
2226.00,0.0161
2225.00,0.0160
2224.00,0.0159
2223.00,0.0158
2222.00,0.0158
2221.00,0.0159
2220.00,0.0159
2219.00,0.0159
2218.00,0.0159
2217.00,0.0160
2216.00,0.0161
2215.00,0.0161
2214.00,0.0161
2213.00,0.0159
2212.00,0.0158
2211.00,0.0156
2210.00,0.0155
2209.00,0.0155
2208.00,0.0155
2207.00,0.0156
2206.00,0.0156
2205.00,0.0157
2204.00,0.0157
2203.00,0.0157
2202.00,0.0157
2201.00,0.0157
2200.00,0.0157
2199.00,0.0157
2198.00,0.0158
2197.00,0.0159
2196.00,0.0159
2195.00,0.0160
2194.00,0.0159
2193.00,0.0158
2192.00,0.0157
2191.00,0.0157
2190.00,0.0159
2189.00,0.0160
2188.00,0.0159
2187.00,0.0158
2186.00,0.0156
2185.00,0.0155
2184.00,0.0155
2183.00,0.0155
2182.00,0.0156
2181.00,0.0157
2180.00,0.0158
2179.00,0.0158
2178.00,0.0157
2177.00,0.0155
2176.00,0.0154
2175.00,0.0153
2174.00,0.0153
2173.00,0.0155
2172.00,0.0156
2171.00,0.0157
2170.00,0.0157
2169.00,0.0156
2168.00,0.0155
2167.00,0.0155
2166.00,0.0155
2165.00,0.0157
2164.00,0.0159
2163.00,0.0159
2162.00,0.0158
2161.00,0.0154
2160.00,0.0149
2159.00,0.0144
2158.00,0.0141
2157.00,0.0140
2156.00,0.0142
2155.00,0.0144
2154.00,0.0146
2153.00,0.0147
2152.00,0.0147
2151.00,0.0146
2150.00,0.0145
2149.00,0.0144
2148.00,0.0142
2147.00,0.0141
2146.00,0.0141
2145.00,0.0141
2144.00,0.0142
2143.00,0.0144
2142.00,0.0144
2141.00,0.0144
2140.00,0.0143
2139.00,0.0142
2138.00,0.0142
2137.00,0.0141
2136.00,0.0139
2135.00,0.0138
2134.00,0.0137
2133.00,0.0137
2132.00,0.0137
2131.00,0.0138
2130.00,0.0138
2129.00,0.0138
2128.00,0.0138
2127.00,0.0137
2126.00,0.0136
2125.00,0.0137
2124.00,0.0137
2123.00,0.0138
2122.00,0.0139
2121.00,0.0140
2120.00,0.0142
2119.00,0.0143
2118.00,0.0144
2117.00,0.0143
2116.00,0.0143
2115.00,0.0142
2114.00,0.0141
2113.00,0.0139
2112.00,0.0138
2111.00,0.0137
2110.00,0.0138
2109.00,0.0138
2108.00,0.0139
2107.00,0.0139
2106.00,0.0138
2105.00,0.0138
2104.00,0.0138
2103.00,0.0138
2102.00,0.0138
2101.00,0.0138
2100.00,0.0138
2099.00,0.0138
2098.00,0.0138
2097.00,0.0138
2096.00,0.0137
2095.00,0.0136
2094.00,0.0136
2093.00,0.0136
2092.00,0.0137
2091.00,0.0138
2090.00,0.0138
2089.00,0.0138
2088.00,0.0138
2087.00,0.0138
2086.00,0.0137
2085.00,0.0136
2084.00,0.0136
2083.00,0.0135
2082.00,0.0135
2081.00,0.0135
2080.00,0.0134
2079.00,0.0134
2078.00,0.0133
2077.00,0.0134
2076.00,0.0134
2075.00,0.0134
2074.00,0.0133
2073.00,0.0133
2072.00,0.0133
2071.00,0.0133
2070.00,0.0134
2069.00,0.0135
2068.00,0.0135
2067.00,0.0135
2066.00,0.0135
2065.00,0.0136
2064.00,0.0136
2063.00,0.0136
2062.00,0.0136
2061.00,0.0136
2060.00,0.0136
2059.00,0.0136
2058.00,0.0135
2057.00,0.0135
2056.00,0.0134
2055.00,0.0134
2054.00,0.0135
2053.00,0.0136
2052.00,0.0138
2051.00,0.0138
2050.00,0.0139
2049.00,0.0138
2048.00,0.0137
2047.00,0.0136
2046.00,0.0136
2045.00,0.0137
2044.00,0.0138
2043.00,0.0137
2042.00,0.0137
2041.00,0.0138
2040.00,0.0139
2039.00,0.0141
2038.00,0.0142
2037.00,0.0143
2036.00,0.0143
2035.00,0.0141
2034.00,0.0139
2033.00,0.0136
2032.00,0.0134
2031.00,0.0132
2030.00,0.0132
2029.00,0.0132
2028.00,0.0133
2027.00,0.0132
2026.00,0.0131
2025.00,0.0131
2024.00,0.0132
2023.00,0.0133
2022.00,0.0135
2021.00,0.0135
2020.00,0.0134
2019.00,0.0131
2018.00,0.0130
2017.00,0.0130
2016.00,0.0131
2015.00,0.0132
2014.00,0.0132
2013.00,0.0132
2012.00,0.0130
2011.00,0.0127
2010.00,0.0125
2009.00,0.0124
2008.00,0.0124
2007.00,0.0123
2006.00,0.0124
2005.00,0.0125
2004.00,0.0127
2003.00,0.0128
2002.00,0.0129
2001.00,0.0129
2000.00,0.0128
1999.00,0.0128
1998.00,0.0128
1997.00,0.0128
1996.00,0.0129
1995.00,0.0131
1994.00,0.0132
1993.00,0.0133
1992.00,0.0132
1991.00,0.0131
1990.00,0.0131
1989.00,0.0131
1988.00,0.0130
1987.00,0.0129
1986.00,0.0128
1985.00,0.0128
1984.00,0.0130
1983.00,0.0131
1982.00,0.0133
1981.00,0.0134
1980.00,0.0133
1979.00,0.0131
1978.00,0.0129
1977.00,0.0129
1976.00,0.0129
1975.00,0.0129
1974.00,0.0127
1973.00,0.0126
1972.00,0.0126
1971.00,0.0126
1970.00,0.0128
1969.00,0.0129
1968.00,0.0129
1967.00,0.0126
1966.00,0.0124
1965.00,0.0122
1964.00,0.0122
1963.00,0.0123
1962.00,0.0124
1961.00,0.0124
1960.00,0.0123
1959.00,0.0121
1958.00,0.0120
1957.00,0.0120
1956.00,0.0118
1955.00,0.0117
1954.00,0.0116
1953.00,0.0117
1952.00,0.0117
1951.00,0.0117
1950.00,0.0116
1949.00,0.0116
1948.00,0.0115
1947.00,0.0115
1946.00,0.0116
1945.00,0.0117
1944.00,0.0117
1943.00,0.0115
1942.00,0.0113
1941.00,0.0113
1940.00,0.0113
1939.00,0.0114
1938.00,0.0115
1937.00,0.0115
1936.00,0.0115
1935.00,0.0114
1934.00,0.0114
1933.00,0.0113
1932.00,0.0113
1931.00,0.0113
1930.00,0.0113
1929.00,0.0113
1928.00,0.0113
1927.00,0.0113
1926.00,0.0113
1925.00,0.0114
1924.00,0.0115
1923.00,0.0114
1922.00,0.0112
1921.00,0.0112
1920.00,0.0113
1919.00,0.0113
1918.00,0.0111
1917.00,0.0110
1916.00,0.0109
1915.00,0.0109
1914.00,0.0109
1913.00,0.0108
1912.00,0.0109
1911.00,0.0109
1910.00,0.0109
1909.00,0.0109
1908.00,0.0108
1907.00,0.0106
1906.00,0.0106
1905.00,0.0106
1904.00,0.0106
1903.00,0.0106
1902.00,0.0106
1901.00,0.0105
1900.00,0.0105
1899.00,0.0105
1898.00,0.0104
1897.00,0.0104
1896.00,0.0104
1895.00,0.0103
1894.00,0.0103
1893.00,0.0104
1892.00,0.0103
1891.00,0.0102
1890.00,0.0101
1889.00,0.0099
1888.00,0.0099
1887.00,0.0100
1886.00,0.0101
1885.00,0.0101
1884.00,0.0101
1883.00,0.0101
1882.00,0.0100
1881.00,0.0100
1880.00,0.0100
1879.00,0.0099
1878.00,0.0098
1877.00,0.0098
1876.00,0.0098
1875.00,0.0097
1874.00,0.0097
1873.00,0.0098
1872.00,0.0100
1871.00,0.0099
1870.00,0.0097
1869.00,0.0094
1868.00,0.0092
1867.00,0.0091
1866.00,0.0093
1865.00,0.0095
1864.00,0.0095
1863.00,0.0095
1862.00,0.0094
1861.00,0.0094
1860.00,0.0094
1859.00,0.0094
1858.00,0.0093
1857.00,0.0093
1856.00,0.0093
1855.00,0.0094
1854.00,0.0093
1853.00,0.0093
1852.00,0.0092
1851.00,0.0091
1850.00,0.0091
1849.00,0.0091
1848.00,0.0091
1847.00,0.0092
1846.00,0.0093
1845.00,0.0092
1844.00,0.0089
1843.00,0.0086
1842.00,0.0086
1841.00,0.0088
1840.00,0.0089
1839.00,0.0089
1838.00,0.0088
1837.00,0.0087
1836.00,0.0086
1835.00,0.0086
1834.00,0.0087
1833.00,0.0089
1832.00,0.0090
1831.00,0.0088
1830.00,0.0085
1829.00,0.0083
1828.00,0.0084
1827.00,0.0086
1826.00,0.0086
1825.00,0.0085
1824.00,0.0083
1823.00,0.0082
1822.00,0.0082
1821.00,0.0083
1820.00,0.0083
1819.00,0.0083
1818.00,0.0083
1817.00,0.0083
1816.00,0.0082
1815.00,0.0082
1814.00,0.0082
1813.00,0.0082
1812.00,0.0082
1811.00,0.0080
1810.00,0.0080
1809.00,0.0080
1808.00,0.0081
1807.00,0.0082
1806.00,0.0083
1805.00,0.0084
1804.00,0.0085
1803.00,0.0086
1802.00,0.0085
1801.00,0.0084
1800.00,0.0084
1799.00,0.0084
1798.00,0.0084
1797.00,0.0086
1796.00,0.0088
1795.00,0.0090
1794.00,0.0091
1793.00,0.0090
1792.00,0.0089
1791.00,0.0088
1790.00,0.0090
1789.00,0.0093
1788.00,0.0096
1787.00,0.0097
1786.00,0.0098
1785.00,0.0098
1784.00,0.0099
1783.00,0.0100
1782.00,0.0102
1781.00,0.0102
1780.00,0.0103
1779.00,0.0104
1778.00,0.0106
1777.00,0.0109
1776.00,0.0112
1775.00,0.0115
1774.00,0.0116
1773.00,0.0115
1772.00,0.0113
1771.00,0.0113
1770.00,0.0117
1769.00,0.0122
1768.00,0.0124
1767.00,0.0124
1766.00,0.0126
1765.00,0.0129
1764.00,0.0131
1763.00,0.0133
1762.00,0.0132
1761.00,0.0132
1760.00,0.0133
1759.00,0.0136
1758.00,0.0138
1757.00,0.0138
1756.00,0.0138
1755.00,0.0139
1754.00,0.0142
1753.00,0.0144
1752.00,0.0144
1751.00,0.0144
1750.00,0.0144
1749.00,0.0145
1748.00,0.0147
1747.00,0.0150
1746.00,0.0154
1745.00,0.0156
1744.00,0.0159
1743.00,0.0162
1742.00,0.0164
1741.00,0.0166
1740.00,0.0168
1739.00,0.0169
1738.00,0.0172
1737.00,0.0179
1736.00,0.0183
1735.00,0.0186
1734.00,0.0186
1733.00,0.0185
1732.00,0.0188
1731.00,0.0192
1730.00,0.0197
1729.00,0.0201
1728.00,0.0204
1727.00,0.0207
1726.00,0.0209
1725.00,0.0211
1724.00,0.0214
1723.00,0.0216
1722.00,0.0218
1721.00,0.0221
1720.00,0.0222
1719.00,0.0222
1718.00,0.0222
1717.00,0.0223
1716.00,0.0225
1715.00,0.0227
1714.00,0.0230
1713.00,0.0232
1712.00,0.0234
1711.00,0.0234
1710.00,0.0234
1709.00,0.0234
1708.00,0.0235
1707.00,0.0236
1706.00,0.0236
1705.00,0.0237
1704.00,0.0239
1703.00,0.0242
1702.00,0.0244
1701.00,0.0244
1700.00,0.0241
1699.00,0.0238
1698.00,0.0241
1697.00,0.0244
1696.00,0.0244
1695.00,0.0240
1694.00,0.0239
1693.00,0.0242
1692.00,0.0244
1691.00,0.0244
1690.00,0.0243
1689.00,0.0243
1688.00,0.0245
1687.00,0.0246
1686.00,0.0244
1685.00,0.0243
1684.00,0.0243
1683.00,0.0243
1682.00,0.0247
1681.00,0.0251
1680.00,0.0254
1679.00,0.0255
1678.00,0.0257
1677.00,0.0259
1676.00,0.0259
1675.00,0.0259
1674.00,0.0259
1673.00,0.0260
1672.00,0.0262
1671.00,0.0264
1670.00,0.0266
1669.00,0.0269
1668.00,0.0270
1667.00,0.0272
1666.00,0.0275
1665.00,0.0276
1664.00,0.0277
1663.00,0.0279
1662.00,0.0281
1661.00,0.0283
1660.00,0.0285
1659.00,0.0287
1658.00,0.0287
1657.00,0.0288
1656.00,0.0288
1655.00,0.0288
1654.00,0.0292
1653.00,0.0297
1652.00,0.0294
1651.00,0.0294
1650.00,0.0299
1649.00,0.0301
1648.00,0.0303
1647.00,0.0308
1646.00,0.0313
1645.00,0.0316
1644.00,0.0318
1643.00,0.0321
1642.00,0.0323
1641.00,0.0323
1640.00,0.0324
1639.00,0.0324
1638.00,0.0325
1637.00,0.0328
1636.00,0.0334
1635.00,0.0339
1634.00,0.0341
1633.00,0.0343
1632.00,0.0346
1631.00,0.0347
1630.00,0.0349
1629.00,0.0351
1628.00,0.0353
1627.00,0.0356
1626.00,0.0358
1625.00,0.0360
1624.00,0.0363
1623.00,0.0367
1622.00,0.0369
1621.00,0.0371
1620.00,0.0372
1619.00,0.0372
1618.00,0.0374
1617.00,0.0377
1616.00,0.0380
1615.00,0.0383
1614.00,0.0386
1613.00,0.0388
1612.00,0.0389
1611.00,0.0390
1610.00,0.0392
1609.00,0.0395
1608.00,0.0398
1607.00,0.0400
1606.00,0.0402
1605.00,0.0403
1604.00,0.0405
1603.00,0.0407
1602.00,0.0409
1601.00,0.0411
1600.00,0.0413
1599.00,0.0414
1598.00,0.0416
1597.00,0.0417
1596.00,0.0418
1595.00,0.0419
1594.00,0.0421
1593.00,0.0422
1592.00,0.0423
1591.00,0.0425
1590.00,0.0427
1589.00,0.0428
1588.00,0.0429
1587.00,0.0430
1586.00,0.0431
1585.00,0.0431
1584.00,0.0431
1583.00,0.0432
1582.00,0.0433
1581.00,0.0432
1580.00,0.0432
1579.00,0.0431
1578.00,0.0431
1577.00,0.0432
1576.00,0.0434
1575.00,0.0436
1574.00,0.0436
1573.00,0.0436
1572.00,0.0434
1571.00,0.0432
1570.00,0.0432
1569.00,0.0433
1568.00,0.0434
1567.00,0.0433
1566.00,0.0432
1565.00,0.0431
1564.00,0.0430
1563.00,0.0429
1562.00,0.0426
1561.00,0.0418
1560.00,0.0413
1559.00,0.0423
1558.00,0.0427
1557.00,0.0425
1556.00,0.0424
1555.00,0.0423
1554.00,0.0420
1553.00,0.0417
1552.00,0.0414
1551.00,0.0413
1550.00,0.0411
1549.00,0.0409
1548.00,0.0406
1547.00,0.0403
1546.00,0.0400
1545.00,0.0396
1544.00,0.0394
1543.00,0.0391
1542.00,0.0387
1541.00,0.0385
1540.00,0.0387
1539.00,0.0385
1538.00,0.0383
1537.00,0.0382
1536.00,0.0380
1535.00,0.0376
1534.00,0.0373
1533.00,0.0371
1532.00,0.0370
1531.00,0.0367
1530.00,0.0364
1529.00,0.0361
1528.00,0.0358
1527.00,0.0356
1526.00,0.0353
1525.00,0.0351
1524.00,0.0348
1523.00,0.0344
1522.00,0.0342
1521.00,0.0341
1520.00,0.0340
1519.00,0.0339
1518.00,0.0337
1517.00,0.0336
1516.00,0.0335
1515.00,0.0335
1514.00,0.0333
1513.00,0.0331
1512.00,0.0328
1511.00,0.0326
1510.00,0.0323
1509.00,0.0320
1508.00,0.0319
1507.00,0.0320
1506.00,0.0318
1505.00,0.0314
1504.00,0.0313
1503.00,0.0314
1502.00,0.0313
1501.00,0.0310
1500.00,0.0309
1499.00,0.0307
1498.00,0.0306
1497.00,0.0307
1496.00,0.0308
1495.00,0.0308
1494.00,0.0308
1493.00,0.0308
1492.00,0.0307
1491.00,0.0306
1490.00,0.0307
1489.00,0.0308
1488.00,0.0309
1487.00,0.0309
1486.00,0.0309
1485.00,0.0309
1484.00,0.0308
1483.00,0.0307
1482.00,0.0307
1481.00,0.0307
1480.00,0.0307
1479.00,0.0307
1478.00,0.0307
1477.00,0.0307
1476.00,0.0307
1475.00,0.0308
1474.00,0.0308
1473.00,0.0309
1472.00,0.0310
1471.00,0.0311
1470.00,0.0311
1469.00,0.0312
1468.00,0.0312
1467.00,0.0312
1466.00,0.0313
1465.00,0.0314
1464.00,0.0315
1463.00,0.0316
1462.00,0.0315
1461.00,0.0315
1460.00,0.0314
1459.00,0.0314
1458.00,0.0316
1457.00,0.0320
1456.00,0.0322
1455.00,0.0322
1454.00,0.0323
1453.00,0.0324
1452.00,0.0325
1451.00,0.0326
1450.00,0.0327
1449.00,0.0329
1448.00,0.0331
1447.00,0.0333
1446.00,0.0334
1445.00,0.0334
1444.00,0.0335
1443.00,0.0335
1442.00,0.0335
1441.00,0.0335
1440.00,0.0337
1439.00,0.0339
1438.00,0.0341
1437.00,0.0343
1436.00,0.0346
1435.00,0.0346
1434.00,0.0346
1433.00,0.0346
1432.00,0.0346
1431.00,0.0347
1430.00,0.0348
1429.00,0.0350
1428.00,0.0351
1427.00,0.0352
1426.00,0.0351
1425.00,0.0351
1424.00,0.0352
1423.00,0.0355
1422.00,0.0356
1421.00,0.0357
1420.00,0.0358
1419.00,0.0361
1418.00,0.0363
1417.00,0.0364
1416.00,0.0366
1415.00,0.0366
1414.00,0.0366
1413.00,0.0366
1412.00,0.0367
1411.00,0.0368
1410.00,0.0368
1409.00,0.0369
1408.00,0.0369
1407.00,0.0370
1406.00,0.0371
1405.00,0.0373
1404.00,0.0375
1403.00,0.0377
1402.00,0.0377
1401.00,0.0378
1400.00,0.0379
1399.00,0.0381
1398.00,0.0383
1397.00,0.0384
1396.00,0.0386
1395.00,0.0388
1394.00,0.0389
1393.00,0.0388
1392.00,0.0388
1391.00,0.0388
1390.00,0.0388
1389.00,0.0388
1388.00,0.0390
1387.00,0.0392
1386.00,0.0394
1385.00,0.0394
1384.00,0.0394
1383.00,0.0394
1382.00,0.0394
1381.00,0.0395
1380.00,0.0396
1379.00,0.0396
1378.00,0.0396
1377.00,0.0396
1376.00,0.0396
1375.00,0.0398
1374.00,0.0400
1373.00,0.0401
1372.00,0.0401
1371.00,0.0401
1370.00,0.0401
1369.00,0.0401
1368.00,0.0401
1367.00,0.0401
1366.00,0.0400
1365.00,0.0399
1364.00,0.0399
1363.00,0.0401
1362.00,0.0402
1361.00,0.0403
1360.00,0.0403
1359.00,0.0403
1358.00,0.0402
1357.00,0.0400
1356.00,0.0399
1355.00,0.0399
1354.00,0.0398
1353.00,0.0398
1352.00,0.0397
1351.00,0.0396
1350.00,0.0395
1349.00,0.0394
1348.00,0.0394
1347.00,0.0393
1346.00,0.0393
1345.00,0.0392
1344.00,0.0392
1343.00,0.0391
1342.00,0.0390
1341.00,0.0390
1340.00,0.0390
1339.00,0.0390
1338.00,0.0390
1337.00,0.0390
1336.00,0.0389
1335.00,0.0388
1334.00,0.0387
1333.00,0.0386
1332.00,0.0385
1331.00,0.0385
1330.00,0.0384
1329.00,0.0383
1328.00,0.0382
1327.00,0.0382
1326.00,0.0381
1325.00,0.0381
1324.00,0.0381
1323.00,0.0380
1322.00,0.0379
1321.00,0.0379
1320.00,0.0379
1319.00,0.0379
1318.00,0.0379
1317.00,0.0379
1316.00,0.0380
1315.00,0.0380
1314.00,0.0380
1313.00,0.0379
1312.00,0.0378
1311.00,0.0378
1310.00,0.0377
1309.00,0.0377
1308.00,0.0377
1307.00,0.0377
1306.00,0.0377
1305.00,0.0377
1304.00,0.0377
1303.00,0.0378
1302.00,0.0378
1301.00,0.0378
1300.00,0.0377
1299.00,0.0377
1298.00,0.0377
1297.00,0.0377
1296.00,0.0377
1295.00,0.0378
1294.00,0.0378
1293.00,0.0378
1292.00,0.0379
1291.00,0.0379
1290.00,0.0380
1289.00,0.0381
1288.00,0.0382
1287.00,0.0382
1286.00,0.0383
1285.00,0.0382
1284.00,0.0382
1283.00,0.0383
1282.00,0.0383
1281.00,0.0383
1280.00,0.0384
1279.00,0.0384
1278.00,0.0385
1277.00,0.0385
1276.00,0.0386
1275.00,0.0386
1274.00,0.0387
1273.00,0.0387
1272.00,0.0387
1271.00,0.0387
1270.00,0.0387
1269.00,0.0387
1268.00,0.0387
1267.00,0.0387
1266.00,0.0387
1265.00,0.0387
1264.00,0.0386
1263.00,0.0386
1262.00,0.0387
1261.00,0.0387
1260.00,0.0388
1259.00,0.0389
1258.00,0.0389
1257.00,0.0390
1256.00,0.0391
1255.00,0.0392
1254.00,0.0393
1253.00,0.0394
1252.00,0.0395
1251.00,0.0395
1250.00,0.0395
1249.00,0.0396
1248.00,0.0396
1247.00,0.0397
1246.00,0.0398
1245.00,0.0398
1244.00,0.0398
1243.00,0.0399
1242.00,0.0398
1241.00,0.0398
1240.00,0.0398
1239.00,0.0398
1238.00,0.0398
1237.00,0.0398
1236.00,0.0398
1235.00,0.0398
1234.00,0.0398
1233.00,0.0398
1232.00,0.0398
1231.00,0.0398
1230.00,0.0399
1229.00,0.0399
1228.00,0.0398
1227.00,0.0398
1226.00,0.0398
1225.00,0.0398
1224.00,0.0398
1223.00,0.0398
1222.00,0.0398
1221.00,0.0397
1220.00,0.0397
1219.00,0.0396
1218.00,0.0396
1217.00,0.0395
1216.00,0.0395
1215.00,0.0394
1214.00,0.0394
1213.00,0.0394
1212.00,0.0394
1211.00,0.0393
1210.00,0.0393
1209.00,0.0393
1208.00,0.0392
1207.00,0.0391
1206.00,0.0391
1205.00,0.0391
1204.00,0.0391
1203.00,0.0391
1202.00,0.0390
1201.00,0.0389
1200.00,0.0389
1199.00,0.0389
1198.00,0.0389
1197.00,0.0388
1196.00,0.0388
1195.00,0.0388
1194.00,0.0388
1193.00,0.0388
1192.00,0.0388
1191.00,0.0388
1190.00,0.0387
1189.00,0.0387
1188.00,0.0387
1187.00,0.0386
1186.00,0.0386
1185.00,0.0385
1184.00,0.0385
1183.00,0.0385
1182.00,0.0385
1181.00,0.0385
1180.00,0.0385
1179.00,0.0385
1178.00,0.0385
1177.00,0.0385
1176.00,0.0384
1175.00,0.0384
1174.00,0.0384
1173.00,0.0383
1172.00,0.0383
1171.00,0.0383
1170.00,0.0383
1169.00,0.0384
1168.00,0.0384
1167.00,0.0385
1166.00,0.0384
1165.00,0.0384
1164.00,0.0383
1163.00,0.0383
1162.00,0.0383
1161.00,0.0382
1160.00,0.0382
1159.00,0.0382
1158.00,0.0381
1157.00,0.0381
1156.00,0.0380
1155.00,0.0380
1154.00,0.0381
1153.00,0.0381
1152.00,0.0380
1151.00,0.0380
1150.00,0.0379
1149.00,0.0379
1148.00,0.0379
1147.00,0.0380
1146.00,0.0380
1145.00,0.0381
1144.00,0.0380
1143.00,0.0379
1142.00,0.0378
1141.00,0.0377
1140.00,0.0376
1139.00,0.0377
1138.00,0.0377
1137.00,0.0377
1136.00,0.0378
1135.00,0.0379
1134.00,0.0380
1133.00,0.0380
1132.00,0.0381
1131.00,0.0381
1130.00,0.0381
1129.00,0.0381
1128.00,0.0382
1127.00,0.0383
1126.00,0.0385
1125.00,0.0386
1124.00,0.0386
1123.00,0.0386
1122.00,0.0386
1121.00,0.0386
1120.00,0.0387
1119.00,0.0389
1118.00,0.0390
1117.00,0.0391
1116.00,0.0392
1115.00,0.0393
1114.00,0.0393
1113.00,0.0392
1112.00,0.0391
1111.00,0.0390
1110.00,0.0390
1109.00,0.0391
1108.00,0.0392
1107.00,0.0394
1106.00,0.0395
1105.00,0.0396
1104.00,0.0397
1103.00,0.0398
1102.00,0.0398
1101.00,0.0398
1100.00,0.0398
1099.00,0.0398
1098.00,0.0398
1097.00,0.0398
1096.00,0.0398
1095.00,0.0398
1094.00,0.0398
1093.00,0.0399
1092.00,0.0401
1091.00,0.0402
1090.00,0.0403
1089.00,0.0404
1088.00,0.0405
1087.00,0.0405
1086.00,0.0405
1085.00,0.0404
1084.00,0.0404
1083.00,0.0404
1082.00,0.0405
1081.00,0.0405
1080.00,0.0405
1079.00,0.0405
1078.00,0.0405
1077.00,0.0406
1076.00,0.0407
1075.00,0.0407
1074.00,0.0408
1073.00,0.0408
1072.00,0.0409
1071.00,0.0409
1070.00,0.0410
1069.00,0.0410
1068.00,0.0410
1067.00,0.0410
1066.00,0.0410
1065.00,0.0410
1064.00,0.0410
1063.00,0.0411
1062.00,0.0411
1061.00,0.0411
1060.00,0.0411
1059.00,0.0411
1058.00,0.0412
1057.00,0.0412
1056.00,0.0412
1055.00,0.0412
1054.00,0.0412
1053.00,0.0413
1052.00,0.0415
1051.00,0.0418
1050.00,0.0421
1049.00,0.0422
1048.00,0.0423
1047.00,0.0423
1046.00,0.0422
1045.00,0.0422
1044.00,0.0422
1043.00,0.0423
1042.00,0.0424
1041.00,0.0424
1040.00,0.0424
1039.00,0.0424
1038.00,0.0424
1037.00,0.0425
1036.00,0.0425
1035.00,0.0424
1034.00,0.0425
1033.00,0.0425
1032.00,0.0426
1031.00,0.0426
1030.00,0.0424
1029.00,0.0423
1028.00,0.0421
1027.00,0.0419
1026.00,0.0417
1025.00,0.0416
1024.00,0.0415
1023.00,0.0415
1022.00,0.0415
1021.00,0.0414
1020.00,0.0414
1019.00,0.0413
1018.00,0.0413
1017.00,0.0413
1016.00,0.0414
1015.00,0.0414
1014.00,0.0414
1013.00,0.0415
1012.00,0.0415
1011.00,0.0416
1010.00,0.0416
1009.00,0.0415
1008.00,0.0414
1007.00,0.0414
1006.00,0.0415
1005.00,0.0415
1004.00,0.0415
1003.00,0.0415
1002.00,0.0414
1001.00,0.0413
1000.00,0.0411
999.00,0.0410
998.00,0.0408
997.00,0.0407
996.00,0.0404
995.00,0.0402
994.00,0.0400
993.00,0.0399
992.00,0.0398
991.00,0.0397
990.00,0.0396
989.00,0.0396
988.00,0.0395
987.00,0.0395
986.00,0.0394
985.00,0.0393
984.00,0.0392
983.00,0.0391
982.00,0.0390
981.00,0.0389
980.00,0.0387
979.00,0.0386
978.00,0.0385
977.00,0.0384
976.00,0.0383
975.00,0.0382
974.00,0.0381
973.00,0.0380
972.00,0.0379
971.00,0.0378
970.00,0.0378
969.00,0.0378
968.00,0.0377
967.00,0.0377
966.00,0.0376
965.00,0.0375
964.00,0.0374
963.00,0.0373
962.00,0.0372
961.00,0.0371
960.00,0.0370
959.00,0.0370
958.00,0.0369
957.00,0.0368
956.00,0.0367
955.00,0.0368
954.00,0.0369
953.00,0.0370
952.00,0.0370
951.00,0.0370
950.00,0.0369
949.00,0.0369
948.00,0.0369
947.00,0.0369
946.00,0.0371
945.00,0.0372
944.00,0.0373
943.00,0.0373
942.00,0.0373
941.00,0.0373
940.00,0.0375
939.00,0.0375
938.00,0.0375
937.00,0.0375
936.00,0.0375
935.00,0.0375
934.00,0.0375
933.00,0.0375
932.00,0.0375
931.00,0.0375
930.00,0.0375
929.00,0.0376
928.00,0.0376
927.00,0.0377
926.00,0.0378
925.00,0.0379
924.00,0.0380
923.00,0.0381
922.00,0.0382
921.00,0.0382
920.00,0.0382
919.00,0.0383
918.00,0.0384
917.00,0.0385
916.00,0.0387
915.00,0.0389
914.00,0.0390
913.00,0.0390
912.00,0.0390
911.00,0.0391
910.00,0.0391
909.00,0.0391
908.00,0.0390
907.00,0.0390
906.00,0.0389
905.00,0.0388
904.00,0.0388
903.00,0.0387
902.00,0.0387
901.00,0.0386
900.00,0.0386
899.00,0.0386
898.00,0.0386
897.00,0.0385
896.00,0.0385
895.00,0.0384
894.00,0.0384
893.00,0.0384
892.00,0.0384
891.00,0.0384
890.00,0.0384
889.00,0.0383
888.00,0.0382
887.00,0.0382
886.00,0.0382
885.00,0.0382
884.00,0.0381
883.00,0.0380
882.00,0.0379
881.00,0.0379
880.00,0.0378
879.00,0.0378
878.00,0.0377
877.00,0.0377
876.00,0.0377
875.00,0.0378
874.00,0.0377
873.00,0.0377
872.00,0.0376
871.00,0.0374
870.00,0.0372
869.00,0.0371
868.00,0.0371
867.00,0.0371
866.00,0.0372
865.00,0.0372
864.00,0.0372
863.00,0.0373
862.00,0.0373
861.00,0.0374
860.00,0.0374
859.00,0.0374
858.00,0.0373
857.00,0.0373
856.00,0.0374
855.00,0.0376
854.00,0.0377
853.00,0.0377
852.00,0.0377
851.00,0.0376
850.00,0.0377
849.00,0.0377
848.00,0.0379
847.00,0.0380
846.00,0.0381
845.00,0.0382
844.00,0.0384
843.00,0.0385
842.00,0.0386
841.00,0.0387
840.00,0.0387
839.00,0.0388
838.00,0.0391
837.00,0.0393
836.00,0.0396
835.00,0.0397
834.00,0.0396
833.00,0.0396
832.00,0.0396
831.00,0.0397
830.00,0.0399
829.00,0.0401
828.00,0.0402
827.00,0.0401
826.00,0.0400
825.00,0.0399
824.00,0.0399
823.00,0.0400
822.00,0.0402
821.00,0.0403
820.00,0.0404
819.00,0.0405
818.00,0.0406
817.00,0.0407
816.00,0.0408
815.00,0.0408
814.00,0.0408
813.00,0.0408
812.00,0.0408
811.00,0.0409
810.00,0.0410
809.00,0.0411
808.00,0.0412
807.00,0.0412
806.00,0.0413
805.00,0.0413
804.00,0.0413
803.00,0.0414
802.00,0.0415
801.00,0.0417
800.00,0.0418
799.00,0.0419
798.00,0.0419
797.00,0.0420
796.00,0.0422
795.00,0.0424
794.00,0.0425
793.00,0.0426
792.00,0.0426
791.00,0.0426
790.00,0.0428
789.00,0.0429
788.00,0.0431
787.00,0.0433
786.00,0.0434
785.00,0.0435
784.00,0.0436
783.00,0.0437
782.00,0.0437
781.00,0.0438
780.00,0.0439
779.00,0.0440
778.00,0.0441
777.00,0.0442
776.00,0.0444
775.00,0.0445
774.00,0.0446
773.00,0.0446
772.00,0.0447
771.00,0.0447
770.00,0.0446
769.00,0.0446
768.00,0.0446
767.00,0.0445
766.00,0.0445
765.00,0.0445
764.00,0.0446
763.00,0.0447
762.00,0.0449
761.00,0.0451
760.00,0.0452
759.00,0.0454
758.00,0.0455
757.00,0.0456
756.00,0.0457
755.00,0.0458
754.00,0.0458
753.00,0.0459
752.00,0.0459
751.00,0.0459
750.00,0.0460
749.00,0.0460
748.00,0.0460
747.00,0.0459
746.00,0.0458
745.00,0.0458
744.00,0.0457
743.00,0.0457
742.00,0.0457
741.00,0.0456
740.00,0.0456
739.00,0.0455
738.00,0.0455
737.00,0.0455
736.00,0.0456
735.00,0.0456
734.00,0.0456
733.00,0.0456
732.00,0.0457
731.00,0.0459
730.00,0.0460
729.00,0.0460
728.00,0.0457
727.00,0.0455
726.00,0.0454
725.00,0.0455
724.00,0.0457
723.00,0.0459
722.00,0.0461
721.00,0.0462
720.00,0.0463
719.00,0.0463
718.00,0.0463
717.00,0.0462
716.00,0.0462
715.00,0.0463
714.00,0.0466
713.00,0.0471
712.00,0.0475
711.00,0.0477
710.00,0.0476
709.00,0.0474
708.00,0.0472
707.00,0.0473
706.00,0.0477
705.00,0.0482
704.00,0.0486
703.00,0.0488
702.00,0.0488
701.00,0.0488
700.00,0.0489
699.00,0.0491
698.00,0.0492
697.00,0.0494
696.00,0.0496
695.00,0.0495
694.00,0.0492
693.00,0.0489
692.00,0.0490
691.00,0.0493
690.00,0.0496
689.00,0.0498
688.00,0.0498
687.00,0.0496
686.00,0.0494
685.00,0.0493
684.00,0.0493
683.00,0.0495
682.00,0.0497
681.00,0.0500
680.00,0.0502
679.00,0.0503
678.00,0.0504
677.00,0.0506
676.00,0.0509
675.00,0.0511
674.00,0.0510
673.00,0.0509
672.00,0.0509
671.00,0.0508
670.00,0.0507
669.00,0.0509
668.00,0.0519
667.00,0.0531
666.00,0.0536
665.00,0.0531
664.00,0.0521
663.00,0.0512
662.00,0.0507
661.00,0.0509
660.00,0.0516
659.00,0.0525
658.00,0.0531
657.00,0.0531
656.00,0.0529
655.00,0.0527
654.00,0.0528
653.00,0.0528
652.00,0.0532
651.00,0.0533
650.00,0.0529
