Created as New Dataset,Monday, April 03 2023
cm-1,A
4000.00,0.0189
3999.00,0.0189
3998.00,0.0189
3997.00,0.0189
3996.00,0.0188
3995.00,0.0188
3994.00,0.0188
3993.00,0.0188
3992.00,0.0188
3991.00,0.0187
3990.00,0.0187
3989.00,0.0187
3988.00,0.0187
3987.00,0.0187
3986.00,0.0187
3985.00,0.0187
3984.00,0.0187
3983.00,0.0187
3982.00,0.0186
3981.00,0.0186
3980.00,0.0186
3979.00,0.0186
3978.00,0.0186
3977.00,0.0186
3976.00,0.0186
3975.00,0.0185
3974.00,0.0185
3973.00,0.0185
3972.00,0.0185
3971.00,0.0185
3970.00,0.0185
3969.00,0.0185
3968.00,0.0185
3967.00,0.0185
3966.00,0.0185
3965.00,0.0185
3964.00,0.0186
3963.00,0.0186
3962.00,0.0186
3961.00,0.0185
3960.00,0.0185
3959.00,0.0185
3958.00,0.0185
3957.00,0.0185
3956.00,0.0185
3955.00,0.0185
3954.00,0.0185
3953.00,0.0185
3952.00,0.0185
3951.00,0.0185
3950.00,0.0184
3949.00,0.0184
3948.00,0.0184
3947.00,0.0184
3946.00,0.0184
3945.00,0.0184
3944.00,0.0183
3943.00,0.0183
3942.00,0.0182
3941.00,0.0183
3940.00,0.0183
3939.00,0.0183
3938.00,0.0183
3937.00,0.0183
3936.00,0.0184
3935.00,0.0185
3934.00,0.0185
3933.00,0.0185
3932.00,0.0184
3931.00,0.0183
3930.00,0.0183
3929.00,0.0183
3928.00,0.0182
3927.00,0.0182
3926.00,0.0182
3925.00,0.0181
3924.00,0.0181
3923.00,0.0181
3922.00,0.0182
3921.00,0.0182
3920.00,0.0182
3919.00,0.0182
3918.00,0.0182
3917.00,0.0181
3916.00,0.0181
3915.00,0.0182
3914.00,0.0182
3913.00,0.0181
3912.00,0.0181
3911.00,0.0181
3910.00,0.0181
3909.00,0.0181
3908.00,0.0182
3907.00,0.0182
3906.00,0.0183
3905.00,0.0183
3904.00,0.0183
3903.00,0.0183
3902.00,0.0182
3901.00,0.0182
3900.00,0.0180
3899.00,0.0179
3898.00,0.0180
3897.00,0.0181
3896.00,0.0182
3895.00,0.0182
3894.00,0.0181
3893.00,0.0180
3892.00,0.0179
3891.00,0.0179
3890.00,0.0180
3889.00,0.0181
3888.00,0.0181
3887.00,0.0181
3886.00,0.0181
3885.00,0.0181
3884.00,0.0181
3883.00,0.0181
3882.00,0.0179
3881.00,0.0177
3880.00,0.0176
3879.00,0.0177
3878.00,0.0179
3877.00,0.0180
3876.00,0.0180
3875.00,0.0179
3874.00,0.0179
3873.00,0.0179
3872.00,0.0180
3871.00,0.0179
3870.00,0.0178
3869.00,0.0178
3868.00,0.0179
3867.00,0.0180
3866.00,0.0180
3865.00,0.0179
3864.00,0.0178
3863.00,0.0177
3862.00,0.0177
3861.00,0.0178
3860.00,0.0179
3859.00,0.0180
3858.00,0.0179
3857.00,0.0179
3856.00,0.0179
3855.00,0.0181
3854.00,0.0182
3853.00,0.0181
3852.00,0.0180
3851.00,0.0179
3850.00,0.0179
3849.00,0.0178
3848.00,0.0178
3847.00,0.0178
3846.00,0.0178
3845.00,0.0178
3844.00,0.0178
3843.00,0.0179
3842.00,0.0179
3841.00,0.0179
3840.00,0.0179
3839.00,0.0179
3838.00,0.0179
3837.00,0.0178
3836.00,0.0178
3835.00,0.0177
3834.00,0.0176
3833.00,0.0175
3832.00,0.0176
3831.00,0.0176
3830.00,0.0177
3829.00,0.0177
3828.00,0.0177
3827.00,0.0176
3826.00,0.0175
3825.00,0.0176
3824.00,0.0177
3823.00,0.0178
3822.00,0.0178
3821.00,0.0177
3820.00,0.0177
3819.00,0.0177
3818.00,0.0177
3817.00,0.0176
3816.00,0.0174
3815.00,0.0174
3814.00,0.0174
3813.00,0.0174
3812.00,0.0174
3811.00,0.0174
3810.00,0.0174
3809.00,0.0174
3808.00,0.0175
3807.00,0.0176
3806.00,0.0177
3805.00,0.0178
3804.00,0.0178
3803.00,0.0178
3802.00,0.0176
3801.00,0.0175
3800.00,0.0175
3799.00,0.0174
3798.00,0.0173
3797.00,0.0171
3796.00,0.0171
3795.00,0.0171
3794.00,0.0171
3793.00,0.0171
3792.00,0.0171
3791.00,0.0171
3790.00,0.0171
3789.00,0.0171
3788.00,0.0171
3787.00,0.0171
3786.00,0.0171
3785.00,0.0170
3784.00,0.0170
3783.00,0.0171
3782.00,0.0171
3781.00,0.0171
3780.00,0.0170
3779.00,0.0169
3778.00,0.0168
3777.00,0.0169
3776.00,0.0169
3775.00,0.0170
3774.00,0.0171
3773.00,0.0171
3772.00,0.0171
3771.00,0.0171
3770.00,0.0171
3769.00,0.0170
3768.00,0.0170
3767.00,0.0170
3766.00,0.0169
3765.00,0.0169
3764.00,0.0170
3763.00,0.0171
3762.00,0.0172
3761.00,0.0172
3760.00,0.0172
3759.00,0.0171
3758.00,0.0171
3757.00,0.0171
3756.00,0.0172
3755.00,0.0172
3754.00,0.0173
3753.00,0.0175
3752.00,0.0176
3751.00,0.0177
3750.00,0.0177
3749.00,0.0177
3748.00,0.0176
3747.00,0.0175
3746.00,0.0173
3745.00,0.0172
3744.00,0.0172
3743.00,0.0174
3742.00,0.0174
3741.00,0.0174
3740.00,0.0174
3739.00,0.0174
3738.00,0.0174
3737.00,0.0175
3736.00,0.0174
3735.00,0.0171
3734.00,0.0169
3733.00,0.0168
3732.00,0.0168
3731.00,0.0169
3730.00,0.0170
3729.00,0.0170
3728.00,0.0170
3727.00,0.0169
3726.00,0.0169
3725.00,0.0169
3724.00,0.0168
3723.00,0.0167
3722.00,0.0166
3721.00,0.0165
3720.00,0.0165
3719.00,0.0165
3718.00,0.0166
3717.00,0.0167
3716.00,0.0168
3715.00,0.0169
3714.00,0.0170
3713.00,0.0171
3712.00,0.0171
3711.00,0.0169
3710.00,0.0168
3709.00,0.0168
3708.00,0.0169
3707.00,0.0169
3706.00,0.0169
3705.00,0.0169
3704.00,0.0168
3703.00,0.0167
3702.00,0.0166
3701.00,0.0166
3700.00,0.0167
3699.00,0.0168
3698.00,0.0169
3697.00,0.0170
3696.00,0.0170
3695.00,0.0171
3694.00,0.0171
3693.00,0.0171
3692.00,0.0171
3691.00,0.0171
3690.00,0.0170
3689.00,0.0169
3688.00,0.0168
3687.00,0.0169
3686.00,0.0170
3685.00,0.0170
3684.00,0.0170
3683.00,0.0170
3682.00,0.0171
3681.00,0.0171
3680.00,0.0171
3679.00,0.0171
3678.00,0.0172
3677.00,0.0172
3676.00,0.0172
3675.00,0.0173
3674.00,0.0174
3673.00,0.0176
3672.00,0.0177
3671.00,0.0176
3670.00,0.0173
3669.00,0.0171
3668.00,0.0171
3667.00,0.0172
3666.00,0.0173
3665.00,0.0174
3664.00,0.0175
3663.00,0.0175
3662.00,0.0176
3661.00,0.0176
3660.00,0.0177
3659.00,0.0177
3658.00,0.0179
3657.00,0.0180
3656.00,0.0181
3655.00,0.0182
3654.00,0.0183
3653.00,0.0184
3652.00,0.0184
3651.00,0.0186
3650.00,0.0188
3649.00,0.0188
3648.00,0.0186
3647.00,0.0186
3646.00,0.0187
3645.00,0.0189
3644.00,0.0190
3643.00,0.0190
3642.00,0.0190
3641.00,0.0191
3640.00,0.0192
3639.00,0.0193
3638.00,0.0194
3637.00,0.0195
3636.00,0.0196
3635.00,0.0197
3634.00,0.0198
3633.00,0.0199
3632.00,0.0199
3631.00,0.0201
3630.00,0.0203
3629.00,0.0206
3628.00,0.0207
3627.00,0.0208
3626.00,0.0208
3625.00,0.0208
3624.00,0.0208
3623.00,0.0209
3622.00,0.0209
3621.00,0.0210
3620.00,0.0211
3619.00,0.0212
3618.00,0.0213
3617.00,0.0214
3616.00,0.0214
3615.00,0.0214
3614.00,0.0215
3613.00,0.0215
3612.00,0.0217
3611.00,0.0219
3610.00,0.0220
3609.00,0.0221
3608.00,0.0221
3607.00,0.0221
3606.00,0.0221
3605.00,0.0222
3604.00,0.0222
3603.00,0.0223
3602.00,0.0223
3601.00,0.0224
3600.00,0.0224
3599.00,0.0224
3598.00,0.0224
3597.00,0.0224
3596.00,0.0224
3595.00,0.0225
3594.00,0.0226
3593.00,0.0228
3592.00,0.0229
3591.00,0.0229
3590.00,0.0230
3589.00,0.0230
3588.00,0.0231
3587.00,0.0231
3586.00,0.0231
3585.00,0.0232
3584.00,0.0232
3583.00,0.0232
3582.00,0.0233
3581.00,0.0234
3580.00,0.0235
3579.00,0.0236
3578.00,0.0236
3577.00,0.0237
3576.00,0.0237
3575.00,0.0238
3574.00,0.0239
3573.00,0.0239
3572.00,0.0239
3571.00,0.0239
3570.00,0.0240
3569.00,0.0241
3568.00,0.0243
3567.00,0.0244
3566.00,0.0244
3565.00,0.0244
3564.00,0.0244
3563.00,0.0244
3562.00,0.0244
3561.00,0.0245
3560.00,0.0245
3559.00,0.0246
3558.00,0.0247
3557.00,0.0247
3556.00,0.0248
3555.00,0.0249
3554.00,0.0249
3553.00,0.0250
3552.00,0.0250
3551.00,0.0251
3550.00,0.0252
3549.00,0.0252
3548.00,0.0253
3547.00,0.0253
3546.00,0.0254
3545.00,0.0255
3544.00,0.0256
3543.00,0.0256
3542.00,0.0256
3541.00,0.0256
3540.00,0.0256
3539.00,0.0256
3538.00,0.0257
3537.00,0.0257
3536.00,0.0258
3535.00,0.0259
3534.00,0.0259
3533.00,0.0260
3532.00,0.0261
3531.00,0.0261
3530.00,0.0261
3529.00,0.0261
3528.00,0.0262
3527.00,0.0263
3526.00,0.0264
3525.00,0.0265
3524.00,0.0265
3523.00,0.0265
3522.00,0.0265
3521.00,0.0265
3520.00,0.0265
3519.00,0.0265
3518.00,0.0266
3517.00,0.0266
3516.00,0.0267
3515.00,0.0267
3514.00,0.0267
3513.00,0.0267
3512.00,0.0267
3511.00,0.0268
3510.00,0.0268
3509.00,0.0269
3508.00,0.0270
3507.00,0.0270
3506.00,0.0271
3505.00,0.0271
3504.00,0.0272
3503.00,0.0272
3502.00,0.0272
3501.00,0.0273
3500.00,0.0273
3499.00,0.0274
3498.00,0.0274
3497.00,0.0275
3496.00,0.0275
3495.00,0.0276
3494.00,0.0277
3493.00,0.0277
3492.00,0.0277
3491.00,0.0277
3490.00,0.0277
3489.00,0.0278
3488.00,0.0278
3487.00,0.0279
3486.00,0.0280
3485.00,0.0280
3484.00,0.0280
3483.00,0.0280
3482.00,0.0280
3481.00,0.0280
3480.00,0.0280
3479.00,0.0280
3478.00,0.0281
3477.00,0.0281
3476.00,0.0282
3475.00,0.0283
3474.00,0.0283
3473.00,0.0283
3472.00,0.0284
3471.00,0.0284
3470.00,0.0284
3469.00,0.0285
3468.00,0.0285
3467.00,0.0286
3466.00,0.0286
3465.00,0.0286
3464.00,0.0287
3463.00,0.0288
3462.00,0.0288
3461.00,0.0288
3460.00,0.0288
3459.00,0.0289
3458.00,0.0289
3457.00,0.0289
3456.00,0.0290
3455.00,0.0290
3454.00,0.0290
3453.00,0.0291
3452.00,0.0291
3451.00,0.0292
3450.00,0.0293
3449.00,0.0293
3448.00,0.0292
3447.00,0.0293
3446.00,0.0293
3445.00,0.0294
3444.00,0.0294
3443.00,0.0295
3442.00,0.0295
3441.00,0.0295
3440.00,0.0295
3439.00,0.0295
3438.00,0.0295
3437.00,0.0296
3436.00,0.0296
3435.00,0.0297
3434.00,0.0297
3433.00,0.0297
3432.00,0.0297
3431.00,0.0298
3430.00,0.0298
3429.00,0.0298
3428.00,0.0298
3427.00,0.0298
3426.00,0.0298
3425.00,0.0299
3424.00,0.0299
3423.00,0.0300
3422.00,0.0300
3421.00,0.0301
3420.00,0.0301
3419.00,0.0301
3418.00,0.0301
3417.00,0.0301
3416.00,0.0301
3415.00,0.0301
3414.00,0.0301
3413.00,0.0301
3412.00,0.0301
3411.00,0.0302
3410.00,0.0302
3409.00,0.0302
3408.00,0.0303
3407.00,0.0303
3406.00,0.0303
3405.00,0.0303
3404.00,0.0304
3403.00,0.0304
3402.00,0.0305
3401.00,0.0305
3400.00,0.0305
3399.00,0.0305
3398.00,0.0304
3397.00,0.0304
3396.00,0.0305
3395.00,0.0305
3394.00,0.0306
3393.00,0.0306
3392.00,0.0307
3391.00,0.0307
3390.00,0.0307
3389.00,0.0307
3388.00,0.0307
3387.00,0.0307
3386.00,0.0308
3385.00,0.0308
3384.00,0.0308
3383.00,0.0308
3382.00,0.0308
3381.00,0.0308
3380.00,0.0308
3379.00,0.0309
3378.00,0.0309
3377.00,0.0310
3376.00,0.0310
3375.00,0.0311
3374.00,0.0311
3373.00,0.0310
3372.00,0.0310
3371.00,0.0310
3370.00,0.0310
3369.00,0.0310
3368.00,0.0310
3367.00,0.0311
3366.00,0.0312
3365.00,0.0312
3364.00,0.0312
3363.00,0.0312
3362.00,0.0313
3361.00,0.0313
3360.00,0.0313
3359.00,0.0313
3358.00,0.0313
3357.00,0.0313
3356.00,0.0313
3355.00,0.0313
3354.00,0.0314
3353.00,0.0314
3352.00,0.0315
3351.00,0.0315
3350.00,0.0315
3349.00,0.0315
3348.00,0.0315
3347.00,0.0314
3346.00,0.0314
3345.00,0.0314
3344.00,0.0314
3343.00,0.0315
3342.00,0.0315
3341.00,0.0315
3340.00,0.0315
3339.00,0.0315
3338.00,0.0315
3337.00,0.0315
3336.00,0.0315
3335.00,0.0315
3334.00,0.0315
3333.00,0.0315
3332.00,0.0315
3331.00,0.0315
3330.00,0.0315
3329.00,0.0315
3328.00,0.0315
3327.00,0.0316
3326.00,0.0316
3325.00,0.0316
3324.00,0.0316
3323.00,0.0316
3322.00,0.0316
3321.00,0.0316
3320.00,0.0316
3319.00,0.0316
3318.00,0.0317
3317.00,0.0317
3316.00,0.0317
3315.00,0.0317
3314.00,0.0317
3313.00,0.0317
3312.00,0.0317
3311.00,0.0317
3310.00,0.0317
3309.00,0.0317
3308.00,0.0316
3307.00,0.0316
3306.00,0.0316
3305.00,0.0316
3304.00,0.0317
3303.00,0.0317
3302.00,0.0317
3301.00,0.0318
3300.00,0.0318
3299.00,0.0319
3298.00,0.0319
3297.00,0.0318
3296.00,0.0318
3295.00,0.0317
3294.00,0.0317
3293.00,0.0317
3292.00,0.0318
3291.00,0.0318
3290.00,0.0318
3289.00,0.0318
3288.00,0.0318
3287.00,0.0319
3286.00,0.0319
3285.00,0.0319
3284.00,0.0319
3283.00,0.0319
3282.00,0.0318
3281.00,0.0318
3280.00,0.0319
3279.00,0.0319
3278.00,0.0319
3277.00,0.0320
3276.00,0.0320
3275.00,0.0320
3274.00,0.0320
3273.00,0.0320
3272.00,0.0321
3271.00,0.0321
3270.00,0.0321
3269.00,0.0321
3268.00,0.0321
3267.00,0.0321
3266.00,0.0320
3265.00,0.0320
3264.00,0.0320
3263.00,0.0320
3262.00,0.0320
3261.00,0.0320
3260.00,0.0320
3259.00,0.0320
3258.00,0.0320
3257.00,0.0320
3256.00,0.0320
3255.00,0.0320
3254.00,0.0320
3253.00,0.0320
3252.00,0.0320
3251.00,0.0320
3250.00,0.0320
3249.00,0.0320
3248.00,0.0321
3247.00,0.0321
3246.00,0.0322
3245.00,0.0322
3244.00,0.0322
3243.00,0.0322
3242.00,0.0321
3241.00,0.0321
3240.00,0.0322
3239.00,0.0322
3238.00,0.0322
3237.00,0.0323
3236.00,0.0323
3235.00,0.0323
3234.00,0.0323
3233.00,0.0322
3232.00,0.0322
3231.00,0.0322
3230.00,0.0322
3229.00,0.0323
3228.00,0.0323
3227.00,0.0323
3226.00,0.0323
3225.00,0.0322
3224.00,0.0322
3223.00,0.0322
3222.00,0.0322
3221.00,0.0323
3220.00,0.0323
3219.00,0.0323
3218.00,0.0323
3217.00,0.0322
3216.00,0.0322
3215.00,0.0321
3214.00,0.0322
3213.00,0.0322
3212.00,0.0323
3211.00,0.0323
3210.00,0.0323
3209.00,0.0323
3208.00,0.0323
3207.00,0.0323
3206.00,0.0323
3205.00,0.0323
3204.00,0.0324
3203.00,0.0324
3202.00,0.0324
3201.00,0.0324
3200.00,0.0324
3199.00,0.0324
3198.00,0.0324
3197.00,0.0324
3196.00,0.0324
3195.00,0.0324
3194.00,0.0323
3193.00,0.0323
3192.00,0.0323
3191.00,0.0323
3190.00,0.0323
3189.00,0.0323
3188.00,0.0323
3187.00,0.0323
3186.00,0.0323
3185.00,0.0323
3184.00,0.0323
3183.00,0.0323
3182.00,0.0323
3181.00,0.0322
3180.00,0.0322
3179.00,0.0322
3178.00,0.0322
3177.00,0.0323
3176.00,0.0323
3175.00,0.0323
3174.00,0.0323
3173.00,0.0323
3172.00,0.0323
3171.00,0.0323
3170.00,0.0323
3169.00,0.0323
3168.00,0.0323
3167.00,0.0323
3166.00,0.0323
3165.00,0.0323
3164.00,0.0323
3163.00,0.0323
3162.00,0.0323
3161.00,0.0323
3160.00,0.0322
3159.00,0.0322
3158.00,0.0322
3157.00,0.0321
3156.00,0.0321
3155.00,0.0321
3154.00,0.0321
3153.00,0.0320
3152.00,0.0320
3151.00,0.0320
3150.00,0.0321
3149.00,0.0321
3148.00,0.0321
3147.00,0.0322
3146.00,0.0322
3145.00,0.0322
3144.00,0.0321
3143.00,0.0321
3142.00,0.0321
3141.00,0.0321
3140.00,0.0321
3139.00,0.0321
3138.00,0.0321
3137.00,0.0321
3136.00,0.0321
3135.00,0.0320
3134.00,0.0320
3133.00,0.0320
3132.00,0.0320
3131.00,0.0320
3130.00,0.0320
3129.00,0.0320
3128.00,0.0320
3127.00,0.0320
3126.00,0.0320
3125.00,0.0320
3124.00,0.0320
3123.00,0.0320
3122.00,0.0320
3121.00,0.0320
3120.00,0.0320
3119.00,0.0320
3118.00,0.0320
3117.00,0.0320
3116.00,0.0319
3115.00,0.0319
3114.00,0.0319
3113.00,0.0319
3112.00,0.0319
3111.00,0.0319
3110.00,0.0318
3109.00,0.0318
3108.00,0.0318
3107.00,0.0318
3106.00,0.0318
3105.00,0.0318
3104.00,0.0318
3103.00,0.0319
3102.00,0.0319
3101.00,0.0319
3100.00,0.0319
3099.00,0.0319
3098.00,0.0319
3097.00,0.0318
3096.00,0.0318
3095.00,0.0319
3094.00,0.0319
3093.00,0.0319
3092.00,0.0319
3091.00,0.0319
3090.00,0.0319
3089.00,0.0319
3088.00,0.0319
3087.00,0.0318
3086.00,0.0318
3085.00,0.0318
3084.00,0.0319
3083.00,0.0319
3082.00,0.0319
3081.00,0.0319
3080.00,0.0319
3079.00,0.0319
3078.00,0.0319
3077.00,0.0318
3076.00,0.0318
3075.00,0.0318
3074.00,0.0318
3073.00,0.0318
3072.00,0.0318
3071.00,0.0318
3070.00,0.0317
3069.00,0.0317
3068.00,0.0317
3067.00,0.0317
3066.00,0.0318
3065.00,0.0318
3064.00,0.0318
3063.00,0.0318
3062.00,0.0317
3061.00,0.0317
3060.00,0.0317
3059.00,0.0317
3058.00,0.0317
3057.00,0.0317
3056.00,0.0317
3055.00,0.0317
3054.00,0.0316
3053.00,0.0316
3052.00,0.0316
3051.00,0.0316
3050.00,0.0316
3049.00,0.0316
3048.00,0.0316
3047.00,0.0316
3046.00,0.0315
3045.00,0.0315
3044.00,0.0315
3043.00,0.0315
3042.00,0.0315
3041.00,0.0315
3040.00,0.0315
3039.00,0.0314
3038.00,0.0314
3037.00,0.0314
3036.00,0.0314
3035.00,0.0314
3034.00,0.0314
3033.00,0.0314
3032.00,0.0314
3031.00,0.0313
3030.00,0.0313
3029.00,0.0313
3028.00,0.0312
3027.00,0.0312
3026.00,0.0312
3025.00,0.0312
3024.00,0.0312
3023.00,0.0312
3022.00,0.0312
3021.00,0.0312
3020.00,0.0312
3019.00,0.0311
3018.00,0.0311
3017.00,0.0310
3016.00,0.0310
3015.00,0.0310
3014.00,0.0311
3013.00,0.0311
3012.00,0.0311
3011.00,0.0310
3010.00,0.0309
3009.00,0.0309
3008.00,0.0308
3007.00,0.0308
3006.00,0.0308
3005.00,0.0308
3004.00,0.0308
3003.00,0.0308
3002.00,0.0307
3001.00,0.0307
3000.00,0.0307
2999.00,0.0307
2998.00,0.0306
2997.00,0.0306
2996.00,0.0305
2995.00,0.0305
2994.00,0.0305
2993.00,0.0305
2992.00,0.0305
2991.00,0.0305
2990.00,0.0304
2989.00,0.0304
2988.00,0.0303
2987.00,0.0303
2986.00,0.0302
2985.00,0.0302
2984.00,0.0301
2983.00,0.0301
2982.00,0.0300
2981.00,0.0299
2980.00,0.0299
2979.00,0.0299
2978.00,0.0299
2977.00,0.0299
2976.00,0.0300
2975.00,0.0300
2974.00,0.0299
2973.00,0.0299
2972.00,0.0298
2971.00,0.0297
2970.00,0.0297
2969.00,0.0297
2968.00,0.0296
2967.00,0.0296
2966.00,0.0296
2965.00,0.0295
2964.00,0.0295
2963.00,0.0294
2962.00,0.0294
2961.00,0.0293
2960.00,0.0292
2959.00,0.0292
2958.00,0.0292
2957.00,0.0291
2956.00,0.0291
2955.00,0.0291
2954.00,0.0292
2953.00,0.0292
2952.00,0.0292
2951.00,0.0292
2950.00,0.0293
2949.00,0.0293
2948.00,0.0292
2947.00,0.0292
2946.00,0.0292
2945.00,0.0292
2944.00,0.0291
2943.00,0.0291
2942.00,0.0290
2941.00,0.0289
2940.00,0.0289
2939.00,0.0288
2938.00,0.0287
2937.00,0.0286
2936.00,0.0284
2935.00,0.0283
2934.00,0.0282
2933.00,0.0281
2932.00,0.0280
2931.00,0.0278
2930.00,0.0277
2929.00,0.0275
2928.00,0.0274
2927.00,0.0273
2926.00,0.0272
2925.00,0.0272
2924.00,0.0271
2923.00,0.0271
2922.00,0.0271
2921.00,0.0271
2920.00,0.0271
2919.00,0.0270
2918.00,0.0270
2917.00,0.0270
2916.00,0.0271
2915.00,0.0272
2914.00,0.0274
2913.00,0.0277
2912.00,0.0279
2911.00,0.0280
2910.00,0.0281
2909.00,0.0282
2908.00,0.0282
2907.00,0.0283
2906.00,0.0284
2905.00,0.0284
2904.00,0.0284
2903.00,0.0285
2902.00,0.0285
2901.00,0.0286
2900.00,0.0286
2899.00,0.0286
2898.00,0.0286
2897.00,0.0286
2896.00,0.0286
2895.00,0.0286
2894.00,0.0287
2893.00,0.0287
2892.00,0.0287
2891.00,0.0287
2890.00,0.0287
2889.00,0.0286
2888.00,0.0286
2887.00,0.0286
2886.00,0.0286
2885.00,0.0286
2884.00,0.0286
2883.00,0.0286
2882.00,0.0286
2881.00,0.0286
2880.00,0.0285
2879.00,0.0286
2878.00,0.0286
2877.00,0.0286
2876.00,0.0285
2875.00,0.0285
2874.00,0.0284
2873.00,0.0284
2872.00,0.0283
2871.00,0.0283
2870.00,0.0283
2869.00,0.0282
2868.00,0.0282
2867.00,0.0282
2866.00,0.0282
2865.00,0.0281
2864.00,0.0280
2863.00,0.0280
2862.00,0.0279
2861.00,0.0279
2860.00,0.0278
2859.00,0.0277
2858.00,0.0275
2857.00,0.0274
2856.00,0.0273
2855.00,0.0273
2854.00,0.0272
2853.00,0.0272
2852.00,0.0272
2851.00,0.0272
2850.00,0.0272
2849.00,0.0273
2848.00,0.0274
2847.00,0.0275
2846.00,0.0276
2845.00,0.0278
2844.00,0.0279
2843.00,0.0280
2842.00,0.0281
2841.00,0.0281
2840.00,0.0281
2839.00,0.0282
2838.00,0.0282
2837.00,0.0282
2836.00,0.0282
2835.00,0.0281
2834.00,0.0281
2833.00,0.0281
2832.00,0.0281
2831.00,0.0281
2830.00,0.0281
2829.00,0.0281
2828.00,0.0281
2827.00,0.0281
2826.00,0.0281
2825.00,0.0281
2824.00,0.0281
2823.00,0.0281
2822.00,0.0281
2821.00,0.0281
2820.00,0.0281
2819.00,0.0281
2818.00,0.0281
2817.00,0.0281
2816.00,0.0280
2815.00,0.0280
2814.00,0.0280
2813.00,0.0280
2812.00,0.0280
2811.00,0.0280
2810.00,0.0279
2809.00,0.0279
2808.00,0.0279
2807.00,0.0279
2806.00,0.0279
2805.00,0.0279
2804.00,0.0279
2803.00,0.0279
2802.00,0.0278
2801.00,0.0278
2800.00,0.0278
2799.00,0.0277
2798.00,0.0277
2797.00,0.0277
2796.00,0.0276
2795.00,0.0276
2794.00,0.0276
2793.00,0.0276
2792.00,0.0276
2791.00,0.0276
2790.00,0.0275
2789.00,0.0275
2788.00,0.0275
2787.00,0.0275
2786.00,0.0275
2785.00,0.0275
2784.00,0.0274
2783.00,0.0274
2782.00,0.0274
2781.00,0.0274
2780.00,0.0273
2779.00,0.0273
2778.00,0.0273
2777.00,0.0273
2776.00,0.0273
2775.00,0.0273
2774.00,0.0272
2773.00,0.0272
2772.00,0.0272
2771.00,0.0271
2770.00,0.0272
2769.00,0.0272
2768.00,0.0272
2767.00,0.0272
2766.00,0.0271
2765.00,0.0271
2764.00,0.0271
2763.00,0.0271
2762.00,0.0270
2761.00,0.0270
2760.00,0.0270
2759.00,0.0269
2758.00,0.0269
2757.00,0.0269
2756.00,0.0269
2755.00,0.0269
2754.00,0.0269
2753.00,0.0269
2752.00,0.0269
2751.00,0.0269
2750.00,0.0268
2749.00,0.0268
2748.00,0.0268
2747.00,0.0267
2746.00,0.0267
2745.00,0.0267
2744.00,0.0267
2743.00,0.0267
2742.00,0.0267
2741.00,0.0266
2740.00,0.0266
2739.00,0.0266
2738.00,0.0266
2737.00,0.0265
2736.00,0.0265
2735.00,0.0265
2734.00,0.0264
2733.00,0.0264
2732.00,0.0264
2731.00,0.0264
2730.00,0.0264
2729.00,0.0264
2728.00,0.0264
2727.00,0.0263
2726.00,0.0263
2725.00,0.0263
2724.00,0.0263
2723.00,0.0262
2722.00,0.0262
2721.00,0.0262
2720.00,0.0262
2719.00,0.0262
2718.00,0.0262
2717.00,0.0262
2716.00,0.0261
2715.00,0.0261
2714.00,0.0261
2713.00,0.0261
2712.00,0.0261
2711.00,0.0261
2710.00,0.0261
2709.00,0.0260
2708.00,0.0260
2707.00,0.0260
2706.00,0.0260
2705.00,0.0259
2704.00,0.0259
2703.00,0.0258
2702.00,0.0258
2701.00,0.0258
2700.00,0.0258
2699.00,0.0258
2698.00,0.0258
2697.00,0.0258
2696.00,0.0258
2695.00,0.0258
2694.00,0.0258
2693.00,0.0257
2692.00,0.0257
2691.00,0.0257
2690.00,0.0257
2689.00,0.0257
2688.00,0.0257
2687.00,0.0257
2686.00,0.0256
2685.00,0.0256
2684.00,0.0256
2683.00,0.0256
2682.00,0.0255
2681.00,0.0255
2680.00,0.0255
2679.00,0.0255
2678.00,0.0255
2677.00,0.0255
2676.00,0.0254
2675.00,0.0254
2674.00,0.0254
2673.00,0.0254
2672.00,0.0254
2671.00,0.0254
2670.00,0.0254
2669.00,0.0253
2668.00,0.0253
2667.00,0.0253
2666.00,0.0254
2665.00,0.0254
2664.00,0.0254
2663.00,0.0254
2662.00,0.0254
2661.00,0.0254
2660.00,0.0254
2659.00,0.0254
2658.00,0.0254
2657.00,0.0254
2656.00,0.0254
2655.00,0.0254
2654.00,0.0254
2653.00,0.0255
2652.00,0.0255
2651.00,0.0255
2650.00,0.0255
2649.00,0.0254
2648.00,0.0254
2647.00,0.0254
2646.00,0.0253
2645.00,0.0253
2644.00,0.0253
2643.00,0.0253
2642.00,0.0253
2641.00,0.0253
2640.00,0.0253
2639.00,0.0253
2638.00,0.0253
2637.00,0.0253
2636.00,0.0253
2635.00,0.0253
2634.00,0.0253
2633.00,0.0253
2632.00,0.0253
2631.00,0.0253
2630.00,0.0253
2629.00,0.0253
2628.00,0.0253
2627.00,0.0254
2626.00,0.0253
2625.00,0.0253
2624.00,0.0253
2623.00,0.0253
2622.00,0.0252
2621.00,0.0252
2620.00,0.0252
2619.00,0.0252
2618.00,0.0252
2617.00,0.0252
2616.00,0.0252
2615.00,0.0252
2614.00,0.0252
2613.00,0.0252
2612.00,0.0252
2611.00,0.0252
2610.00,0.0252
2609.00,0.0252
2608.00,0.0252
2607.00,0.0252
2606.00,0.0252
2605.00,0.0252
2604.00,0.0252
2603.00,0.0252
2602.00,0.0251
2601.00,0.0251
2600.00,0.0251
2599.00,0.0251
2598.00,0.0251
2597.00,0.0251
2596.00,0.0251
2595.00,0.0251
2594.00,0.0251
2593.00,0.0250
2592.00,0.0250
2591.00,0.0251
2590.00,0.0251
2589.00,0.0251
2588.00,0.0250
2587.00,0.0251
2586.00,0.0251
2585.00,0.0251
2584.00,0.0251
2583.00,0.0251
2582.00,0.0251
2581.00,0.0251
2580.00,0.0251
2579.00,0.0251
2578.00,0.0251
2577.00,0.0250
2576.00,0.0250
2575.00,0.0249
2574.00,0.0249
2573.00,0.0250
2572.00,0.0250
2571.00,0.0250
2570.00,0.0251
2569.00,0.0250
2568.00,0.0250
2567.00,0.0250
2566.00,0.0250
2565.00,0.0249
2564.00,0.0249
2563.00,0.0249
2562.00,0.0248
2561.00,0.0248
2560.00,0.0248
2559.00,0.0248
2558.00,0.0248
2557.00,0.0248
2556.00,0.0248
2555.00,0.0248
2554.00,0.0249
2553.00,0.0249
2552.00,0.0249
2551.00,0.0249
2550.00,0.0249
2549.00,0.0248
2548.00,0.0248
2547.00,0.0248
2546.00,0.0248
2545.00,0.0248
2544.00,0.0248
2543.00,0.0247
2542.00,0.0246
2541.00,0.0246
2540.00,0.0246
2539.00,0.0247
2538.00,0.0247
2537.00,0.0247
2536.00,0.0246
2535.00,0.0246
2534.00,0.0245
2533.00,0.0245
2532.00,0.0245
2531.00,0.0245
2530.00,0.0245
2529.00,0.0245
2528.00,0.0245
2527.00,0.0246
2526.00,0.0246
2525.00,0.0247
2524.00,0.0247
2523.00,0.0246
2522.00,0.0246
2521.00,0.0245
2520.00,0.0245
2519.00,0.0245
2518.00,0.0245
2517.00,0.0245
2516.00,0.0245
2515.00,0.0245
2514.00,0.0245
2513.00,0.0246
2512.00,0.0246
2511.00,0.0246
2510.00,0.0245
2509.00,0.0244
2508.00,0.0244
2507.00,0.0243
2506.00,0.0243
2505.00,0.0242
2504.00,0.0242
2503.00,0.0243
2502.00,0.0243
2501.00,0.0243
2500.00,0.0243
2499.00,0.0243
2498.00,0.0243
2497.00,0.0244
2496.00,0.0244
2495.00,0.0244
2494.00,0.0244
2493.00,0.0244
2492.00,0.0244
2491.00,0.0243
2490.00,0.0243
2489.00,0.0243
2488.00,0.0243
2487.00,0.0242
2486.00,0.0242
2485.00,0.0243
2484.00,0.0242
2483.00,0.0242
2482.00,0.0242
2481.00,0.0242
2480.00,0.0242
2479.00,0.0242
2478.00,0.0242
2477.00,0.0242
2476.00,0.0241
2475.00,0.0241
2474.00,0.0241
2473.00,0.0241
2472.00,0.0241
2471.00,0.0241
2470.00,0.0241
2469.00,0.0241
2468.00,0.0241
2467.00,0.0241
2466.00,0.0241
2465.00,0.0241
2464.00,0.0241
2463.00,0.0241
2462.00,0.0241
2461.00,0.0241
2460.00,0.0241
2459.00,0.0241
2458.00,0.0240
2457.00,0.0240
2456.00,0.0240
2455.00,0.0240
2454.00,0.0240
2453.00,0.0241
2452.00,0.0241
2451.00,0.0241
2450.00,0.0241
2449.00,0.0241
2448.00,0.0240
2447.00,0.0240
2446.00,0.0239
2445.00,0.0239
2444.00,0.0238
2443.00,0.0238
2442.00,0.0238
2441.00,0.0238
2440.00,0.0238
2439.00,0.0237
2438.00,0.0237
2437.00,0.0237
2436.00,0.0237
2435.00,0.0237
2434.00,0.0237
2433.00,0.0237
2432.00,0.0237
2431.00,0.0237
2430.00,0.0236
2429.00,0.0236
2428.00,0.0235
2427.00,0.0235
2426.00,0.0236
2425.00,0.0236
2424.00,0.0236
2423.00,0.0236
2422.00,0.0235
2421.00,0.0235
2420.00,0.0234
2419.00,0.0234
2418.00,0.0234
2417.00,0.0234
2416.00,0.0234
2415.00,0.0235
2414.00,0.0235
2413.00,0.0235
2412.00,0.0235
2411.00,0.0234
2410.00,0.0233
2409.00,0.0233
2408.00,0.0232
2407.00,0.0232
2406.00,0.0231
2405.00,0.0231
2404.00,0.0232
2403.00,0.0232
2402.00,0.0231
2401.00,0.0231
2400.00,0.0230
2399.00,0.0230
2398.00,0.0230
2397.00,0.0230
2396.00,0.0231
2395.00,0.0230
2394.00,0.0230
2393.00,0.0229
2392.00,0.0229
2391.00,0.0229
2390.00,0.0229
2389.00,0.0229
2388.00,0.0229
2387.00,0.0229
2386.00,0.0229
2385.00,0.0229
2384.00,0.0229
2383.00,0.0229
2382.00,0.0228
2381.00,0.0227
2380.00,0.0225
2379.00,0.0223
2378.00,0.0222
2377.00,0.0221
2376.00,0.0220
2375.00,0.0220
2374.00,0.0220
2373.00,0.0220
2372.00,0.0221
2371.00,0.0222
2370.00,0.0224
2369.00,0.0224
2368.00,0.0224
2367.00,0.0222
2366.00,0.0220
2365.00,0.0218
2364.00,0.0217
2363.00,0.0217
2362.00,0.0218
2361.00,0.0220
2360.00,0.0222
2359.00,0.0222
2358.00,0.0221
2357.00,0.0219
2356.00,0.0218
2355.00,0.0217
2354.00,0.0216
2353.00,0.0216
2352.00,0.0216
2351.00,0.0217
2350.00,0.0218
2349.00,0.0218
2348.00,0.0218
2347.00,0.0218
2346.00,0.0217
2345.00,0.0217
2344.00,0.0217
2343.00,0.0217
2342.00,0.0217
2341.00,0.0217
2340.00,0.0217
2339.00,0.0217
2338.00,0.0217
2337.00,0.0217
2336.00,0.0216
2335.00,0.0216
2334.00,0.0215
2333.00,0.0215
2332.00,0.0215
2331.00,0.0215
2330.00,0.0216
2329.00,0.0217
2328.00,0.0219
2327.00,0.0220
2326.00,0.0221
2325.00,0.0222
2324.00,0.0221
2323.00,0.0220
2322.00,0.0219
2321.00,0.0218
2320.00,0.0218
2319.00,0.0218
2318.00,0.0218
2317.00,0.0218
2316.00,0.0218
2315.00,0.0217
2314.00,0.0217
2313.00,0.0217
2312.00,0.0218
2311.00,0.0219
2310.00,0.0219
2309.00,0.0220
2308.00,0.0220
2307.00,0.0219
2306.00,0.0219
2305.00,0.0219
2304.00,0.0219
2303.00,0.0219
2302.00,0.0219
2301.00,0.0219
2300.00,0.0219
2299.00,0.0219
2298.00,0.0220
2297.00,0.0220
2296.00,0.0220
2295.00,0.0220
2294.00,0.0220
2293.00,0.0221
2292.00,0.0222
2291.00,0.0222
2290.00,0.0222
2289.00,0.0223
2288.00,0.0223
2287.00,0.0223
2286.00,0.0223
2285.00,0.0222
2284.00,0.0222
2283.00,0.0221
2282.00,0.0221
2281.00,0.0221
2280.00,0.0220
2279.00,0.0220
2278.00,0.0219
2277.00,0.0218
2276.00,0.0217
2275.00,0.0217
2274.00,0.0217
2273.00,0.0217
2272.00,0.0218
2271.00,0.0218
2270.00,0.0219
2269.00,0.0219
2268.00,0.0218
2267.00,0.0218
2266.00,0.0218
2265.00,0.0218
2264.00,0.0219
2263.00,0.0219
2262.00,0.0219
2261.00,0.0219
2260.00,0.0219
2259.00,0.0219
2258.00,0.0219
2257.00,0.0218
2256.00,0.0216
2255.00,0.0216
2254.00,0.0215
2253.00,0.0216
2252.00,0.0217
2251.00,0.0217
2250.00,0.0218
2249.00,0.0217
2248.00,0.0217
2247.00,0.0217
2246.00,0.0217
2245.00,0.0216
2244.00,0.0216
2243.00,0.0216
2242.00,0.0216
2241.00,0.0216
2240.00,0.0216
2239.00,0.0217
2238.00,0.0217
2237.00,0.0218
2236.00,0.0218
2235.00,0.0218
2234.00,0.0219
2233.00,0.0219
2232.00,0.0220
2231.00,0.0220
2230.00,0.0219
2229.00,0.0219
2228.00,0.0218
2227.00,0.0217
2226.00,0.0217
2225.00,0.0217
2224.00,0.0217
2223.00,0.0217
2222.00,0.0218
2221.00,0.0218
2220.00,0.0217
2219.00,0.0217
2218.00,0.0216
2217.00,0.0216
2216.00,0.0217
2215.00,0.0218
2214.00,0.0219
2213.00,0.0220
2212.00,0.0219
2211.00,0.0218
2210.00,0.0217
2209.00,0.0217
2208.00,0.0216
2207.00,0.0215
2206.00,0.0214
2205.00,0.0214
2204.00,0.0213
2203.00,0.0214
2202.00,0.0214
2201.00,0.0214
2200.00,0.0215
2199.00,0.0215
2198.00,0.0216
2197.00,0.0215
2196.00,0.0214
2195.00,0.0214
2194.00,0.0214
2193.00,0.0214
2192.00,0.0214
2191.00,0.0213
2190.00,0.0212
2189.00,0.0213
2188.00,0.0215
2187.00,0.0216
2186.00,0.0217
2185.00,0.0216
2184.00,0.0214
2183.00,0.0212
2182.00,0.0211
2181.00,0.0211
2180.00,0.0211
2179.00,0.0210
2178.00,0.0209
2177.00,0.0209
2176.00,0.0208
2175.00,0.0209
2174.00,0.0210
2173.00,0.0211
2172.00,0.0212
2171.00,0.0212
2170.00,0.0213
2169.00,0.0215
2168.00,0.0215
2167.00,0.0215
2166.00,0.0216
2165.00,0.0217
2164.00,0.0218
2163.00,0.0218
2162.00,0.0216
2161.00,0.0213
2160.00,0.0209
2159.00,0.0206
2158.00,0.0203
2157.00,0.0201
2156.00,0.0199
2155.00,0.0198
2154.00,0.0199
2153.00,0.0200
2152.00,0.0202
2151.00,0.0201
2150.00,0.0199
2149.00,0.0197
2148.00,0.0196
2147.00,0.0196
2146.00,0.0197
2145.00,0.0198
2144.00,0.0198
2143.00,0.0197
2142.00,0.0197
2141.00,0.0197
2140.00,0.0198
2139.00,0.0199
2138.00,0.0198
2137.00,0.0197
2136.00,0.0194
2135.00,0.0192
2134.00,0.0191
2133.00,0.0191
2132.00,0.0192
2131.00,0.0192
2130.00,0.0192
2129.00,0.0192
2128.00,0.0193
2127.00,0.0194
2126.00,0.0194
2125.00,0.0194
2124.00,0.0194
2123.00,0.0193
2122.00,0.0193
2121.00,0.0193
2120.00,0.0194
2119.00,0.0194
2118.00,0.0194
2117.00,0.0194
2116.00,0.0195
2115.00,0.0195
2114.00,0.0196
2113.00,0.0196
2112.00,0.0196
2111.00,0.0195
2110.00,0.0194
2109.00,0.0193
2108.00,0.0192
2107.00,0.0192
2106.00,0.0192
2105.00,0.0192
2104.00,0.0192
2103.00,0.0192
2102.00,0.0192
2101.00,0.0192
2100.00,0.0191
2099.00,0.0190
2098.00,0.0189
2097.00,0.0188
2096.00,0.0188
2095.00,0.0188
2094.00,0.0189
2093.00,0.0189
2092.00,0.0189
2091.00,0.0189
2090.00,0.0189
2089.00,0.0188
2088.00,0.0188
2087.00,0.0188
2086.00,0.0187
2085.00,0.0187
2084.00,0.0187
2083.00,0.0187
2082.00,0.0187
2081.00,0.0186
2080.00,0.0187
2079.00,0.0187
2078.00,0.0188
2077.00,0.0188
2076.00,0.0188
2075.00,0.0188
2074.00,0.0188
2073.00,0.0187
2072.00,0.0187
2071.00,0.0186
2070.00,0.0186
2069.00,0.0186
2068.00,0.0186
2067.00,0.0185
2066.00,0.0185
2065.00,0.0185
2064.00,0.0185
2063.00,0.0185
2062.00,0.0185
2061.00,0.0186
2060.00,0.0187
2059.00,0.0187
2058.00,0.0187
2057.00,0.0186
2056.00,0.0185
2055.00,0.0185
2054.00,0.0187
2053.00,0.0189
2052.00,0.0190
2051.00,0.0190
2050.00,0.0189
2049.00,0.0187
2048.00,0.0186
2047.00,0.0185
2046.00,0.0186
2045.00,0.0187
2044.00,0.0187
2043.00,0.0187
2042.00,0.0188
2041.00,0.0188
2040.00,0.0188
2039.00,0.0188
2038.00,0.0189
2037.00,0.0190
2036.00,0.0191
2035.00,0.0190
2034.00,0.0188
2033.00,0.0186
2032.00,0.0185
2031.00,0.0185
2030.00,0.0185
2029.00,0.0185
2028.00,0.0186
2027.00,0.0186
2026.00,0.0185
2025.00,0.0184
2024.00,0.0183
2023.00,0.0182
2022.00,0.0182
2021.00,0.0182
2020.00,0.0183
2019.00,0.0184
2018.00,0.0183
2017.00,0.0183
2016.00,0.0182
2015.00,0.0181
2014.00,0.0182
2013.00,0.0183
2012.00,0.0183
2011.00,0.0183
2010.00,0.0182
2009.00,0.0181
2008.00,0.0180
2007.00,0.0178
2006.00,0.0176
2005.00,0.0175
2004.00,0.0176
2003.00,0.0176
2002.00,0.0176
2001.00,0.0177
2000.00,0.0177
1999.00,0.0178
1998.00,0.0178
1997.00,0.0178
1996.00,0.0179
1995.00,0.0178
1994.00,0.0178
1993.00,0.0177
1992.00,0.0176
1991.00,0.0175
1990.00,0.0175
1989.00,0.0175
1988.00,0.0174
1987.00,0.0173
1986.00,0.0172
1985.00,0.0174
1984.00,0.0176
1983.00,0.0178
1982.00,0.0180
1981.00,0.0181
1980.00,0.0181
1979.00,0.0180
1978.00,0.0177
1977.00,0.0174
1976.00,0.0172
1975.00,0.0170
1974.00,0.0169
1973.00,0.0170
1972.00,0.0171
1971.00,0.0171
1970.00,0.0171
1969.00,0.0170
1968.00,0.0167
1967.00,0.0165
1966.00,0.0164
1965.00,0.0164
1964.00,0.0165
1963.00,0.0165
1962.00,0.0164
1961.00,0.0164
1960.00,0.0164
1959.00,0.0164
1958.00,0.0164
1957.00,0.0163
1956.00,0.0162
1955.00,0.0162
1954.00,0.0162
1953.00,0.0162
1952.00,0.0163
1951.00,0.0162
1950.00,0.0162
1949.00,0.0162
1948.00,0.0161
1947.00,0.0161
1946.00,0.0160
1945.00,0.0160
1944.00,0.0159
1943.00,0.0159
1942.00,0.0157
1941.00,0.0156
1940.00,0.0154
1939.00,0.0154
1938.00,0.0154
1937.00,0.0155
1936.00,0.0155
1935.00,0.0156
1934.00,0.0156
1933.00,0.0155
1932.00,0.0154
1931.00,0.0153
1930.00,0.0152
1929.00,0.0152
1928.00,0.0152
1927.00,0.0151
1926.00,0.0151
1925.00,0.0151
1924.00,0.0151
1923.00,0.0150
1922.00,0.0149
1921.00,0.0149
1920.00,0.0150
1919.00,0.0150
1918.00,0.0149
1917.00,0.0147
1916.00,0.0147
1915.00,0.0147
1914.00,0.0147
1913.00,0.0147
1912.00,0.0146
1911.00,0.0146
1910.00,0.0145
1909.00,0.0144
1908.00,0.0143
1907.00,0.0143
1906.00,0.0144
1905.00,0.0144
1904.00,0.0144
1903.00,0.0143
1902.00,0.0142
1901.00,0.0142
1900.00,0.0142
1899.00,0.0142
1898.00,0.0141
1897.00,0.0141
1896.00,0.0139
1895.00,0.0138
1894.00,0.0137
1893.00,0.0138
1892.00,0.0139
1891.00,0.0139
1890.00,0.0138
1889.00,0.0136
1888.00,0.0135
1887.00,0.0135
1886.00,0.0135
1885.00,0.0134
1884.00,0.0134
1883.00,0.0133
1882.00,0.0132
1881.00,0.0132
1880.00,0.0132
1879.00,0.0132
1878.00,0.0131
1877.00,0.0131
1876.00,0.0132
1875.00,0.0132
1874.00,0.0132
1873.00,0.0133
1872.00,0.0133
1871.00,0.0133
1870.00,0.0132
1869.00,0.0130
1868.00,0.0127
1867.00,0.0125
1866.00,0.0125
1865.00,0.0126
1864.00,0.0126
1863.00,0.0126
1862.00,0.0125
1861.00,0.0124
1860.00,0.0123
1859.00,0.0123
1858.00,0.0123
1857.00,0.0123
1856.00,0.0122
1855.00,0.0122
1854.00,0.0122
1853.00,0.0122
1852.00,0.0121
1851.00,0.0121
1850.00,0.0121
1849.00,0.0121
1848.00,0.0121
1847.00,0.0121
1846.00,0.0121
1845.00,0.0120
1844.00,0.0116
1843.00,0.0114
1842.00,0.0113
1841.00,0.0115
1840.00,0.0116
1839.00,0.0116
1838.00,0.0116
1837.00,0.0115
1836.00,0.0114
1835.00,0.0113
1834.00,0.0114
1833.00,0.0115
1832.00,0.0115
1831.00,0.0114
1830.00,0.0110
1829.00,0.0107
1828.00,0.0106
1827.00,0.0108
1826.00,0.0108
1825.00,0.0107
1824.00,0.0106
1823.00,0.0106
1822.00,0.0106
1821.00,0.0107
1820.00,0.0107
1819.00,0.0107
1818.00,0.0106
1817.00,0.0105
1816.00,0.0104
1815.00,0.0104
1814.00,0.0105
1813.00,0.0105
1812.00,0.0104
1811.00,0.0103
1810.00,0.0102
1809.00,0.0102
1808.00,0.0102
1807.00,0.0103
1806.00,0.0103
1805.00,0.0104
1804.00,0.0105
1803.00,0.0105
1802.00,0.0105
1801.00,0.0104
1800.00,0.0103
1799.00,0.0103
1798.00,0.0104
1797.00,0.0106
1796.00,0.0108
1795.00,0.0110
1794.00,0.0111
1793.00,0.0110
1792.00,0.0108
1791.00,0.0105
1790.00,0.0105
1789.00,0.0108
1788.00,0.0110
1787.00,0.0113
1786.00,0.0114
1785.00,0.0115
1784.00,0.0116
1783.00,0.0116
1782.00,0.0116
1781.00,0.0116
1780.00,0.0117
1779.00,0.0118
1778.00,0.0121
1777.00,0.0124
1776.00,0.0127
1775.00,0.0129
1774.00,0.0131
1773.00,0.0130
1772.00,0.0128
1771.00,0.0127
1770.00,0.0129
1769.00,0.0133
1768.00,0.0135
1767.00,0.0136
1766.00,0.0138
1765.00,0.0140
1764.00,0.0143
1763.00,0.0143
1762.00,0.0143
1761.00,0.0142
1760.00,0.0144
1759.00,0.0146
1758.00,0.0148
1757.00,0.0149
1756.00,0.0150
1755.00,0.0151
1754.00,0.0154
1753.00,0.0157
1752.00,0.0159
1751.00,0.0161
1750.00,0.0160
1749.00,0.0159
1748.00,0.0159
1747.00,0.0161
1746.00,0.0163
1745.00,0.0166
1744.00,0.0168
1743.00,0.0170
1742.00,0.0172
1741.00,0.0175
1740.00,0.0178
1739.00,0.0180
1738.00,0.0183
1737.00,0.0187
1736.00,0.0193
1735.00,0.0197
1734.00,0.0199
1733.00,0.0198
1732.00,0.0198
1731.00,0.0200
1730.00,0.0202
1729.00,0.0205
1728.00,0.0209
1727.00,0.0213
1726.00,0.0216
1725.00,0.0219
1724.00,0.0222
1723.00,0.0224
1722.00,0.0226
1721.00,0.0228
1720.00,0.0230
1719.00,0.0231
1718.00,0.0232
1717.00,0.0233
1716.00,0.0233
1715.00,0.0233
1714.00,0.0235
1713.00,0.0238
1712.00,0.0241
1711.00,0.0243
1710.00,0.0245
1709.00,0.0247
1708.00,0.0248
1707.00,0.0249
1706.00,0.0249
1705.00,0.0250
1704.00,0.0251
1703.00,0.0252
1702.00,0.0255
1701.00,0.0258
1700.00,0.0260
1699.00,0.0261
1698.00,0.0262
1697.00,0.0262
1696.00,0.0261
1695.00,0.0261
1694.00,0.0263
1693.00,0.0266
1692.00,0.0268
1691.00,0.0270
1690.00,0.0271
1689.00,0.0272
1688.00,0.0273
1687.00,0.0274
1686.00,0.0274
1685.00,0.0274
1684.00,0.0272
1683.00,0.0273
1682.00,0.0277
1681.00,0.0281
1680.00,0.0284
1679.00,0.0287
1678.00,0.0289
1677.00,0.0292
1676.00,0.0295
1675.00,0.0297
1674.00,0.0298
1673.00,0.0299
1672.00,0.0300
1671.00,0.0302
1670.00,0.0303
1669.00,0.0305
1668.00,0.0306
1667.00,0.0309
1666.00,0.0311
1665.00,0.0313
1664.00,0.0315
1663.00,0.0317
1662.00,0.0319
1661.00,0.0322
1660.00,0.0324
1659.00,0.0327
1658.00,0.0328
1657.00,0.0329
1656.00,0.0328
1655.00,0.0329
1654.00,0.0332
1653.00,0.0335
1652.00,0.0337
1651.00,0.0340
1650.00,0.0342
1649.00,0.0344
1648.00,0.0347
1647.00,0.0350
1646.00,0.0353
1645.00,0.0356
1644.00,0.0359
1643.00,0.0361
1642.00,0.0363
1641.00,0.0365
1640.00,0.0366
1639.00,0.0367
1638.00,0.0367
1637.00,0.0369
1636.00,0.0373
1635.00,0.0376
1634.00,0.0380
1633.00,0.0383
1632.00,0.0386
1631.00,0.0388
1630.00,0.0390
1629.00,0.0392
1628.00,0.0394
1627.00,0.0396
1626.00,0.0399
1625.00,0.0401
1624.00,0.0404
1623.00,0.0408
1622.00,0.0410
1621.00,0.0411
1620.00,0.0412
1619.00,0.0413
1618.00,0.0415
1617.00,0.0418
1616.00,0.0420
1615.00,0.0422
1614.00,0.0424
1613.00,0.0426
1612.00,0.0428
1611.00,0.0430
1610.00,0.0432
1609.00,0.0434
1608.00,0.0436
1607.00,0.0437
1606.00,0.0439
1605.00,0.0440
1604.00,0.0441
1603.00,0.0443
1602.00,0.0444
1601.00,0.0445
1600.00,0.0446
1599.00,0.0448
1598.00,0.0449
1597.00,0.0450
1596.00,0.0451
1595.00,0.0452
1594.00,0.0453
1593.00,0.0454
1592.00,0.0454
1591.00,0.0455
1590.00,0.0456
1589.00,0.0457
1588.00,0.0458
1587.00,0.0459
1586.00,0.0459
1585.00,0.0460
1584.00,0.0460
1583.00,0.0461
1582.00,0.0462
1581.00,0.0462
1580.00,0.0462
1579.00,0.0460
1578.00,0.0460
1577.00,0.0460
1576.00,0.0462
1575.00,0.0464
1574.00,0.0464
1573.00,0.0463
1572.00,0.0461
1571.00,0.0462
1570.00,0.0463
1569.00,0.0464
1568.00,0.0465
1567.00,0.0464
1566.00,0.0464
1565.00,0.0463
1564.00,0.0462
1563.00,0.0460
1562.00,0.0457
1561.00,0.0451
1560.00,0.0452
1559.00,0.0458
1558.00,0.0459
1557.00,0.0459
1556.00,0.0459
1555.00,0.0458
1554.00,0.0457
1553.00,0.0456
1552.00,0.0454
1551.00,0.0452
1550.00,0.0451
1549.00,0.0449
1548.00,0.0448
1547.00,0.0447
1546.00,0.0445
1545.00,0.0444
1544.00,0.0442
1543.00,0.0438
1542.00,0.0435
1541.00,0.0433
1540.00,0.0430
1539.00,0.0427
1538.00,0.0427
1537.00,0.0427
1536.00,0.0426
1535.00,0.0425
1534.00,0.0425
1533.00,0.0425
1532.00,0.0424
1531.00,0.0424
1530.00,0.0423
1529.00,0.0422
1528.00,0.0421
1527.00,0.0420
1526.00,0.0419
1525.00,0.0418
1524.00,0.0416
1523.00,0.0414
1522.00,0.0413
1521.00,0.0411
1520.00,0.0409
1519.00,0.0407
1518.00,0.0405
1517.00,0.0404
1516.00,0.0404
1515.00,0.0404
1514.00,0.0403
1513.00,0.0403
1512.00,0.0402
1511.00,0.0400
1510.00,0.0397
1509.00,0.0394
1508.00,0.0393
1507.00,0.0391
1506.00,0.0387
1505.00,0.0388
1504.00,0.0390
1503.00,0.0389
1502.00,0.0388
1501.00,0.0387
1500.00,0.0385
1499.00,0.0384
1498.00,0.0383
1497.00,0.0383
1496.00,0.0383
1495.00,0.0383
1494.00,0.0383
1493.00,0.0383
1492.00,0.0383
1491.00,0.0384
1490.00,0.0383
1489.00,0.0381
1488.00,0.0380
1487.00,0.0379
1486.00,0.0379
1485.00,0.0380
1484.00,0.0380
1483.00,0.0380
1482.00,0.0380
1481.00,0.0380
1480.00,0.0380
1479.00,0.0379
1478.00,0.0379
1477.00,0.0379
1476.00,0.0380
1475.00,0.0381
1474.00,0.0383
1473.00,0.0384
1472.00,0.0383
1471.00,0.0382
1470.00,0.0381
1469.00,0.0380
1468.00,0.0380
1467.00,0.0379
1466.00,0.0380
1465.00,0.0381
1464.00,0.0382
1463.00,0.0382
1462.00,0.0381
1461.00,0.0381
1460.00,0.0380
1459.00,0.0381
1458.00,0.0383
1457.00,0.0385
1456.00,0.0386
1455.00,0.0387
1454.00,0.0387
1453.00,0.0388
1452.00,0.0389
1451.00,0.0390
1450.00,0.0391
1449.00,0.0393
1448.00,0.0394
1447.00,0.0395
1446.00,0.0395
1445.00,0.0395
1444.00,0.0396
1443.00,0.0396
1442.00,0.0397
1441.00,0.0397
1440.00,0.0398
1439.00,0.0398
1438.00,0.0399
1437.00,0.0401
1436.00,0.0403
1435.00,0.0404
1434.00,0.0403
1433.00,0.0403
1432.00,0.0404
1431.00,0.0405
1430.00,0.0405
1429.00,0.0406
1428.00,0.0407
1427.00,0.0407
1426.00,0.0407
1425.00,0.0408
1424.00,0.0408
1423.00,0.0409
1422.00,0.0408
1421.00,0.0408
1420.00,0.0410
1419.00,0.0412
1418.00,0.0413
1417.00,0.0413
1416.00,0.0414
1415.00,0.0414
1414.00,0.0415
1413.00,0.0415
1412.00,0.0416
1411.00,0.0416
1410.00,0.0416
1409.00,0.0416
1408.00,0.0416
1407.00,0.0416
1406.00,0.0417
1405.00,0.0418
1404.00,0.0419
1403.00,0.0420
1402.00,0.0420
1401.00,0.0421
1400.00,0.0422
1399.00,0.0423
1398.00,0.0423
1397.00,0.0424
1396.00,0.0425
1395.00,0.0425
1394.00,0.0426
1393.00,0.0426
1392.00,0.0427
1391.00,0.0427
1390.00,0.0427
1389.00,0.0428
1388.00,0.0430
1387.00,0.0431
1386.00,0.0432
1385.00,0.0432
1384.00,0.0433
1383.00,0.0433
1382.00,0.0434
1381.00,0.0434
1380.00,0.0435
1379.00,0.0435
1378.00,0.0435
1377.00,0.0435
1376.00,0.0435
1375.00,0.0436
1374.00,0.0437
1373.00,0.0438
1372.00,0.0439
1371.00,0.0439
1370.00,0.0439
1369.00,0.0440
1368.00,0.0440
1367.00,0.0441
1366.00,0.0441
1365.00,0.0440
1364.00,0.0440
1363.00,0.0441
1362.00,0.0441
1361.00,0.0442
1360.00,0.0442
1359.00,0.0442
1358.00,0.0442
1357.00,0.0442
1356.00,0.0442
1355.00,0.0442
1354.00,0.0442
1353.00,0.0442
1352.00,0.0441
1351.00,0.0441
1350.00,0.0441
1349.00,0.0441
1348.00,0.0441
1347.00,0.0441
1346.00,0.0440
1345.00,0.0440
1344.00,0.0439
1343.00,0.0439
1342.00,0.0439
1341.00,0.0438
1340.00,0.0439
1339.00,0.0439
1338.00,0.0438
1337.00,0.0438
1336.00,0.0438
1335.00,0.0437
1334.00,0.0437
1333.00,0.0437
1332.00,0.0436
1331.00,0.0436
1330.00,0.0436
1329.00,0.0436
1328.00,0.0436
1327.00,0.0436
1326.00,0.0435
1325.00,0.0435
1324.00,0.0434
1323.00,0.0434
1322.00,0.0434
1321.00,0.0435
1320.00,0.0435
1319.00,0.0435
1318.00,0.0435
1317.00,0.0435
1316.00,0.0435
1315.00,0.0435
1314.00,0.0436
1313.00,0.0436
1312.00,0.0436
1311.00,0.0436
1310.00,0.0436
1309.00,0.0436
1308.00,0.0435
1307.00,0.0435
1306.00,0.0435
1305.00,0.0435
1304.00,0.0436
1303.00,0.0436
1302.00,0.0437
1301.00,0.0437
1300.00,0.0437
1299.00,0.0437
1298.00,0.0437
1297.00,0.0437
1296.00,0.0438
1295.00,0.0438
1294.00,0.0439
1293.00,0.0439
1292.00,0.0439
1291.00,0.0440
1290.00,0.0440
1289.00,0.0440
1288.00,0.0440
1287.00,0.0440
1286.00,0.0440
1285.00,0.0440
1284.00,0.0441
1283.00,0.0441
1282.00,0.0442
1281.00,0.0442
1280.00,0.0443
1279.00,0.0443
1278.00,0.0443
1277.00,0.0444
1276.00,0.0444
1275.00,0.0445
1274.00,0.0445
1273.00,0.0445
1272.00,0.0445
1271.00,0.0446
1270.00,0.0446
1269.00,0.0446
1268.00,0.0446
1267.00,0.0446
1266.00,0.0446
1265.00,0.0447
1264.00,0.0447
1263.00,0.0447
1262.00,0.0447
1261.00,0.0447
1260.00,0.0447
1259.00,0.0448
1258.00,0.0448
1257.00,0.0448
1256.00,0.0448
1255.00,0.0449
1254.00,0.0449
1253.00,0.0449
1252.00,0.0449
1251.00,0.0449
1250.00,0.0450
1249.00,0.0450
1248.00,0.0450
1247.00,0.0450
1246.00,0.0450
1245.00,0.0449
1244.00,0.0449
1243.00,0.0449
1242.00,0.0450
1241.00,0.0450
1240.00,0.0450
1239.00,0.0450
1238.00,0.0450
1237.00,0.0449
1236.00,0.0449
1235.00,0.0449
1234.00,0.0450
1233.00,0.0450
1232.00,0.0450
1231.00,0.0450
1230.00,0.0449
1229.00,0.0449
1228.00,0.0449
1227.00,0.0449
1226.00,0.0449
1225.00,0.0448
1224.00,0.0448
1223.00,0.0448
1222.00,0.0447
1221.00,0.0446
1220.00,0.0445
1219.00,0.0445
1218.00,0.0445
1217.00,0.0445
1216.00,0.0444
1215.00,0.0444
1214.00,0.0443
1213.00,0.0442
1212.00,0.0442
1211.00,0.0442
1210.00,0.0442
1209.00,0.0441
1208.00,0.0441
1207.00,0.0441
1206.00,0.0440
1205.00,0.0440
1204.00,0.0440
1203.00,0.0440
1202.00,0.0439
1201.00,0.0438
1200.00,0.0437
1199.00,0.0437
1198.00,0.0436
1197.00,0.0436
1196.00,0.0436
1195.00,0.0436
1194.00,0.0435
1193.00,0.0434
1192.00,0.0433
1191.00,0.0433
1190.00,0.0432
1189.00,0.0431
1188.00,0.0430
1187.00,0.0430
1186.00,0.0429
1185.00,0.0429
1184.00,0.0429
1183.00,0.0428
1182.00,0.0428
1181.00,0.0428
1180.00,0.0429
1179.00,0.0429
1178.00,0.0429
1177.00,0.0428
1176.00,0.0428
1175.00,0.0427
1174.00,0.0426
1173.00,0.0425
1172.00,0.0424
1171.00,0.0423
1170.00,0.0422
1169.00,0.0422
1168.00,0.0422
1167.00,0.0421
1166.00,0.0421
1165.00,0.0420
1164.00,0.0420
1163.00,0.0420
1162.00,0.0420
1161.00,0.0419
1160.00,0.0419
1159.00,0.0418
1158.00,0.0418
1157.00,0.0418
1156.00,0.0418
1155.00,0.0418
1154.00,0.0417
1153.00,0.0416
1152.00,0.0415
1151.00,0.0415
1150.00,0.0415
1149.00,0.0415
1148.00,0.0415
1147.00,0.0415
1146.00,0.0415
1145.00,0.0415
1144.00,0.0415
1143.00,0.0414
1142.00,0.0414
1141.00,0.0413
1140.00,0.0413
1139.00,0.0413
1138.00,0.0413
1137.00,0.0412
1136.00,0.0412
1135.00,0.0413
1134.00,0.0413
1133.00,0.0413
1132.00,0.0413
1131.00,0.0412
1130.00,0.0412
1129.00,0.0413
1128.00,0.0413
1127.00,0.0413
1126.00,0.0413
1125.00,0.0412
1124.00,0.0413
1123.00,0.0413
1122.00,0.0415
1121.00,0.0416
1120.00,0.0417
1119.00,0.0417
1118.00,0.0418
1117.00,0.0418
1116.00,0.0418
1115.00,0.0418
1114.00,0.0417
1113.00,0.0417
1112.00,0.0418
1111.00,0.0419
1110.00,0.0419
1109.00,0.0420
1108.00,0.0420
1107.00,0.0420
1106.00,0.0420
1105.00,0.0419
1104.00,0.0419
1103.00,0.0419
1102.00,0.0419
1101.00,0.0420
1100.00,0.0420
1099.00,0.0420
1098.00,0.0420
1097.00,0.0420
1096.00,0.0420
1095.00,0.0420
1094.00,0.0421
1093.00,0.0421
1092.00,0.0422
1091.00,0.0422
1090.00,0.0423
1089.00,0.0424
1088.00,0.0424
1087.00,0.0425
1086.00,0.0424
1085.00,0.0424
1084.00,0.0424
1083.00,0.0424
1082.00,0.0424
1081.00,0.0423
1080.00,0.0423
1079.00,0.0423
1078.00,0.0423
1077.00,0.0423
1076.00,0.0424
1075.00,0.0425
1074.00,0.0426
1073.00,0.0426
1072.00,0.0426
1071.00,0.0426
1070.00,0.0427
1069.00,0.0427
1068.00,0.0427
1067.00,0.0428
1066.00,0.0428
1065.00,0.0429
1064.00,0.0429
1063.00,0.0429
1062.00,0.0430
1061.00,0.0430
1060.00,0.0430
1059.00,0.0431
1058.00,0.0431
1057.00,0.0430
1056.00,0.0430
1055.00,0.0430
1054.00,0.0431
1053.00,0.0432
1052.00,0.0434
1051.00,0.0435
1050.00,0.0437
1049.00,0.0437
1048.00,0.0438
1047.00,0.0438
1046.00,0.0437
1045.00,0.0437
1044.00,0.0437
1043.00,0.0437
1042.00,0.0437
1041.00,0.0437
1040.00,0.0438
1039.00,0.0439
1038.00,0.0439
1037.00,0.0439
1036.00,0.0439
1035.00,0.0439
1034.00,0.0439
1033.00,0.0438
1032.00,0.0438
1031.00,0.0438
1030.00,0.0437
1029.00,0.0437
1028.00,0.0436
1027.00,0.0435
1026.00,0.0434
1025.00,0.0433
1024.00,0.0432
1023.00,0.0432
1022.00,0.0431
1021.00,0.0431
1020.00,0.0430
1019.00,0.0429
1018.00,0.0428
1017.00,0.0427
1016.00,0.0427
1015.00,0.0428
1014.00,0.0429
1013.00,0.0429
1012.00,0.0429
1011.00,0.0429
1010.00,0.0429
1009.00,0.0429
1008.00,0.0428
1007.00,0.0428
1006.00,0.0427
1005.00,0.0426
1004.00,0.0426
1003.00,0.0425
1002.00,0.0424
1001.00,0.0423
1000.00,0.0423
999.00,0.0422
998.00,0.0422
997.00,0.0422
996.00,0.0421
995.00,0.0419
994.00,0.0418
993.00,0.0417
992.00,0.0416
991.00,0.0415
990.00,0.0415
989.00,0.0414
988.00,0.0413
987.00,0.0413
986.00,0.0412
985.00,0.0412
984.00,0.0412
983.00,0.0411
982.00,0.0410
981.00,0.0410
980.00,0.0410
979.00,0.0410
978.00,0.0409
977.00,0.0409
976.00,0.0408
975.00,0.0408
974.00,0.0407
973.00,0.0406
972.00,0.0406
971.00,0.0405
970.00,0.0406
969.00,0.0406
968.00,0.0406
967.00,0.0406
966.00,0.0406
965.00,0.0405
964.00,0.0405
963.00,0.0405
962.00,0.0404
961.00,0.0404
960.00,0.0404
959.00,0.0405
958.00,0.0405
957.00,0.0405
956.00,0.0405
955.00,0.0404
954.00,0.0404
953.00,0.0403
952.00,0.0403
951.00,0.0403
950.00,0.0404
949.00,0.0405
948.00,0.0405
947.00,0.0404
946.00,0.0404
945.00,0.0405
944.00,0.0406
943.00,0.0406
942.00,0.0407
941.00,0.0407
940.00,0.0407
939.00,0.0408
938.00,0.0409
937.00,0.0410
936.00,0.0411
935.00,0.0410
934.00,0.0410
933.00,0.0410
932.00,0.0411
931.00,0.0411
930.00,0.0411
929.00,0.0411
928.00,0.0411
927.00,0.0412
926.00,0.0412
925.00,0.0413
924.00,0.0413
923.00,0.0413
922.00,0.0413
921.00,0.0413
920.00,0.0414
919.00,0.0416
918.00,0.0418
917.00,0.0420
916.00,0.0422
915.00,0.0423
914.00,0.0422
913.00,0.0422
912.00,0.0421
911.00,0.0421
910.00,0.0421
909.00,0.0421
908.00,0.0422
907.00,0.0423
906.00,0.0423
905.00,0.0423
904.00,0.0423
903.00,0.0422
902.00,0.0421
901.00,0.0420
900.00,0.0419
899.00,0.0419
898.00,0.0419
897.00,0.0420
896.00,0.0421
895.00,0.0421
894.00,0.0422
893.00,0.0423
892.00,0.0424
891.00,0.0425
890.00,0.0425
889.00,0.0425
888.00,0.0425
887.00,0.0424
886.00,0.0423
885.00,0.0422
884.00,0.0421
883.00,0.0422
882.00,0.0422
881.00,0.0423
880.00,0.0424
879.00,0.0425
878.00,0.0426
877.00,0.0426
876.00,0.0426
875.00,0.0425
874.00,0.0425
873.00,0.0425
872.00,0.0426
871.00,0.0427
870.00,0.0428
869.00,0.0428
868.00,0.0428
867.00,0.0427
866.00,0.0426
865.00,0.0425
864.00,0.0425
863.00,0.0427
862.00,0.0429
861.00,0.0430
860.00,0.0431
859.00,0.0432
858.00,0.0432
857.00,0.0432
856.00,0.0431
855.00,0.0430
854.00,0.0430
853.00,0.0431
852.00,0.0432
851.00,0.0433
850.00,0.0434
849.00,0.0434
848.00,0.0433
847.00,0.0433
846.00,0.0434
845.00,0.0435
844.00,0.0437
843.00,0.0438
842.00,0.0438
841.00,0.0439
840.00,0.0441
839.00,0.0444
838.00,0.0446
837.00,0.0446
836.00,0.0446
835.00,0.0446
834.00,0.0445
833.00,0.0444
832.00,0.0445
831.00,0.0447
830.00,0.0449
829.00,0.0451
828.00,0.0452
827.00,0.0453
826.00,0.0454
825.00,0.0455
824.00,0.0457
823.00,0.0460
822.00,0.0463
821.00,0.0464
820.00,0.0465
819.00,0.0464
818.00,0.0464
817.00,0.0464
816.00,0.0464
815.00,0.0464
814.00,0.0464
813.00,0.0464
812.00,0.0463
811.00,0.0462
810.00,0.0462
809.00,0.0463
808.00,0.0466
807.00,0.0469
806.00,0.0471
805.00,0.0472
804.00,0.0473
803.00,0.0474
802.00,0.0475
801.00,0.0476
800.00,0.0477
799.00,0.0477
798.00,0.0477
797.00,0.0476
796.00,0.0477
795.00,0.0478
794.00,0.0479
793.00,0.0480
792.00,0.0481
791.00,0.0482
790.00,0.0483
789.00,0.0483
788.00,0.0483
787.00,0.0483
786.00,0.0482
785.00,0.0482
784.00,0.0482
783.00,0.0481
782.00,0.0482
781.00,0.0485
780.00,0.0487
779.00,0.0490
778.00,0.0492
777.00,0.0492
776.00,0.0492
775.00,0.0492
774.00,0.0492
773.00,0.0491
772.00,0.0490
771.00,0.0489
770.00,0.0490
769.00,0.0492
768.00,0.0495
767.00,0.0498
766.00,0.0499
765.00,0.0498
764.00,0.0497
763.00,0.0496
762.00,0.0497
761.00,0.0499
760.00,0.0501
759.00,0.0503
758.00,0.0504
757.00,0.0505
756.00,0.0506
755.00,0.0505
754.00,0.0504
753.00,0.0503
752.00,0.0502
751.00,0.0502
750.00,0.0504
749.00,0.0507
748.00,0.0509
747.00,0.0510
746.00,0.0510
745.00,0.0510
744.00,0.0510
743.00,0.0510
742.00,0.0510
741.00,0.0511
740.00,0.0512
739.00,0.0512
738.00,0.0512
737.00,0.0513
736.00,0.0513
735.00,0.0515
734.00,0.0517
733.00,0.0518
732.00,0.0519
731.00,0.0518
730.00,0.0518
729.00,0.0518
728.00,0.0520
727.00,0.0521
726.00,0.0521
725.00,0.0519
724.00,0.0518
723.00,0.0518
722.00,0.0521
721.00,0.0524
720.00,0.0526
719.00,0.0527
718.00,0.0528
717.00,0.0529
716.00,0.0531
715.00,0.0532
714.00,0.0532
713.00,0.0532
712.00,0.0533
711.00,0.0533
710.00,0.0534
709.00,0.0535
708.00,0.0537
707.00,0.0541
706.00,0.0544
705.00,0.0546
704.00,0.0547
703.00,0.0547
702.00,0.0547
701.00,0.0548
700.00,0.0550
699.00,0.0551
698.00,0.0550
697.00,0.0548
696.00,0.0548
695.00,0.0550
694.00,0.0553
693.00,0.0555
692.00,0.0556
691.00,0.0557
690.00,0.0557
689.00,0.0559
688.00,0.0561
687.00,0.0564
686.00,0.0566
685.00,0.0569
684.00,0.0571
683.00,0.0572
682.00,0.0573
681.00,0.0573
680.00,0.0574
679.00,0.0574
678.00,0.0573
677.00,0.0573
676.00,0.0574
675.00,0.0577
674.00,0.0580
673.00,0.0583
672.00,0.0585
671.00,0.0583
670.00,0.0577
669.00,0.0568
668.00,0.0564
667.00,0.0570
666.00,0.0580
665.00,0.0587
664.00,0.0591
663.00,0.0594
662.00,0.0595
661.00,0.0593
660.00,0.0589
659.00,0.0586
658.00,0.0584
657.00,0.0584
656.00,0.0585
655.00,0.0586
654.00,0.0589
653.00,0.0592
652.00,0.0598
651.00,0.0604
650.00,0.0608
