Created as New Dataset,Monday, April 03 2023
cm-1,A
4000.00,0.0320
3999.00,0.0320
3998.00,0.0319
3997.00,0.0319
3996.00,0.0319
3995.00,0.0319
3994.00,0.0319
3993.00,0.0319
3992.00,0.0318
3991.00,0.0318
3990.00,0.0318
3989.00,0.0318
3988.00,0.0319
3987.00,0.0319
3986.00,0.0319
3985.00,0.0319
3984.00,0.0318
3983.00,0.0317
3982.00,0.0317
3981.00,0.0316
3980.00,0.0316
3979.00,0.0317
3978.00,0.0317
3977.00,0.0317
3976.00,0.0317
3975.00,0.0316
3974.00,0.0316
3973.00,0.0316
3972.00,0.0316
3971.00,0.0315
3970.00,0.0315
3969.00,0.0315
3968.00,0.0315
3967.00,0.0315
3966.00,0.0315
3965.00,0.0315
3964.00,0.0315
3963.00,0.0315
3962.00,0.0314
3961.00,0.0314
3960.00,0.0314
3959.00,0.0314
3958.00,0.0314
3957.00,0.0314
3956.00,0.0314
3955.00,0.0313
3954.00,0.0313
3953.00,0.0313
3952.00,0.0313
3951.00,0.0313
3950.00,0.0313
3949.00,0.0312
3948.00,0.0311
3947.00,0.0311
3946.00,0.0311
3945.00,0.0311
3944.00,0.0311
3943.00,0.0311
3942.00,0.0310
3941.00,0.0310
3940.00,0.0310
3939.00,0.0311
3938.00,0.0311
3937.00,0.0311
3936.00,0.0311
3935.00,0.0312
3934.00,0.0312
3933.00,0.0311
3932.00,0.0310
3931.00,0.0309
3930.00,0.0309
3929.00,0.0309
3928.00,0.0308
3927.00,0.0308
3926.00,0.0308
3925.00,0.0307
3924.00,0.0307
3923.00,0.0306
3922.00,0.0307
3921.00,0.0307
3920.00,0.0307
3919.00,0.0308
3918.00,0.0307
3917.00,0.0307
3916.00,0.0306
3915.00,0.0306
3914.00,0.0306
3913.00,0.0306
3912.00,0.0306
3911.00,0.0306
3910.00,0.0306
3909.00,0.0306
3908.00,0.0306
3907.00,0.0306
3906.00,0.0305
3905.00,0.0305
3904.00,0.0304
3903.00,0.0303
3902.00,0.0303
3901.00,0.0303
3900.00,0.0303
3899.00,0.0302
3898.00,0.0303
3897.00,0.0303
3896.00,0.0304
3895.00,0.0305
3894.00,0.0305
3893.00,0.0304
3892.00,0.0304
3891.00,0.0303
3890.00,0.0303
3889.00,0.0303
3888.00,0.0304
3887.00,0.0304
3886.00,0.0303
3885.00,0.0302
3884.00,0.0302
3883.00,0.0303
3882.00,0.0302
3881.00,0.0301
3880.00,0.0300
3879.00,0.0300
3878.00,0.0301
3877.00,0.0302
3876.00,0.0302
3875.00,0.0302
3874.00,0.0301
3873.00,0.0301
3872.00,0.0301
3871.00,0.0301
3870.00,0.0300
3869.00,0.0299
3868.00,0.0299
3867.00,0.0300
3866.00,0.0300
3865.00,0.0299
3864.00,0.0298
3863.00,0.0298
3862.00,0.0298
3861.00,0.0299
3860.00,0.0299
3859.00,0.0299
3858.00,0.0299
3857.00,0.0298
3856.00,0.0298
3855.00,0.0299
3854.00,0.0300
3853.00,0.0299
3852.00,0.0298
3851.00,0.0298
3850.00,0.0299
3849.00,0.0299
3848.00,0.0298
3847.00,0.0298
3846.00,0.0298
3845.00,0.0298
3844.00,0.0298
3843.00,0.0297
3842.00,0.0297
3841.00,0.0297
3840.00,0.0296
3839.00,0.0296
3838.00,0.0295
3837.00,0.0295
3836.00,0.0295
3835.00,0.0295
3834.00,0.0295
3833.00,0.0295
3832.00,0.0295
3831.00,0.0295
3830.00,0.0296
3829.00,0.0296
3828.00,0.0296
3827.00,0.0295
3826.00,0.0294
3825.00,0.0294
3824.00,0.0294
3823.00,0.0294
3822.00,0.0294
3821.00,0.0293
3820.00,0.0292
3819.00,0.0293
3818.00,0.0294
3817.00,0.0294
3816.00,0.0292
3815.00,0.0292
3814.00,0.0292
3813.00,0.0292
3812.00,0.0292
3811.00,0.0291
3810.00,0.0291
3809.00,0.0291
3808.00,0.0291
3807.00,0.0291
3806.00,0.0291
3805.00,0.0292
3804.00,0.0293
3803.00,0.0292
3802.00,0.0292
3801.00,0.0290
3800.00,0.0290
3799.00,0.0290
3798.00,0.0290
3797.00,0.0289
3796.00,0.0288
3795.00,0.0288
3794.00,0.0288
3793.00,0.0288
3792.00,0.0288
3791.00,0.0287
3790.00,0.0287
3789.00,0.0288
3788.00,0.0288
3787.00,0.0288
3786.00,0.0288
3785.00,0.0288
3784.00,0.0287
3783.00,0.0286
3782.00,0.0286
3781.00,0.0286
3780.00,0.0285
3779.00,0.0284
3778.00,0.0284
3777.00,0.0284
3776.00,0.0284
3775.00,0.0284
3774.00,0.0284
3773.00,0.0284
3772.00,0.0284
3771.00,0.0284
3770.00,0.0284
3769.00,0.0284
3768.00,0.0284
3767.00,0.0284
3766.00,0.0283
3765.00,0.0283
3764.00,0.0283
3763.00,0.0284
3762.00,0.0285
3761.00,0.0285
3760.00,0.0284
3759.00,0.0283
3758.00,0.0282
3757.00,0.0281
3756.00,0.0281
3755.00,0.0281
3754.00,0.0282
3753.00,0.0283
3752.00,0.0284
3751.00,0.0284
3750.00,0.0283
3749.00,0.0282
3748.00,0.0282
3747.00,0.0282
3746.00,0.0281
3745.00,0.0280
3744.00,0.0279
3743.00,0.0279
3742.00,0.0281
3741.00,0.0282
3740.00,0.0282
3739.00,0.0282
3738.00,0.0282
3737.00,0.0282
3736.00,0.0282
3735.00,0.0280
3734.00,0.0278
3733.00,0.0278
3732.00,0.0278
3731.00,0.0279
3730.00,0.0280
3729.00,0.0281
3728.00,0.0281
3727.00,0.0281
3726.00,0.0280
3725.00,0.0279
3724.00,0.0279
3723.00,0.0279
3722.00,0.0279
3721.00,0.0278
3720.00,0.0279
3719.00,0.0279
3718.00,0.0280
3717.00,0.0281
3716.00,0.0282
3715.00,0.0283
3714.00,0.0284
3713.00,0.0285
3712.00,0.0287
3711.00,0.0289
3710.00,0.0290
3709.00,0.0291
3708.00,0.0292
3707.00,0.0294
3706.00,0.0296
3705.00,0.0298
3704.00,0.0301
3703.00,0.0303
3702.00,0.0305
3701.00,0.0307
3700.00,0.0309
3699.00,0.0312
3698.00,0.0313
3697.00,0.0314
3696.00,0.0314
3695.00,0.0314
3694.00,0.0313
3693.00,0.0313
3692.00,0.0312
3691.00,0.0312
3690.00,0.0312
3689.00,0.0311
3688.00,0.0310
3687.00,0.0310
3686.00,0.0309
3685.00,0.0308
3684.00,0.0307
3683.00,0.0305
3682.00,0.0304
3681.00,0.0303
3680.00,0.0302
3679.00,0.0301
3678.00,0.0301
3677.00,0.0301
3676.00,0.0302
3675.00,0.0302
3674.00,0.0302
3673.00,0.0304
3672.00,0.0306
3671.00,0.0307
3670.00,0.0307
3669.00,0.0307
3668.00,0.0308
3667.00,0.0310
3666.00,0.0312
3665.00,0.0314
3664.00,0.0315
3663.00,0.0317
3662.00,0.0319
3661.00,0.0320
3660.00,0.0322
3659.00,0.0323
3658.00,0.0325
3657.00,0.0328
3656.00,0.0331
3655.00,0.0333
3654.00,0.0334
3653.00,0.0334
3652.00,0.0335
3651.00,0.0337
3650.00,0.0340
3649.00,0.0343
3648.00,0.0345
3647.00,0.0345
3646.00,0.0347
3645.00,0.0348
3644.00,0.0350
3643.00,0.0351
3642.00,0.0352
3641.00,0.0353
3640.00,0.0354
3639.00,0.0356
3638.00,0.0356
3637.00,0.0357
3636.00,0.0359
3635.00,0.0360
3634.00,0.0361
3633.00,0.0361
3632.00,0.0361
3631.00,0.0362
3630.00,0.0366
3629.00,0.0371
3628.00,0.0376
3627.00,0.0380
3626.00,0.0384
3625.00,0.0388
3624.00,0.0391
3623.00,0.0394
3622.00,0.0396
3621.00,0.0399
3620.00,0.0401
3619.00,0.0402
3618.00,0.0401
3617.00,0.0400
3616.00,0.0398
3615.00,0.0397
3614.00,0.0397
3613.00,0.0397
3612.00,0.0397
3611.00,0.0398
3610.00,0.0399
3609.00,0.0400
3608.00,0.0402
3607.00,0.0403
3606.00,0.0404
3605.00,0.0405
3604.00,0.0406
3603.00,0.0407
3602.00,0.0409
3601.00,0.0410
3600.00,0.0411
3599.00,0.0412
3598.00,0.0412
3597.00,0.0413
3596.00,0.0414
3595.00,0.0416
3594.00,0.0417
3593.00,0.0418
3592.00,0.0419
3591.00,0.0420
3590.00,0.0420
3589.00,0.0421
3588.00,0.0423
3587.00,0.0425
3586.00,0.0426
3585.00,0.0428
3584.00,0.0429
3583.00,0.0431
3582.00,0.0432
3581.00,0.0433
3580.00,0.0435
3579.00,0.0436
3578.00,0.0438
3577.00,0.0439
3576.00,0.0440
3575.00,0.0441
3574.00,0.0442
3573.00,0.0442
3572.00,0.0443
3571.00,0.0443
3570.00,0.0444
3569.00,0.0444
3568.00,0.0447
3567.00,0.0449
3566.00,0.0451
3565.00,0.0453
3564.00,0.0454
3563.00,0.0455
3562.00,0.0456
3561.00,0.0457
3560.00,0.0459
3559.00,0.0460
3558.00,0.0461
3557.00,0.0463
3556.00,0.0464
3555.00,0.0465
3554.00,0.0466
3553.00,0.0468
3552.00,0.0469
3551.00,0.0470
3550.00,0.0471
3549.00,0.0471
3548.00,0.0472
3547.00,0.0473
3546.00,0.0475
3545.00,0.0477
3544.00,0.0478
3543.00,0.0480
3542.00,0.0481
3541.00,0.0482
3540.00,0.0483
3539.00,0.0484
3538.00,0.0485
3537.00,0.0486
3536.00,0.0488
3535.00,0.0489
3534.00,0.0490
3533.00,0.0491
3532.00,0.0492
3531.00,0.0494
3530.00,0.0495
3529.00,0.0496
3528.00,0.0497
3527.00,0.0498
3526.00,0.0499
3525.00,0.0500
3524.00,0.0501
3523.00,0.0502
3522.00,0.0504
3521.00,0.0505
3520.00,0.0506
3519.00,0.0507
3518.00,0.0509
3517.00,0.0510
3516.00,0.0511
3515.00,0.0512
3514.00,0.0513
3513.00,0.0513
3512.00,0.0514
3511.00,0.0515
3510.00,0.0516
3509.00,0.0518
3508.00,0.0519
3507.00,0.0520
3506.00,0.0521
3505.00,0.0521
3504.00,0.0523
3503.00,0.0524
3502.00,0.0526
3501.00,0.0527
3500.00,0.0528
3499.00,0.0530
3498.00,0.0531
3497.00,0.0532
3496.00,0.0533
3495.00,0.0534
3494.00,0.0535
3493.00,0.0536
3492.00,0.0537
3491.00,0.0538
3490.00,0.0539
3489.00,0.0540
3488.00,0.0541
3487.00,0.0542
3486.00,0.0543
3485.00,0.0544
3484.00,0.0545
3483.00,0.0546
3482.00,0.0547
3481.00,0.0548
3480.00,0.0549
3479.00,0.0549
3478.00,0.0550
3477.00,0.0551
3476.00,0.0551
3475.00,0.0553
3474.00,0.0554
3473.00,0.0556
3472.00,0.0558
3471.00,0.0559
3470.00,0.0559
3469.00,0.0560
3468.00,0.0561
3467.00,0.0562
3466.00,0.0563
3465.00,0.0564
3464.00,0.0565
3463.00,0.0566
3462.00,0.0567
3461.00,0.0568
3460.00,0.0569
3459.00,0.0570
3458.00,0.0571
3457.00,0.0572
3456.00,0.0573
3455.00,0.0574
3454.00,0.0575
3453.00,0.0576
3452.00,0.0577
3451.00,0.0578
3450.00,0.0578
3449.00,0.0579
3448.00,0.0580
3447.00,0.0581
3446.00,0.0582
3445.00,0.0583
3444.00,0.0584
3443.00,0.0585
3442.00,0.0586
3441.00,0.0587
3440.00,0.0587
3439.00,0.0588
3438.00,0.0588
3437.00,0.0589
3436.00,0.0591
3435.00,0.0592
3434.00,0.0593
3433.00,0.0594
3432.00,0.0595
3431.00,0.0596
3430.00,0.0596
3429.00,0.0596
3428.00,0.0597
3427.00,0.0597
3426.00,0.0598
3425.00,0.0598
3424.00,0.0599
3423.00,0.0600
3422.00,0.0601
3421.00,0.0602
3420.00,0.0603
3419.00,0.0604
3418.00,0.0604
3417.00,0.0605
3416.00,0.0605
3415.00,0.0606
3414.00,0.0607
3413.00,0.0608
3412.00,0.0609
3411.00,0.0609
3410.00,0.0610
3409.00,0.0610
3408.00,0.0611
3407.00,0.0611
3406.00,0.0612
3405.00,0.0613
3404.00,0.0614
3403.00,0.0615
3402.00,0.0616
3401.00,0.0616
3400.00,0.0616
3399.00,0.0616
3398.00,0.0617
3397.00,0.0617
3396.00,0.0618
3395.00,0.0619
3394.00,0.0620
3393.00,0.0620
3392.00,0.0621
3391.00,0.0621
3390.00,0.0621
3389.00,0.0622
3388.00,0.0622
3387.00,0.0623
3386.00,0.0624
3385.00,0.0624
3384.00,0.0625
3383.00,0.0625
3382.00,0.0625
3381.00,0.0626
3380.00,0.0627
3379.00,0.0627
3378.00,0.0628
3377.00,0.0629
3376.00,0.0629
3375.00,0.0629
3374.00,0.0629
3373.00,0.0629
3372.00,0.0628
3371.00,0.0628
3370.00,0.0628
3369.00,0.0628
3368.00,0.0629
3367.00,0.0631
3366.00,0.0632
3365.00,0.0633
3364.00,0.0633
3363.00,0.0634
3362.00,0.0633
3361.00,0.0633
3360.00,0.0633
3359.00,0.0634
3358.00,0.0634
3357.00,0.0635
3356.00,0.0635
3355.00,0.0636
3354.00,0.0636
3353.00,0.0636
3352.00,0.0636
3351.00,0.0637
3350.00,0.0637
3349.00,0.0637
3348.00,0.0637
3347.00,0.0637
3346.00,0.0637
3345.00,0.0637
3344.00,0.0637
3343.00,0.0638
3342.00,0.0638
3341.00,0.0638
3340.00,0.0638
3339.00,0.0638
3338.00,0.0638
3337.00,0.0637
3336.00,0.0638
3335.00,0.0638
3334.00,0.0638
3333.00,0.0639
3332.00,0.0639
3331.00,0.0640
3330.00,0.0640
3329.00,0.0639
3328.00,0.0639
3327.00,0.0639
3326.00,0.0639
3325.00,0.0640
3324.00,0.0640
3323.00,0.0639
3322.00,0.0639
3321.00,0.0639
3320.00,0.0639
3319.00,0.0639
3318.00,0.0639
3317.00,0.0639
3316.00,0.0639
3315.00,0.0639
3314.00,0.0639
3313.00,0.0640
3312.00,0.0640
3311.00,0.0639
3310.00,0.0639
3309.00,0.0639
3308.00,0.0639
3307.00,0.0639
3306.00,0.0639
3305.00,0.0640
3304.00,0.0640
3303.00,0.0640
3302.00,0.0640
3301.00,0.0640
3300.00,0.0640
3299.00,0.0640
3298.00,0.0640
3297.00,0.0640
3296.00,0.0640
3295.00,0.0640
3294.00,0.0640
3293.00,0.0640
3292.00,0.0640
3291.00,0.0640
3290.00,0.0640
3289.00,0.0640
3288.00,0.0640
3287.00,0.0640
3286.00,0.0640
3285.00,0.0640
3284.00,0.0640
3283.00,0.0640
3282.00,0.0640
3281.00,0.0640
3280.00,0.0640
3279.00,0.0641
3278.00,0.0641
3277.00,0.0641
3276.00,0.0641
3275.00,0.0642
3274.00,0.0642
3273.00,0.0642
3272.00,0.0641
3271.00,0.0641
3270.00,0.0641
3269.00,0.0641
3268.00,0.0641
3267.00,0.0641
3266.00,0.0641
3265.00,0.0641
3264.00,0.0640
3263.00,0.0640
3262.00,0.0640
3261.00,0.0640
3260.00,0.0640
3259.00,0.0640
3258.00,0.0640
3257.00,0.0640
3256.00,0.0640
3255.00,0.0640
3254.00,0.0640
3253.00,0.0640
3252.00,0.0641
3251.00,0.0641
3250.00,0.0641
3249.00,0.0641
3248.00,0.0641
3247.00,0.0641
3246.00,0.0641
3245.00,0.0641
3244.00,0.0641
3243.00,0.0641
3242.00,0.0641
3241.00,0.0641
3240.00,0.0641
3239.00,0.0641
3238.00,0.0641
3237.00,0.0640
3236.00,0.0640
3235.00,0.0640
3234.00,0.0640
3233.00,0.0640
3232.00,0.0640
3231.00,0.0641
3230.00,0.0641
3229.00,0.0641
3228.00,0.0641
3227.00,0.0640
3226.00,0.0640
3225.00,0.0640
3224.00,0.0640
3223.00,0.0640
3222.00,0.0640
3221.00,0.0640
3220.00,0.0640
3219.00,0.0640
3218.00,0.0640
3217.00,0.0640
3216.00,0.0640
3215.00,0.0640
3214.00,0.0640
3213.00,0.0640
3212.00,0.0640
3211.00,0.0640
3210.00,0.0640
3209.00,0.0640
3208.00,0.0639
3207.00,0.0639
3206.00,0.0639
3205.00,0.0639
3204.00,0.0638
3203.00,0.0638
3202.00,0.0638
3201.00,0.0638
3200.00,0.0638
3199.00,0.0638
3198.00,0.0638
3197.00,0.0637
3196.00,0.0637
3195.00,0.0637
3194.00,0.0636
3193.00,0.0636
3192.00,0.0636
3191.00,0.0636
3190.00,0.0636
3189.00,0.0635
3188.00,0.0635
3187.00,0.0635
3186.00,0.0635
3185.00,0.0635
3184.00,0.0635
3183.00,0.0634
3182.00,0.0634
3181.00,0.0633
3180.00,0.0632
3179.00,0.0632
3178.00,0.0631
3177.00,0.0631
3176.00,0.0631
3175.00,0.0631
3174.00,0.0631
3173.00,0.0630
3172.00,0.0630
3171.00,0.0630
3170.00,0.0630
3169.00,0.0629
3168.00,0.0629
3167.00,0.0629
3166.00,0.0628
3165.00,0.0627
3164.00,0.0627
3163.00,0.0626
3162.00,0.0626
3161.00,0.0626
3160.00,0.0626
3159.00,0.0626
3158.00,0.0625
3157.00,0.0625
3156.00,0.0624
3155.00,0.0623
3154.00,0.0623
3153.00,0.0622
3152.00,0.0622
3151.00,0.0622
3150.00,0.0622
3149.00,0.0622
3148.00,0.0622
3147.00,0.0621
3146.00,0.0621
3145.00,0.0620
3144.00,0.0620
3143.00,0.0619
3142.00,0.0619
3141.00,0.0618
3140.00,0.0618
3139.00,0.0618
3138.00,0.0618
3137.00,0.0618
3136.00,0.0617
3135.00,0.0616
3134.00,0.0616
3133.00,0.0615
3132.00,0.0615
3131.00,0.0615
3130.00,0.0614
3129.00,0.0614
3128.00,0.0613
3127.00,0.0613
3126.00,0.0613
3125.00,0.0613
3124.00,0.0612
3123.00,0.0612
3122.00,0.0611
3121.00,0.0611
3120.00,0.0611
3119.00,0.0611
3118.00,0.0611
3117.00,0.0610
3116.00,0.0610
3115.00,0.0610
3114.00,0.0610
3113.00,0.0609
3112.00,0.0609
3111.00,0.0608
3110.00,0.0608
3109.00,0.0607
3108.00,0.0607
3107.00,0.0607
3106.00,0.0607
3105.00,0.0607
3104.00,0.0607
3103.00,0.0607
3102.00,0.0606
3101.00,0.0606
3100.00,0.0606
3099.00,0.0605
3098.00,0.0604
3097.00,0.0604
3096.00,0.0604
3095.00,0.0604
3094.00,0.0604
3093.00,0.0604
3092.00,0.0604
3091.00,0.0604
3090.00,0.0604
3089.00,0.0604
3088.00,0.0604
3087.00,0.0603
3086.00,0.0603
3085.00,0.0602
3084.00,0.0602
3083.00,0.0602
3082.00,0.0601
3081.00,0.0601
3080.00,0.0601
3079.00,0.0601
3078.00,0.0601
3077.00,0.0600
3076.00,0.0600
3075.00,0.0600
3074.00,0.0599
3073.00,0.0599
3072.00,0.0598
3071.00,0.0598
3070.00,0.0597
3069.00,0.0597
3068.00,0.0596
3067.00,0.0596
3066.00,0.0596
3065.00,0.0596
3064.00,0.0596
3063.00,0.0596
3062.00,0.0596
3061.00,0.0595
3060.00,0.0594
3059.00,0.0594
3058.00,0.0593
3057.00,0.0592
3056.00,0.0591
3055.00,0.0591
3054.00,0.0591
3053.00,0.0591
3052.00,0.0590
3051.00,0.0590
3050.00,0.0590
3049.00,0.0589
3048.00,0.0589
3047.00,0.0588
3046.00,0.0587
3045.00,0.0587
3044.00,0.0586
3043.00,0.0586
3042.00,0.0585
3041.00,0.0585
3040.00,0.0585
3039.00,0.0584
3038.00,0.0584
3037.00,0.0583
3036.00,0.0582
3035.00,0.0581
3034.00,0.0581
3033.00,0.0580
3032.00,0.0579
3031.00,0.0579
3030.00,0.0579
3029.00,0.0579
3028.00,0.0579
3027.00,0.0579
3026.00,0.0578
3025.00,0.0578
3024.00,0.0577
3023.00,0.0576
3022.00,0.0575
3021.00,0.0575
3020.00,0.0574
3019.00,0.0574
3018.00,0.0574
3017.00,0.0573
3016.00,0.0573
3015.00,0.0573
3014.00,0.0574
3013.00,0.0574
3012.00,0.0573
3011.00,0.0573
3010.00,0.0572
3009.00,0.0572
3008.00,0.0571
3007.00,0.0571
3006.00,0.0571
3005.00,0.0571
3004.00,0.0571
3003.00,0.0571
3002.00,0.0572
3001.00,0.0572
3000.00,0.0572
2999.00,0.0572
2998.00,0.0571
2997.00,0.0571
2996.00,0.0570
2995.00,0.0570
2994.00,0.0570
2993.00,0.0570
2992.00,0.0570
2991.00,0.0570
2990.00,0.0570
2989.00,0.0570
2988.00,0.0570
2987.00,0.0570
2986.00,0.0571
2985.00,0.0572
2984.00,0.0573
2983.00,0.0573
2982.00,0.0573
2981.00,0.0573
2980.00,0.0572
2979.00,0.0571
2978.00,0.0570
2977.00,0.0569
2976.00,0.0569
2975.00,0.0569
2974.00,0.0569
2973.00,0.0569
2972.00,0.0569
2971.00,0.0568
2970.00,0.0568
2969.00,0.0567
2968.00,0.0566
2967.00,0.0565
2966.00,0.0565
2965.00,0.0564
2964.00,0.0564
2963.00,0.0563
2962.00,0.0563
2961.00,0.0562
2960.00,0.0562
2959.00,0.0561
2958.00,0.0561
2957.00,0.0561
2956.00,0.0561
2955.00,0.0560
2954.00,0.0560
2953.00,0.0560
2952.00,0.0559
2951.00,0.0559
2950.00,0.0559
2949.00,0.0558
2948.00,0.0558
2947.00,0.0558
2946.00,0.0557
2945.00,0.0557
2944.00,0.0557
2943.00,0.0557
2942.00,0.0557
2941.00,0.0557
2940.00,0.0557
2939.00,0.0557
2938.00,0.0557
2937.00,0.0558
2936.00,0.0558
2935.00,0.0558
2934.00,0.0558
2933.00,0.0558
2932.00,0.0557
2931.00,0.0557
2930.00,0.0556
2929.00,0.0556
2928.00,0.0556
2927.00,0.0556
2926.00,0.0556
2925.00,0.0556
2924.00,0.0556
2923.00,0.0557
2922.00,0.0557
2921.00,0.0557
2920.00,0.0557
2919.00,0.0556
2918.00,0.0555
2917.00,0.0553
2916.00,0.0552
2915.00,0.0551
2914.00,0.0551
2913.00,0.0550
2912.00,0.0550
2911.00,0.0549
2910.00,0.0549
2909.00,0.0548
2908.00,0.0548
2907.00,0.0547
2906.00,0.0546
2905.00,0.0546
2904.00,0.0545
2903.00,0.0545
2902.00,0.0544
2901.00,0.0544
2900.00,0.0543
2899.00,0.0543
2898.00,0.0542
2897.00,0.0541
2896.00,0.0541
2895.00,0.0540
2894.00,0.0540
2893.00,0.0540
2892.00,0.0539
2891.00,0.0539
2890.00,0.0539
2889.00,0.0538
2888.00,0.0538
2887.00,0.0537
2886.00,0.0537
2885.00,0.0536
2884.00,0.0536
2883.00,0.0535
2882.00,0.0535
2881.00,0.0534
2880.00,0.0533
2879.00,0.0532
2878.00,0.0531
2877.00,0.0531
2876.00,0.0530
2875.00,0.0529
2874.00,0.0528
2873.00,0.0528
2872.00,0.0527
2871.00,0.0527
2870.00,0.0526
2869.00,0.0526
2868.00,0.0525
2867.00,0.0524
2866.00,0.0524
2865.00,0.0523
2864.00,0.0523
2863.00,0.0523
2862.00,0.0523
2861.00,0.0523
2860.00,0.0522
2859.00,0.0521
2858.00,0.0521
2857.00,0.0520
2856.00,0.0520
2855.00,0.0520
2854.00,0.0520
2853.00,0.0520
2852.00,0.0520
2851.00,0.0519
2850.00,0.0519
2849.00,0.0518
2848.00,0.0517
2847.00,0.0516
2846.00,0.0515
2845.00,0.0515
2844.00,0.0514
2843.00,0.0513
2842.00,0.0512
2841.00,0.0511
2840.00,0.0510
2839.00,0.0509
2838.00,0.0508
2837.00,0.0507
2836.00,0.0506
2835.00,0.0506
2834.00,0.0505
2833.00,0.0505
2832.00,0.0504
2831.00,0.0504
2830.00,0.0503
2829.00,0.0503
2828.00,0.0503
2827.00,0.0502
2826.00,0.0502
2825.00,0.0501
2824.00,0.0500
2823.00,0.0500
2822.00,0.0499
2821.00,0.0499
2820.00,0.0499
2819.00,0.0498
2818.00,0.0498
2817.00,0.0497
2816.00,0.0496
2815.00,0.0495
2814.00,0.0495
2813.00,0.0494
2812.00,0.0494
2811.00,0.0494
2810.00,0.0493
2809.00,0.0493
2808.00,0.0492
2807.00,0.0491
2806.00,0.0490
2805.00,0.0490
2804.00,0.0489
2803.00,0.0489
2802.00,0.0489
2801.00,0.0488
2800.00,0.0488
2799.00,0.0487
2798.00,0.0487
2797.00,0.0486
2796.00,0.0486
2795.00,0.0485
2794.00,0.0485
2793.00,0.0485
2792.00,0.0484
2791.00,0.0483
2790.00,0.0483
2789.00,0.0482
2788.00,0.0482
2787.00,0.0482
2786.00,0.0481
2785.00,0.0481
2784.00,0.0480
2783.00,0.0480
2782.00,0.0479
2781.00,0.0479
2780.00,0.0479
2779.00,0.0478
2778.00,0.0477
2777.00,0.0477
2776.00,0.0476
2775.00,0.0476
2774.00,0.0476
2773.00,0.0476
2772.00,0.0475
2771.00,0.0474
2770.00,0.0474
2769.00,0.0473
2768.00,0.0473
2767.00,0.0472
2766.00,0.0472
2765.00,0.0472
2764.00,0.0472
2763.00,0.0471
2762.00,0.0471
2761.00,0.0471
2760.00,0.0470
2759.00,0.0470
2758.00,0.0469
2757.00,0.0468
2756.00,0.0468
2755.00,0.0467
2754.00,0.0467
2753.00,0.0466
2752.00,0.0466
2751.00,0.0466
2750.00,0.0465
2749.00,0.0465
2748.00,0.0464
2747.00,0.0464
2746.00,0.0464
2745.00,0.0463
2744.00,0.0463
2743.00,0.0463
2742.00,0.0462
2741.00,0.0461
2740.00,0.0461
2739.00,0.0460
2738.00,0.0459
2737.00,0.0459
2736.00,0.0458
2735.00,0.0458
2734.00,0.0458
2733.00,0.0457
2732.00,0.0457
2731.00,0.0457
2730.00,0.0456
2729.00,0.0455
2728.00,0.0455
2727.00,0.0454
2726.00,0.0454
2725.00,0.0454
2724.00,0.0454
2723.00,0.0453
2722.00,0.0453
2721.00,0.0452
2720.00,0.0452
2719.00,0.0452
2718.00,0.0451
2717.00,0.0451
2716.00,0.0451
2715.00,0.0450
2714.00,0.0450
2713.00,0.0449
2712.00,0.0449
2711.00,0.0448
2710.00,0.0447
2709.00,0.0447
2708.00,0.0447
2707.00,0.0447
2706.00,0.0446
2705.00,0.0446
2704.00,0.0445
2703.00,0.0445
2702.00,0.0444
2701.00,0.0444
2700.00,0.0443
2699.00,0.0443
2698.00,0.0442
2697.00,0.0442
2696.00,0.0442
2695.00,0.0442
2694.00,0.0442
2693.00,0.0441
2692.00,0.0441
2691.00,0.0440
2690.00,0.0439
2689.00,0.0439
2688.00,0.0439
2687.00,0.0439
2686.00,0.0439
2685.00,0.0438
2684.00,0.0438
2683.00,0.0437
2682.00,0.0436
2681.00,0.0436
2680.00,0.0435
2679.00,0.0435
2678.00,0.0435
2677.00,0.0434
2676.00,0.0434
2675.00,0.0434
2674.00,0.0434
2673.00,0.0434
2672.00,0.0434
2671.00,0.0433
2670.00,0.0433
2669.00,0.0433
2668.00,0.0433
2667.00,0.0433
2666.00,0.0432
2665.00,0.0432
2664.00,0.0432
2663.00,0.0432
2662.00,0.0432
2661.00,0.0432
2660.00,0.0431
2659.00,0.0431
2658.00,0.0431
2657.00,0.0432
2656.00,0.0432
2655.00,0.0432
2654.00,0.0432
2653.00,0.0432
2652.00,0.0432
2651.00,0.0431
2650.00,0.0431
2649.00,0.0430
2648.00,0.0430
2647.00,0.0430
2646.00,0.0430
2645.00,0.0430
2644.00,0.0430
2643.00,0.0430
2642.00,0.0430
2641.00,0.0430
2640.00,0.0429
2639.00,0.0429
2638.00,0.0429
2637.00,0.0429
2636.00,0.0429
2635.00,0.0429
2634.00,0.0429
2633.00,0.0429
2632.00,0.0429
2631.00,0.0428
2630.00,0.0428
2629.00,0.0427
2628.00,0.0427
2627.00,0.0427
2626.00,0.0427
2625.00,0.0427
2624.00,0.0427
2623.00,0.0427
2622.00,0.0427
2621.00,0.0427
2620.00,0.0427
2619.00,0.0426
2618.00,0.0426
2617.00,0.0426
2616.00,0.0425
2615.00,0.0425
2614.00,0.0425
2613.00,0.0425
2612.00,0.0425
2611.00,0.0425
2610.00,0.0425
2609.00,0.0425
2608.00,0.0425
2607.00,0.0425
2606.00,0.0425
2605.00,0.0424
2604.00,0.0424
2603.00,0.0423
2602.00,0.0423
2601.00,0.0423
2600.00,0.0423
2599.00,0.0423
2598.00,0.0423
2597.00,0.0423
2596.00,0.0422
2595.00,0.0422
2594.00,0.0422
2593.00,0.0422
2592.00,0.0422
2591.00,0.0422
2590.00,0.0422
2589.00,0.0422
2588.00,0.0422
2587.00,0.0422
2586.00,0.0422
2585.00,0.0422
2584.00,0.0422
2583.00,0.0422
2582.00,0.0421
2581.00,0.0421
2580.00,0.0421
2579.00,0.0421
2578.00,0.0420
2577.00,0.0420
2576.00,0.0420
2575.00,0.0420
2574.00,0.0419
2573.00,0.0419
2572.00,0.0419
2571.00,0.0418
2570.00,0.0418
2569.00,0.0418
2568.00,0.0419
2567.00,0.0419
2566.00,0.0419
2565.00,0.0418
2564.00,0.0418
2563.00,0.0418
2562.00,0.0418
2561.00,0.0417
2560.00,0.0417
2559.00,0.0416
2558.00,0.0416
2557.00,0.0416
2556.00,0.0416
2555.00,0.0416
2554.00,0.0416
2553.00,0.0416
2552.00,0.0416
2551.00,0.0416
2550.00,0.0416
2549.00,0.0415
2548.00,0.0414
2547.00,0.0413
2546.00,0.0413
2545.00,0.0413
2544.00,0.0413
2543.00,0.0413
2542.00,0.0413
2541.00,0.0413
2540.00,0.0413
2539.00,0.0413
2538.00,0.0413
2537.00,0.0413
2536.00,0.0412
2535.00,0.0411
2534.00,0.0411
2533.00,0.0411
2532.00,0.0411
2531.00,0.0411
2530.00,0.0411
2529.00,0.0411
2528.00,0.0410
2527.00,0.0410
2526.00,0.0409
2525.00,0.0409
2524.00,0.0409
2523.00,0.0409
2522.00,0.0409
2521.00,0.0409
2520.00,0.0408
2519.00,0.0408
2518.00,0.0408
2517.00,0.0408
2516.00,0.0408
2515.00,0.0408
2514.00,0.0408
2513.00,0.0408
2512.00,0.0408
2511.00,0.0408
2510.00,0.0407
2509.00,0.0406
2508.00,0.0405
2507.00,0.0405
2506.00,0.0405
2505.00,0.0406
2504.00,0.0406
2503.00,0.0405
2502.00,0.0404
2501.00,0.0404
2500.00,0.0404
2499.00,0.0404
2498.00,0.0404
2497.00,0.0405
2496.00,0.0405
2495.00,0.0405
2494.00,0.0405
2493.00,0.0405
2492.00,0.0405
2491.00,0.0405
2490.00,0.0405
2489.00,0.0404
2488.00,0.0404
2487.00,0.0403
2486.00,0.0403
2485.00,0.0402
2484.00,0.0402
2483.00,0.0401
2482.00,0.0401
2481.00,0.0401
2480.00,0.0401
2479.00,0.0401
2478.00,0.0401
2477.00,0.0401
2476.00,0.0401
2475.00,0.0400
2474.00,0.0399
2473.00,0.0398
2472.00,0.0398
2471.00,0.0398
2470.00,0.0398
2469.00,0.0399
2468.00,0.0399
2467.00,0.0398
2466.00,0.0398
2465.00,0.0398
2464.00,0.0398
2463.00,0.0398
2462.00,0.0398
2461.00,0.0398
2460.00,0.0398
2459.00,0.0398
2458.00,0.0397
2457.00,0.0397
2456.00,0.0397
2455.00,0.0397
2454.00,0.0396
2453.00,0.0396
2452.00,0.0395
2451.00,0.0395
2450.00,0.0395
2449.00,0.0395
2448.00,0.0395
2447.00,0.0394
2446.00,0.0394
2445.00,0.0394
2444.00,0.0394
2443.00,0.0394
2442.00,0.0393
2441.00,0.0392
2440.00,0.0392
2439.00,0.0392
2438.00,0.0391
2437.00,0.0391
2436.00,0.0391
2435.00,0.0391
2434.00,0.0391
2433.00,0.0391
2432.00,0.0391
2431.00,0.0390
2430.00,0.0390
2429.00,0.0389
2428.00,0.0388
2427.00,0.0388
2426.00,0.0388
2425.00,0.0388
2424.00,0.0388
2423.00,0.0387
2422.00,0.0387
2421.00,0.0386
2420.00,0.0386
2419.00,0.0386
2418.00,0.0386
2417.00,0.0385
2416.00,0.0385
2415.00,0.0384
2414.00,0.0384
2413.00,0.0383
2412.00,0.0383
2411.00,0.0382
2410.00,0.0381
2409.00,0.0381
2408.00,0.0381
2407.00,0.0381
2406.00,0.0381
2405.00,0.0380
2404.00,0.0381
2403.00,0.0380
2402.00,0.0380
2401.00,0.0380
2400.00,0.0379
2399.00,0.0378
2398.00,0.0378
2397.00,0.0378
2396.00,0.0378
2395.00,0.0377
2394.00,0.0377
2393.00,0.0376
2392.00,0.0376
2391.00,0.0376
2390.00,0.0375
2389.00,0.0375
2388.00,0.0375
2387.00,0.0375
2386.00,0.0375
2385.00,0.0375
2384.00,0.0375
2383.00,0.0375
2382.00,0.0375
2381.00,0.0375
2380.00,0.0374
2379.00,0.0373
2378.00,0.0372
2377.00,0.0371
2376.00,0.0370
2375.00,0.0368
2374.00,0.0367
2373.00,0.0367
2372.00,0.0367
2371.00,0.0368
2370.00,0.0370
2369.00,0.0371
2368.00,0.0372
2367.00,0.0371
2366.00,0.0370
2365.00,0.0368
2364.00,0.0366
2363.00,0.0365
2362.00,0.0366
2361.00,0.0367
2360.00,0.0369
2359.00,0.0369
2358.00,0.0369
2357.00,0.0369
2356.00,0.0368
2355.00,0.0367
2354.00,0.0365
2353.00,0.0364
2352.00,0.0363
2351.00,0.0363
2350.00,0.0364
2349.00,0.0364
2348.00,0.0364
2347.00,0.0365
2346.00,0.0365
2345.00,0.0364
2344.00,0.0363
2343.00,0.0363
2342.00,0.0363
2341.00,0.0363
2340.00,0.0363
2339.00,0.0362
2338.00,0.0361
2337.00,0.0360
2336.00,0.0360
2335.00,0.0360
2334.00,0.0361
2333.00,0.0361
2332.00,0.0360
2331.00,0.0360
2330.00,0.0359
2329.00,0.0360
2328.00,0.0361
2327.00,0.0362
2326.00,0.0364
2325.00,0.0364
2324.00,0.0364
2323.00,0.0363
2322.00,0.0361
2321.00,0.0360
2320.00,0.0359
2319.00,0.0358
2318.00,0.0358
2317.00,0.0359
2316.00,0.0359
2315.00,0.0359
2314.00,0.0358
2313.00,0.0357
2312.00,0.0357
2311.00,0.0358
2310.00,0.0359
2309.00,0.0359
2308.00,0.0360
2307.00,0.0359
2306.00,0.0359
2305.00,0.0358
2304.00,0.0358
2303.00,0.0358
2302.00,0.0358
2301.00,0.0357
2300.00,0.0357
2299.00,0.0357
2298.00,0.0356
2297.00,0.0355
2296.00,0.0355
2295.00,0.0354
2294.00,0.0354
2293.00,0.0355
2292.00,0.0356
2291.00,0.0357
2290.00,0.0357
2289.00,0.0358
2288.00,0.0358
2287.00,0.0358
2286.00,0.0358
2285.00,0.0357
2284.00,0.0356
2283.00,0.0354
2282.00,0.0354
2281.00,0.0353
2280.00,0.0354
2279.00,0.0353
2278.00,0.0353
2277.00,0.0353
2276.00,0.0353
2275.00,0.0353
2274.00,0.0353
2273.00,0.0353
2272.00,0.0353
2271.00,0.0353
2270.00,0.0353
2269.00,0.0353
2268.00,0.0352
2267.00,0.0351
2266.00,0.0351
2265.00,0.0351
2264.00,0.0351
2263.00,0.0352
2262.00,0.0352
2261.00,0.0352
2260.00,0.0352
2259.00,0.0352
2258.00,0.0351
2257.00,0.0350
2256.00,0.0348
2255.00,0.0347
2254.00,0.0346
2253.00,0.0347
2252.00,0.0347
2251.00,0.0347
2250.00,0.0347
2249.00,0.0347
2248.00,0.0347
2247.00,0.0347
2246.00,0.0347
2245.00,0.0347
2244.00,0.0348
2243.00,0.0348
2242.00,0.0349
2241.00,0.0349
2240.00,0.0349
2239.00,0.0350
2238.00,0.0350
2237.00,0.0350
2236.00,0.0350
2235.00,0.0350
2234.00,0.0350
2233.00,0.0351
2232.00,0.0351
2231.00,0.0351
2230.00,0.0351
2229.00,0.0351
2228.00,0.0351
2227.00,0.0351
2226.00,0.0351
2225.00,0.0351
2224.00,0.0351
2223.00,0.0351
2222.00,0.0351
2221.00,0.0350
2220.00,0.0350
2219.00,0.0349
2218.00,0.0348
2217.00,0.0347
2216.00,0.0346
2215.00,0.0346
2214.00,0.0346
2213.00,0.0347
2212.00,0.0347
2211.00,0.0346
2210.00,0.0345
2209.00,0.0344
2208.00,0.0343
2207.00,0.0342
2206.00,0.0340
2205.00,0.0340
2204.00,0.0340
2203.00,0.0340
2202.00,0.0341
2201.00,0.0343
2200.00,0.0345
2199.00,0.0347
2198.00,0.0348
2197.00,0.0347
2196.00,0.0345
2195.00,0.0342
2194.00,0.0339
2193.00,0.0337
2192.00,0.0335
2191.00,0.0335
2190.00,0.0336
2189.00,0.0338
2188.00,0.0340
2187.00,0.0341
2186.00,0.0341
2185.00,0.0339
2184.00,0.0338
2183.00,0.0336
2182.00,0.0335
2181.00,0.0335
2180.00,0.0335
2179.00,0.0335
2178.00,0.0334
2177.00,0.0332
2176.00,0.0331
2175.00,0.0330
2174.00,0.0331
2173.00,0.0333
2172.00,0.0335
2171.00,0.0337
2170.00,0.0340
2169.00,0.0342
2168.00,0.0343
2167.00,0.0341
2166.00,0.0340
2165.00,0.0339
2164.00,0.0339
2163.00,0.0339
2162.00,0.0338
2161.00,0.0333
2160.00,0.0328
2159.00,0.0323
2158.00,0.0320
2157.00,0.0318
2156.00,0.0315
2155.00,0.0313
2154.00,0.0313
2153.00,0.0316
2152.00,0.0318
2151.00,0.0319
2150.00,0.0319
2149.00,0.0318
2148.00,0.0317
2147.00,0.0316
2146.00,0.0315
2145.00,0.0314
2144.00,0.0315
2143.00,0.0316
2142.00,0.0317
2141.00,0.0317
2140.00,0.0316
2139.00,0.0315
2138.00,0.0313
2137.00,0.0311
2136.00,0.0309
2135.00,0.0308
2134.00,0.0307
2133.00,0.0307
2132.00,0.0308
2131.00,0.0308
2130.00,0.0308
2129.00,0.0308
2128.00,0.0308
2127.00,0.0308
2126.00,0.0309
2125.00,0.0310
2124.00,0.0311
2123.00,0.0311
2122.00,0.0312
2121.00,0.0312
2120.00,0.0312
2119.00,0.0312
2118.00,0.0311
2117.00,0.0310
2116.00,0.0309
2115.00,0.0309
2114.00,0.0309
2113.00,0.0309
2112.00,0.0310
2111.00,0.0310
2110.00,0.0310
2109.00,0.0309
2108.00,0.0309
2107.00,0.0309
2106.00,0.0309
2105.00,0.0308
2104.00,0.0307
2103.00,0.0307
2102.00,0.0306
2101.00,0.0306
2100.00,0.0305
2099.00,0.0304
2098.00,0.0304
2097.00,0.0303
2096.00,0.0303
2095.00,0.0302
2094.00,0.0302
2093.00,0.0302
2092.00,0.0302
2091.00,0.0301
2090.00,0.0301
2089.00,0.0301
2088.00,0.0301
2087.00,0.0300
2086.00,0.0300
2085.00,0.0300
2084.00,0.0300
2083.00,0.0299
2082.00,0.0299
2081.00,0.0299
2080.00,0.0299
2079.00,0.0300
2078.00,0.0300
2077.00,0.0300
2076.00,0.0299
2075.00,0.0298
2074.00,0.0297
2073.00,0.0296
2072.00,0.0296
2071.00,0.0296
2070.00,0.0296
2069.00,0.0297
2068.00,0.0298
2067.00,0.0298
2066.00,0.0297
2065.00,0.0296
2064.00,0.0295
2063.00,0.0295
2062.00,0.0295
2061.00,0.0295
2060.00,0.0295
2059.00,0.0294
2058.00,0.0294
2057.00,0.0294
2056.00,0.0295
2055.00,0.0295
2054.00,0.0295
2053.00,0.0295
2052.00,0.0296
2051.00,0.0296
2050.00,0.0296
2049.00,0.0296
2048.00,0.0295
2047.00,0.0295
2046.00,0.0295
2045.00,0.0296
2044.00,0.0296
2043.00,0.0295
2042.00,0.0294
2041.00,0.0293
2040.00,0.0294
2039.00,0.0296
2038.00,0.0297
2037.00,0.0298
2036.00,0.0296
2035.00,0.0294
2034.00,0.0292
2033.00,0.0291
2032.00,0.0291
2031.00,0.0291
2030.00,0.0291
2029.00,0.0291
2028.00,0.0290
2027.00,0.0288
2026.00,0.0286
2025.00,0.0285
2024.00,0.0286
2023.00,0.0287
2022.00,0.0289
2021.00,0.0291
2020.00,0.0291
2019.00,0.0289
2018.00,0.0286
2017.00,0.0283
2016.00,0.0282
2015.00,0.0282
2014.00,0.0283
2013.00,0.0285
2012.00,0.0286
2011.00,0.0285
2010.00,0.0284
2009.00,0.0282
2008.00,0.0280
2007.00,0.0279
2006.00,0.0278
2005.00,0.0279
2004.00,0.0280
2003.00,0.0281
2002.00,0.0282
2001.00,0.0282
2000.00,0.0281
1999.00,0.0279
1998.00,0.0277
1997.00,0.0278
1996.00,0.0279
1995.00,0.0280
1994.00,0.0280
1993.00,0.0279
1992.00,0.0278
1991.00,0.0275
1990.00,0.0274
1989.00,0.0273
1988.00,0.0273
1987.00,0.0273
1986.00,0.0276
1985.00,0.0279
1984.00,0.0282
1983.00,0.0283
1982.00,0.0284
1981.00,0.0285
1980.00,0.0285
1979.00,0.0282
1978.00,0.0278
1977.00,0.0275
1976.00,0.0272
1975.00,0.0271
1974.00,0.0270
1973.00,0.0270
1972.00,0.0270
1971.00,0.0270
1970.00,0.0269
1969.00,0.0268
1968.00,0.0268
1967.00,0.0268
1966.00,0.0268
1965.00,0.0269
1964.00,0.0269
1963.00,0.0267
1962.00,0.0264
1961.00,0.0262
1960.00,0.0262
1959.00,0.0262
1958.00,0.0262
1957.00,0.0262
1956.00,0.0262
1955.00,0.0262
1954.00,0.0262
1953.00,0.0261
1952.00,0.0260
1951.00,0.0259
1950.00,0.0259
1949.00,0.0259
1948.00,0.0260
1947.00,0.0260
1946.00,0.0260
1945.00,0.0260
1944.00,0.0259
1943.00,0.0258
1942.00,0.0255
1941.00,0.0254
1940.00,0.0253
1939.00,0.0252
1938.00,0.0252
1937.00,0.0252
1936.00,0.0252
1935.00,0.0252
1934.00,0.0252
1933.00,0.0252
1932.00,0.0252
1931.00,0.0251
1930.00,0.0250
1929.00,0.0249
1928.00,0.0248
1927.00,0.0247
1926.00,0.0247
1925.00,0.0247
1924.00,0.0246
1923.00,0.0246
1922.00,0.0246
1921.00,0.0247
1920.00,0.0247
1919.00,0.0247
1918.00,0.0245
1917.00,0.0243
1916.00,0.0242
1915.00,0.0242
1914.00,0.0242
1913.00,0.0242
1912.00,0.0241
1911.00,0.0240
1910.00,0.0238
1909.00,0.0236
1908.00,0.0236
1907.00,0.0235
1906.00,0.0235
1905.00,0.0236
1904.00,0.0236
1903.00,0.0236
1902.00,0.0236
1901.00,0.0235
1900.00,0.0235
1899.00,0.0234
1898.00,0.0234
1897.00,0.0233
1896.00,0.0233
1895.00,0.0232
1894.00,0.0231
1893.00,0.0231
1892.00,0.0231
1891.00,0.0231
1890.00,0.0230
1889.00,0.0228
1888.00,0.0227
1887.00,0.0227
1886.00,0.0227
1885.00,0.0228
1884.00,0.0228
1883.00,0.0228
1882.00,0.0227
1881.00,0.0226
1880.00,0.0225
1879.00,0.0223
1878.00,0.0222
1877.00,0.0222
1876.00,0.0222
1875.00,0.0222
1874.00,0.0221
1873.00,0.0221
1872.00,0.0222
1871.00,0.0222
1870.00,0.0222
1869.00,0.0220
1868.00,0.0218
1867.00,0.0216
1866.00,0.0216
1865.00,0.0216
1864.00,0.0216
1863.00,0.0216
1862.00,0.0215
1861.00,0.0214
1860.00,0.0214
1859.00,0.0213
1858.00,0.0213
1857.00,0.0213
1856.00,0.0212
1855.00,0.0212
1854.00,0.0211
1853.00,0.0210
1852.00,0.0210
1851.00,0.0209
1850.00,0.0209
1849.00,0.0209
1848.00,0.0209
1847.00,0.0209
1846.00,0.0209
1845.00,0.0207
1844.00,0.0205
1843.00,0.0202
1842.00,0.0202
1841.00,0.0203
1840.00,0.0204
1839.00,0.0204
1838.00,0.0203
1837.00,0.0202
1836.00,0.0201
1835.00,0.0201
1834.00,0.0201
1833.00,0.0202
1832.00,0.0203
1831.00,0.0202
1830.00,0.0200
1829.00,0.0197
1828.00,0.0196
1827.00,0.0196
1826.00,0.0196
1825.00,0.0195
1824.00,0.0194
1823.00,0.0194
1822.00,0.0194
1821.00,0.0195
1820.00,0.0195
1819.00,0.0195
1818.00,0.0194
1817.00,0.0193
1816.00,0.0192
1815.00,0.0192
1814.00,0.0192
1813.00,0.0193
1812.00,0.0193
1811.00,0.0193
1810.00,0.0192
1809.00,0.0193
1808.00,0.0194
1807.00,0.0194
1806.00,0.0195
1805.00,0.0196
1804.00,0.0198
1803.00,0.0199
1802.00,0.0200
1801.00,0.0200
1800.00,0.0200
1799.00,0.0200
1798.00,0.0202
1797.00,0.0204
1796.00,0.0206
1795.00,0.0209
1794.00,0.0212
1793.00,0.0214
1792.00,0.0214
1791.00,0.0213
1790.00,0.0214
1789.00,0.0217
1788.00,0.0220
1787.00,0.0223
1786.00,0.0226
1785.00,0.0230
1784.00,0.0232
1783.00,0.0235
1782.00,0.0238
1781.00,0.0240
1780.00,0.0242
1779.00,0.0244
1778.00,0.0248
1777.00,0.0252
1776.00,0.0257
1775.00,0.0262
1774.00,0.0266
1773.00,0.0269
1772.00,0.0272
1771.00,0.0273
1770.00,0.0275
1769.00,0.0279
1768.00,0.0282
1767.00,0.0285
1766.00,0.0287
1765.00,0.0291
1764.00,0.0295
1763.00,0.0297
1762.00,0.0299
1761.00,0.0301
1760.00,0.0304
1759.00,0.0308
1758.00,0.0312
1757.00,0.0316
1756.00,0.0319
1755.00,0.0323
1754.00,0.0327
1753.00,0.0332
1752.00,0.0338
1751.00,0.0344
1750.00,0.0348
1749.00,0.0352
1748.00,0.0357
1747.00,0.0362
1746.00,0.0368
1745.00,0.0374
1744.00,0.0380
1743.00,0.0386
1742.00,0.0391
1741.00,0.0399
1740.00,0.0406
1739.00,0.0412
1738.00,0.0418
1737.00,0.0424
1736.00,0.0431
1735.00,0.0440
1734.00,0.0449
1733.00,0.0455
1732.00,0.0461
1731.00,0.0468
1730.00,0.0474
1729.00,0.0482
1728.00,0.0490
1727.00,0.0497
1726.00,0.0504
1725.00,0.0510
1724.00,0.0516
1723.00,0.0520
1722.00,0.0524
1721.00,0.0527
1720.00,0.0531
1719.00,0.0535
1718.00,0.0539
1717.00,0.0542
1716.00,0.0545
1715.00,0.0547
1714.00,0.0550
1713.00,0.0554
1712.00,0.0557
1711.00,0.0560
1710.00,0.0563
1709.00,0.0566
1708.00,0.0569
1707.00,0.0572
1706.00,0.0574
1705.00,0.0575
1704.00,0.0577
1703.00,0.0578
1702.00,0.0580
1701.00,0.0586
1700.00,0.0592
1699.00,0.0594
1698.00,0.0595
1697.00,0.0597
1696.00,0.0598
1695.00,0.0599
1694.00,0.0600
1693.00,0.0603
1692.00,0.0605
1691.00,0.0607
1690.00,0.0610
1689.00,0.0613
1688.00,0.0616
1687.00,0.0618
1686.00,0.0620
1685.00,0.0627
1684.00,0.0635
1683.00,0.0640
1682.00,0.0644
1681.00,0.0649
1680.00,0.0653
1679.00,0.0657
1678.00,0.0660
1677.00,0.0666
1676.00,0.0673
1675.00,0.0681
1674.00,0.0687
1673.00,0.0691
1672.00,0.0696
1671.00,0.0701
1670.00,0.0709
1669.00,0.0717
1668.00,0.0723
1667.00,0.0727
1666.00,0.0731
1665.00,0.0737
1664.00,0.0744
1663.00,0.0753
1662.00,0.0761
1661.00,0.0766
1660.00,0.0771
1659.00,0.0774
1658.00,0.0777
1657.00,0.0779
1656.00,0.0781
1655.00,0.0784
1654.00,0.0797
1653.00,0.0815
1652.00,0.0824
1651.00,0.0828
1650.00,0.0830
1649.00,0.0832
1648.00,0.0839
1647.00,0.0851
1646.00,0.0861
1645.00,0.0868
1644.00,0.0874
1643.00,0.0878
1642.00,0.0881
1641.00,0.0885
1640.00,0.0889
1639.00,0.0893
1638.00,0.0897
1637.00,0.0906
1636.00,0.0920
1635.00,0.0932
1634.00,0.0939
1633.00,0.0944
1632.00,0.0948
1631.00,0.0951
1630.00,0.0956
1629.00,0.0963
1628.00,0.0971
1627.00,0.0978
1626.00,0.0984
1625.00,0.0990
1624.00,0.0998
1623.00,0.1007
1622.00,0.1014
1621.00,0.1018
1620.00,0.1021
1619.00,0.1024
1618.00,0.1032
1617.00,0.1043
1616.00,0.1053
1615.00,0.1058
1614.00,0.1061
1613.00,0.1064
1612.00,0.1068
1611.00,0.1074
1610.00,0.1080
1609.00,0.1087
1608.00,0.1093
1607.00,0.1098
1606.00,0.1102
1605.00,0.1106
1604.00,0.1110
1603.00,0.1116
1602.00,0.1121
1601.00,0.1126
1600.00,0.1131
1599.00,0.1135
1598.00,0.1138
1597.00,0.1141
1596.00,0.1145
1595.00,0.1150
1594.00,0.1154
1593.00,0.1157
1592.00,0.1161
1591.00,0.1165
1590.00,0.1169
1589.00,0.1172
1588.00,0.1175
1587.00,0.1177
1586.00,0.1179
1585.00,0.1180
1584.00,0.1182
1583.00,0.1183
1582.00,0.1184
1581.00,0.1184
1580.00,0.1182
1579.00,0.1181
1578.00,0.1179
1577.00,0.1181
1576.00,0.1185
1575.00,0.1187
1574.00,0.1186
1573.00,0.1182
1572.00,0.1178
1571.00,0.1177
1570.00,0.1177
1569.00,0.1177
1568.00,0.1174
1567.00,0.1171
1566.00,0.1166
1565.00,0.1161
1564.00,0.1157
1563.00,0.1152
1562.00,0.1144
1561.00,0.1133
1560.00,0.1129
1559.00,0.1132
1558.00,0.1131
1557.00,0.1127
1556.00,0.1123
1555.00,0.1118
1554.00,0.1112
1553.00,0.1107
1552.00,0.1101
1551.00,0.1095
1550.00,0.1088
1549.00,0.1081
1548.00,0.1075
1547.00,0.1068
1546.00,0.1061
1545.00,0.1054
1544.00,0.1047
1543.00,0.1040
1542.00,0.1032
1541.00,0.1024
1540.00,0.1017
1539.00,0.1011
1538.00,0.1006
1537.00,0.1002
1536.00,0.0996
1535.00,0.0990
1534.00,0.0983
1533.00,0.0975
1532.00,0.0968
1531.00,0.0962
1530.00,0.0954
1529.00,0.0947
1528.00,0.0941
1527.00,0.0937
1526.00,0.0932
1525.00,0.0926
1524.00,0.0919
1523.00,0.0912
1522.00,0.0905
1521.00,0.0898
1520.00,0.0894
1519.00,0.0890
1518.00,0.0885
1517.00,0.0880
1516.00,0.0874
1515.00,0.0870
1514.00,0.0865
1513.00,0.0859
1512.00,0.0855
1511.00,0.0850
1510.00,0.0845
1509.00,0.0840
1508.00,0.0839
1507.00,0.0838
1506.00,0.0833
1505.00,0.0829
1504.00,0.0826
1503.00,0.0821
1502.00,0.0815
1501.00,0.0811
1500.00,0.0807
1499.00,0.0805
1498.00,0.0802
1497.00,0.0800
1496.00,0.0798
1495.00,0.0796
1494.00,0.0794
1493.00,0.0793
1492.00,0.0793
1491.00,0.0794
1490.00,0.0794
1489.00,0.0794
1488.00,0.0793
1487.00,0.0792
1486.00,0.0791
1485.00,0.0790
1484.00,0.0790
1483.00,0.0790
1482.00,0.0791
1481.00,0.0791
1480.00,0.0791
1479.00,0.0791
1478.00,0.0791
1477.00,0.0791
1476.00,0.0793
1475.00,0.0796
1474.00,0.0800
1473.00,0.0805
1472.00,0.0810
1471.00,0.0812
1470.00,0.0812
1469.00,0.0813
1468.00,0.0813
1467.00,0.0813
1466.00,0.0816
1465.00,0.0819
1464.00,0.0823
1463.00,0.0825
1462.00,0.0826
1461.00,0.0826
1460.00,0.0825
1459.00,0.0826
1458.00,0.0830
1457.00,0.0836
1456.00,0.0841
1455.00,0.0844
1454.00,0.0846
1453.00,0.0847
1452.00,0.0849
1451.00,0.0851
1450.00,0.0853
1449.00,0.0856
1448.00,0.0859
1447.00,0.0862
1446.00,0.0864
1445.00,0.0867
1444.00,0.0870
1443.00,0.0873
1442.00,0.0875
1441.00,0.0877
1440.00,0.0878
1439.00,0.0880
1438.00,0.0883
1437.00,0.0889
1436.00,0.0897
1435.00,0.0902
1434.00,0.0904
1433.00,0.0905
1432.00,0.0906
1431.00,0.0909
1430.00,0.0912
1429.00,0.0915
1428.00,0.0919
1427.00,0.0922
1426.00,0.0925
1425.00,0.0927
1424.00,0.0931
1423.00,0.0933
1422.00,0.0934
1421.00,0.0934
1420.00,0.0938
1419.00,0.0944
1418.00,0.0950
1417.00,0.0954
1416.00,0.0957
1415.00,0.0960
1414.00,0.0961
1413.00,0.0963
1412.00,0.0966
1411.00,0.0969
1410.00,0.0972
1409.00,0.0974
1408.00,0.0977
1407.00,0.0980
1406.00,0.0982
1405.00,0.0986
1404.00,0.0990
1403.00,0.0993
1402.00,0.0995
1401.00,0.0997
1400.00,0.1001
1399.00,0.1005
1398.00,0.1009
1397.00,0.1012
1396.00,0.1016
1395.00,0.1020
1394.00,0.1024
1393.00,0.1028
1392.00,0.1031
1391.00,0.1033
1390.00,0.1035
1389.00,0.1039
1388.00,0.1043
1387.00,0.1048
1386.00,0.1051
1385.00,0.1054
1384.00,0.1056
1383.00,0.1058
1382.00,0.1061
1381.00,0.1063
1380.00,0.1066
1379.00,0.1068
1378.00,0.1069
1377.00,0.1069
1376.00,0.1070
1375.00,0.1072
1374.00,0.1074
1373.00,0.1076
1372.00,0.1077
1371.00,0.1077
1370.00,0.1077
1369.00,0.1077
1368.00,0.1077
1367.00,0.1077
1366.00,0.1076
1365.00,0.1076
1364.00,0.1075
1363.00,0.1076
1362.00,0.1076
1361.00,0.1076
1360.00,0.1076
1359.00,0.1074
1358.00,0.1072
1357.00,0.1070
1356.00,0.1069
1355.00,0.1068
1354.00,0.1067
1353.00,0.1066
1352.00,0.1065
1351.00,0.1063
1350.00,0.1061
1349.00,0.1059
1348.00,0.1057
1347.00,0.1055
1346.00,0.1053
1345.00,0.1051
1344.00,0.1049
1343.00,0.1046
1342.00,0.1044
1341.00,0.1041
1340.00,0.1038
1339.00,0.1036
1338.00,0.1035
1337.00,0.1034
1336.00,0.1033
1335.00,0.1032
1334.00,0.1031
1333.00,0.1029
1332.00,0.1027
1331.00,0.1025
1330.00,0.1022
1329.00,0.1020
1328.00,0.1018
1327.00,0.1016
1326.00,0.1014
1325.00,0.1012
1324.00,0.1010
1323.00,0.1009
1322.00,0.1007
1321.00,0.1006
1320.00,0.1004
1319.00,0.1004
1318.00,0.1004
1317.00,0.1004
1316.00,0.1004
1315.00,0.1003
1314.00,0.1001
1313.00,0.0999
1312.00,0.0998
1311.00,0.0998
1310.00,0.0997
1309.00,0.0997
1308.00,0.0997
1307.00,0.0997
1306.00,0.0997
1305.00,0.0996
1304.00,0.0995
1303.00,0.0995
1302.00,0.0994
1301.00,0.0994
1300.00,0.0995
1299.00,0.0996
1298.00,0.0996
1297.00,0.0997
1296.00,0.0997
1295.00,0.0997
1294.00,0.0997
1293.00,0.0996
1292.00,0.0997
1291.00,0.0998
1290.00,0.0999
1289.00,0.1000
1288.00,0.1001
1287.00,0.1002
1286.00,0.1002
1285.00,0.1002
1284.00,0.1003
1283.00,0.1004
1282.00,0.1005
1281.00,0.1006
1280.00,0.1008
1279.00,0.1009
1278.00,0.1010
1277.00,0.1010
1276.00,0.1010
1275.00,0.1011
1274.00,0.1011
1273.00,0.1012
1272.00,0.1013
1271.00,0.1014
1270.00,0.1015
1269.00,0.1016
1268.00,0.1017
1267.00,0.1017
1266.00,0.1018
1265.00,0.1018
1264.00,0.1019
1263.00,0.1020
1262.00,0.1022
1261.00,0.1024
1260.00,0.1026
1259.00,0.1027
1258.00,0.1027
1257.00,0.1027
1256.00,0.1027
1255.00,0.1028
1254.00,0.1029
1253.00,0.1030
1252.00,0.1032
1251.00,0.1033
1250.00,0.1034
1249.00,0.1034
1248.00,0.1034
1247.00,0.1034
1246.00,0.1033
1245.00,0.1032
1244.00,0.1032
1243.00,0.1033
1242.00,0.1034
1241.00,0.1035
1240.00,0.1036
1239.00,0.1035
1238.00,0.1035
1237.00,0.1034
1236.00,0.1033
1235.00,0.1032
1234.00,0.1031
1233.00,0.1031
1232.00,0.1030
1231.00,0.1030
1230.00,0.1029
1229.00,0.1028
1228.00,0.1028
1227.00,0.1027
1226.00,0.1026
1225.00,0.1025
1224.00,0.1024
1223.00,0.1023
1222.00,0.1021
1221.00,0.1019
1220.00,0.1017
1219.00,0.1015
1218.00,0.1013
1217.00,0.1011
1216.00,0.1011
1215.00,0.1010
1214.00,0.1010
1213.00,0.1009
1212.00,0.1007
1211.00,0.1005
1210.00,0.1004
1209.00,0.1002
1208.00,0.1002
1207.00,0.1002
1206.00,0.1002
1205.00,0.1002
1204.00,0.1001
1203.00,0.1000
1202.00,0.0999
1201.00,0.0997
1200.00,0.0996
1199.00,0.0995
1198.00,0.0995
1197.00,0.0995
1196.00,0.0996
1195.00,0.0996
1194.00,0.0995
1193.00,0.0994
1192.00,0.0993
1191.00,0.0992
1190.00,0.0990
1189.00,0.0990
1188.00,0.0989
1187.00,0.0989
1186.00,0.0988
1185.00,0.0988
1184.00,0.0988
1183.00,0.0987
1182.00,0.0987
1181.00,0.0986
1180.00,0.0986
1179.00,0.0987
1178.00,0.0988
1177.00,0.0988
1176.00,0.0989
1175.00,0.0990
1174.00,0.0990
1173.00,0.0990
1172.00,0.0991
1171.00,0.0991
1170.00,0.0991
1169.00,0.0992
1168.00,0.0994
1167.00,0.0995
1166.00,0.0996
1165.00,0.0996
1164.00,0.0995
1163.00,0.0994
1162.00,0.0992
1161.00,0.0990
1160.00,0.0989
1159.00,0.0987
1158.00,0.0986
1157.00,0.0984
1156.00,0.0983
1155.00,0.0983
1154.00,0.0983
1153.00,0.0985
1152.00,0.0987
1151.00,0.0989
1150.00,0.0990
1149.00,0.0990
1148.00,0.0990
1147.00,0.0990
1146.00,0.0990
1145.00,0.0991
1144.00,0.0992
1143.00,0.0993
1142.00,0.0994
1141.00,0.0995
1140.00,0.0996
1139.00,0.0997
1138.00,0.0997
1137.00,0.0997
1136.00,0.0997
1135.00,0.0999
1134.00,0.1002
1133.00,0.1004
1132.00,0.1006
1131.00,0.1008
1130.00,0.1010
1129.00,0.1012
1128.00,0.1015
1127.00,0.1018
1126.00,0.1022
1125.00,0.1027
1124.00,0.1032
1123.00,0.1038
1122.00,0.1043
1121.00,0.1049
1120.00,0.1056
1119.00,0.1062
1118.00,0.1068
1117.00,0.1074
1116.00,0.1079
1115.00,0.1083
1114.00,0.1086
1113.00,0.1087
1112.00,0.1088
1111.00,0.1090
1110.00,0.1092
1109.00,0.1095
1108.00,0.1099
1107.00,0.1103
1106.00,0.1107
1105.00,0.1110
1104.00,0.1113
1103.00,0.1116
1102.00,0.1118
1101.00,0.1120
1100.00,0.1123
1099.00,0.1125
1098.00,0.1129
1097.00,0.1134
1096.00,0.1139
1095.00,0.1143
1094.00,0.1145
1093.00,0.1147
1092.00,0.1149
1091.00,0.1151
1090.00,0.1153
1089.00,0.1155
1088.00,0.1157
1087.00,0.1159
1086.00,0.1160
1085.00,0.1161
1084.00,0.1162
1083.00,0.1163
1082.00,0.1163
1081.00,0.1163
1080.00,0.1164
1079.00,0.1166
1078.00,0.1168
1077.00,0.1170
1076.00,0.1171
1075.00,0.1171
1074.00,0.1170
1073.00,0.1169
1072.00,0.1170
1071.00,0.1171
1070.00,0.1173
1069.00,0.1176
1068.00,0.1181
1067.00,0.1185
1066.00,0.1188
1065.00,0.1190
1064.00,0.1191
1063.00,0.1192
1062.00,0.1194
1061.00,0.1197
1060.00,0.1202
1059.00,0.1207
1058.00,0.1210
1057.00,0.1211
1056.00,0.1210
1055.00,0.1209
1054.00,0.1208
1053.00,0.1210
1052.00,0.1214
1051.00,0.1218
1050.00,0.1223
1049.00,0.1227
1048.00,0.1230
1047.00,0.1231
1046.00,0.1231
1045.00,0.1232
1044.00,0.1235
1043.00,0.1239
1042.00,0.1245
1041.00,0.1252
1040.00,0.1258
1039.00,0.1263
1038.00,0.1267
1037.00,0.1270
1036.00,0.1274
1035.00,0.1277
1034.00,0.1280
1033.00,0.1282
1032.00,0.1283
1031.00,0.1282
1030.00,0.1277
1029.00,0.1270
1028.00,0.1261
1027.00,0.1252
1026.00,0.1244
1025.00,0.1238
1024.00,0.1233
1023.00,0.1229
1022.00,0.1223
1021.00,0.1218
1020.00,0.1213
1019.00,0.1208
1018.00,0.1204
1017.00,0.1203
1016.00,0.1204
1015.00,0.1206
1014.00,0.1208
1013.00,0.1210
1012.00,0.1212
1011.00,0.1213
1010.00,0.1214
1009.00,0.1215
1008.00,0.1214
1007.00,0.1213
1006.00,0.1211
1005.00,0.1209
1004.00,0.1205
1003.00,0.1199
1002.00,0.1193
1001.00,0.1186
1000.00,0.1179
999.00,0.1172
998.00,0.1164
997.00,0.1156
996.00,0.1147
995.00,0.1139
994.00,0.1130
993.00,0.1122
992.00,0.1116
991.00,0.1110
990.00,0.1105
989.00,0.1100
988.00,0.1095
987.00,0.1090
986.00,0.1086
985.00,0.1081
984.00,0.1075
983.00,0.1070
982.00,0.1063
981.00,0.1058
980.00,0.1054
979.00,0.1050
978.00,0.1046
977.00,0.1042
976.00,0.1038
975.00,0.1033
974.00,0.1029
973.00,0.1024
972.00,0.1020
971.00,0.1017
970.00,0.1014
969.00,0.1013
968.00,0.1012
967.00,0.1010
966.00,0.1007
965.00,0.1003
964.00,0.0999
963.00,0.0995
962.00,0.0993
961.00,0.0993
960.00,0.0993
959.00,0.0993
958.00,0.0992
957.00,0.0990
956.00,0.0987
955.00,0.0983
954.00,0.0981
953.00,0.0979
952.00,0.0978
951.00,0.0978
950.00,0.0978
949.00,0.0979
948.00,0.0979
947.00,0.0979
946.00,0.0978
945.00,0.0978
944.00,0.0980
943.00,0.0983
942.00,0.0988
941.00,0.0992
940.00,0.0995
939.00,0.0996
938.00,0.0994
937.00,0.0991
936.00,0.0989
935.00,0.0988
934.00,0.0988
933.00,0.0990
932.00,0.0992
931.00,0.0993
930.00,0.0992
929.00,0.0991
928.00,0.0989
927.00,0.0988
926.00,0.0989
925.00,0.0993
924.00,0.0997
923.00,0.1002
922.00,0.1007
921.00,0.1010
920.00,0.1013
919.00,0.1016
918.00,0.1020
917.00,0.1024
916.00,0.1028
915.00,0.1032
914.00,0.1033
913.00,0.1033
912.00,0.1033
911.00,0.1032
910.00,0.1030
909.00,0.1028
908.00,0.1026
907.00,0.1026
906.00,0.1025
905.00,0.1023
904.00,0.1020
903.00,0.1015
902.00,0.1008
901.00,0.1002
900.00,0.0997
899.00,0.0995
898.00,0.0994
897.00,0.0994
896.00,0.0992
895.00,0.0991
894.00,0.0988
893.00,0.0983
892.00,0.0979
891.00,0.0974
890.00,0.0969
889.00,0.0966
888.00,0.0965
887.00,0.0965
886.00,0.0965
885.00,0.0966
884.00,0.0965
883.00,0.0964
882.00,0.0960
881.00,0.0957
880.00,0.0954
879.00,0.0952
878.00,0.0951
877.00,0.0951
876.00,0.0952
875.00,0.0953
874.00,0.0953
873.00,0.0953
872.00,0.0953
871.00,0.0952
870.00,0.0949
869.00,0.0945
868.00,0.0942
867.00,0.0939
866.00,0.0936
865.00,0.0935
864.00,0.0936
863.00,0.0939
862.00,0.0944
861.00,0.0950
860.00,0.0956
859.00,0.0959
858.00,0.0959
857.00,0.0955
856.00,0.0950
855.00,0.0945
854.00,0.0942
853.00,0.0942
852.00,0.0945
851.00,0.0951
850.00,0.0959
849.00,0.0967
848.00,0.0973
847.00,0.0976
846.00,0.0976
845.00,0.0975
844.00,0.0975
843.00,0.0977
842.00,0.0982
841.00,0.0988
840.00,0.0996
839.00,0.1003
838.00,0.1007
837.00,0.1008
836.00,0.1008
835.00,0.1007
834.00,0.1009
833.00,0.1014
832.00,0.1022
831.00,0.1031
830.00,0.1038
829.00,0.1042
828.00,0.1044
827.00,0.1047
826.00,0.1050
825.00,0.1056
824.00,0.1063
823.00,0.1070
822.00,0.1073
821.00,0.1074
820.00,0.1073
819.00,0.1071
818.00,0.1070
817.00,0.1071
816.00,0.1077
815.00,0.1085
814.00,0.1095
813.00,0.1103
812.00,0.1108
811.00,0.1109
810.00,0.1107
809.00,0.1104
808.00,0.1105
807.00,0.1112
806.00,0.1123
805.00,0.1136
804.00,0.1148
803.00,0.1159
802.00,0.1165
801.00,0.1168
800.00,0.1169
799.00,0.1170
798.00,0.1170
797.00,0.1172
796.00,0.1175
795.00,0.1179
794.00,0.1182
793.00,0.1183
792.00,0.1183
791.00,0.1183
790.00,0.1184
789.00,0.1185
788.00,0.1185
787.00,0.1186
786.00,0.1186
785.00,0.1186
784.00,0.1188
783.00,0.1192
782.00,0.1196
781.00,0.1200
780.00,0.1205
779.00,0.1211
778.00,0.1216
777.00,0.1219
776.00,0.1220
775.00,0.1219
774.00,0.1219
773.00,0.1218
772.00,0.1217
771.00,0.1213
770.00,0.1210
769.00,0.1208
768.00,0.1209
767.00,0.1211
766.00,0.1213
765.00,0.1214
764.00,0.1213
763.00,0.1209
762.00,0.1206
761.00,0.1205
760.00,0.1210
759.00,0.1219
758.00,0.1230
757.00,0.1238
756.00,0.1243
755.00,0.1243
754.00,0.1238
753.00,0.1232
752.00,0.1226
751.00,0.1224
750.00,0.1225
749.00,0.1231
748.00,0.1238
747.00,0.1243
746.00,0.1245
745.00,0.1245
744.00,0.1243
743.00,0.1241
742.00,0.1238
741.00,0.1236
740.00,0.1236
739.00,0.1237
738.00,0.1238
737.00,0.1237
736.00,0.1236
735.00,0.1235
734.00,0.1236
733.00,0.1241
732.00,0.1248
731.00,0.1254
730.00,0.1258
729.00,0.1257
728.00,0.1255
727.00,0.1250
726.00,0.1245
725.00,0.1243
724.00,0.1247
723.00,0.1256
722.00,0.1266
721.00,0.1274
720.00,0.1276
719.00,0.1274
718.00,0.1270
717.00,0.1266
716.00,0.1266
715.00,0.1269
714.00,0.1276
713.00,0.1285
712.00,0.1295
711.00,0.1302
710.00,0.1307
709.00,0.1309
708.00,0.1312
707.00,0.1315
706.00,0.1319
705.00,0.1325
704.00,0.1333
703.00,0.1341
702.00,0.1349
701.00,0.1355
700.00,0.1359
699.00,0.1364
698.00,0.1369
697.00,0.1377
696.00,0.1386
695.00,0.1392
694.00,0.1396
693.00,0.1396
692.00,0.1395
691.00,0.1392
690.00,0.1392
689.00,0.1397
688.00,0.1407
687.00,0.1419
686.00,0.1430
685.00,0.1439
684.00,0.1445
683.00,0.1445
682.00,0.1439
681.00,0.1431
680.00,0.1425
679.00,0.1420
678.00,0.1421
677.00,0.1429
676.00,0.1443
675.00,0.1457
674.00,0.1467
673.00,0.1472
672.00,0.1469
671.00,0.1458
670.00,0.1439
669.00,0.1422
668.00,0.1426
667.00,0.1448
666.00,0.1470
665.00,0.1486
664.00,0.1497
663.00,0.1503
662.00,0.1505
661.00,0.1504
660.00,0.1502
659.00,0.1500
658.00,0.1502
657.00,0.1507
656.00,0.1515
655.00,0.1522
654.00,0.1525
653.00,0.1525
652.00,0.1527
651.00,0.1534
650.00,0.1554
