Created as New Dataset,Monday, April 03 2023
cm-1,A
4000.00,0.0113
3999.00,0.0113
3998.00,0.0113
3997.00,0.0113
3996.00,0.0113
3995.00,0.0113
3994.00,0.0113
3993.00,0.0113
3992.00,0.0113
3991.00,0.0113
3990.00,0.0113
3989.00,0.0113
3988.00,0.0112
3987.00,0.0112
3986.00,0.0112
3985.00,0.0112
3984.00,0.0112
3983.00,0.0111
3982.00,0.0111
3981.00,0.0111
3980.00,0.0111
3979.00,0.0111
3978.00,0.0111
3977.00,0.0111
3976.00,0.0111
3975.00,0.0111
3974.00,0.0111
3973.00,0.0111
3972.00,0.0111
3971.00,0.0111
3970.00,0.0110
3969.00,0.0110
3968.00,0.0110
3967.00,0.0110
3966.00,0.0111
3965.00,0.0111
3964.00,0.0111
3963.00,0.0111
3962.00,0.0111
3961.00,0.0111
3960.00,0.0110
3959.00,0.0110
3958.00,0.0110
3957.00,0.0110
3956.00,0.0110
3955.00,0.0110
3954.00,0.0109
3953.00,0.0109
3952.00,0.0109
3951.00,0.0109
3950.00,0.0109
3949.00,0.0110
3948.00,0.0110
3947.00,0.0110
3946.00,0.0110
3945.00,0.0109
3944.00,0.0109
3943.00,0.0109
3942.00,0.0109
3941.00,0.0109
3940.00,0.0109
3939.00,0.0109
3938.00,0.0108
3937.00,0.0109
3936.00,0.0109
3935.00,0.0109
3934.00,0.0109
3933.00,0.0109
3932.00,0.0109
3931.00,0.0108
3930.00,0.0108
3929.00,0.0108
3928.00,0.0107
3927.00,0.0107
3926.00,0.0107
3925.00,0.0106
3924.00,0.0107
3923.00,0.0107
3922.00,0.0107
3921.00,0.0108
3920.00,0.0108
3919.00,0.0109
3918.00,0.0109
3917.00,0.0109
3916.00,0.0108
3915.00,0.0107
3914.00,0.0107
3913.00,0.0106
3912.00,0.0106
3911.00,0.0106
3910.00,0.0106
3909.00,0.0106
3908.00,0.0106
3907.00,0.0107
3906.00,0.0107
3905.00,0.0108
3904.00,0.0108
3903.00,0.0109
3902.00,0.0109
3901.00,0.0108
3900.00,0.0107
3899.00,0.0107
3898.00,0.0107
3897.00,0.0107
3896.00,0.0107
3895.00,0.0107
3894.00,0.0106
3893.00,0.0105
3892.00,0.0105
3891.00,0.0105
3890.00,0.0106
3889.00,0.0106
3888.00,0.0107
3887.00,0.0107
3886.00,0.0107
3885.00,0.0106
3884.00,0.0106
3883.00,0.0105
3882.00,0.0105
3881.00,0.0104
3880.00,0.0104
3879.00,0.0104
3878.00,0.0105
3877.00,0.0105
3876.00,0.0105
3875.00,0.0104
3874.00,0.0104
3873.00,0.0105
3872.00,0.0105
3871.00,0.0105
3870.00,0.0104
3869.00,0.0104
3868.00,0.0104
3867.00,0.0105
3866.00,0.0105
3865.00,0.0104
3864.00,0.0103
3863.00,0.0103
3862.00,0.0104
3861.00,0.0104
3860.00,0.0104
3859.00,0.0104
3858.00,0.0104
3857.00,0.0104
3856.00,0.0104
3855.00,0.0105
3854.00,0.0104
3853.00,0.0102
3852.00,0.0101
3851.00,0.0101
3850.00,0.0102
3849.00,0.0103
3848.00,0.0103
3847.00,0.0103
3846.00,0.0103
3845.00,0.0102
3844.00,0.0102
3843.00,0.0102
3842.00,0.0103
3841.00,0.0103
3840.00,0.0103
3839.00,0.0102
3838.00,0.0101
3837.00,0.0101
3836.00,0.0100
3835.00,0.0100
3834.00,0.0100
3833.00,0.0101
3832.00,0.0102
3831.00,0.0102
3830.00,0.0102
3829.00,0.0102
3828.00,0.0102
3827.00,0.0101
3826.00,0.0101
3825.00,0.0101
3824.00,0.0102
3823.00,0.0102
3822.00,0.0102
3821.00,0.0101
3820.00,0.0101
3819.00,0.0101
3818.00,0.0100
3817.00,0.0099
3816.00,0.0099
3815.00,0.0098
3814.00,0.0098
3813.00,0.0099
3812.00,0.0099
3811.00,0.0099
3810.00,0.0099
3809.00,0.0099
3808.00,0.0099
3807.00,0.0100
3806.00,0.0100
3805.00,0.0100
3804.00,0.0101
3803.00,0.0100
3802.00,0.0099
3801.00,0.0098
3800.00,0.0098
3799.00,0.0098
3798.00,0.0098
3797.00,0.0098
3796.00,0.0098
3795.00,0.0098
3794.00,0.0098
3793.00,0.0097
3792.00,0.0097
3791.00,0.0096
3790.00,0.0097
3789.00,0.0097
3788.00,0.0097
3787.00,0.0097
3786.00,0.0097
3785.00,0.0096
3784.00,0.0096
3783.00,0.0097
3782.00,0.0097
3781.00,0.0096
3780.00,0.0096
3779.00,0.0095
3778.00,0.0095
3777.00,0.0096
3776.00,0.0096
3775.00,0.0096
3774.00,0.0096
3773.00,0.0096
3772.00,0.0097
3771.00,0.0097
3770.00,0.0097
3769.00,0.0096
3768.00,0.0096
3767.00,0.0095
3766.00,0.0095
3765.00,0.0095
3764.00,0.0096
3763.00,0.0096
3762.00,0.0096
3761.00,0.0096
3760.00,0.0096
3759.00,0.0095
3758.00,0.0095
3757.00,0.0096
3756.00,0.0097
3755.00,0.0097
3754.00,0.0099
3753.00,0.0100
3752.00,0.0101
3751.00,0.0101
3750.00,0.0101
3749.00,0.0100
3748.00,0.0099
3747.00,0.0098
3746.00,0.0097
3745.00,0.0097
3744.00,0.0097
3743.00,0.0097
3742.00,0.0097
3741.00,0.0098
3740.00,0.0098
3739.00,0.0099
3738.00,0.0100
3737.00,0.0100
3736.00,0.0100
3735.00,0.0100
3734.00,0.0099
3733.00,0.0099
3732.00,0.0099
3731.00,0.0099
3730.00,0.0099
3729.00,0.0098
3728.00,0.0098
3727.00,0.0098
3726.00,0.0098
3725.00,0.0097
3724.00,0.0097
3723.00,0.0096
3722.00,0.0096
3721.00,0.0095
3720.00,0.0095
3719.00,0.0095
3718.00,0.0095
3717.00,0.0096
3716.00,0.0097
3715.00,0.0098
3714.00,0.0099
3713.00,0.0099
3712.00,0.0099
3711.00,0.0099
3710.00,0.0099
3709.00,0.0100
3708.00,0.0101
3707.00,0.0102
3706.00,0.0103
3705.00,0.0103
3704.00,0.0103
3703.00,0.0103
3702.00,0.0103
3701.00,0.0104
3700.00,0.0105
3699.00,0.0106
3698.00,0.0106
3697.00,0.0106
3696.00,0.0106
3695.00,0.0106
3694.00,0.0106
3693.00,0.0106
3692.00,0.0106
3691.00,0.0105
3690.00,0.0105
3689.00,0.0104
3688.00,0.0104
3687.00,0.0104
3686.00,0.0104
3685.00,0.0104
3684.00,0.0105
3683.00,0.0105
3682.00,0.0104
3681.00,0.0104
3680.00,0.0103
3679.00,0.0103
3678.00,0.0103
3677.00,0.0104
3676.00,0.0105
3675.00,0.0106
3674.00,0.0108
3673.00,0.0109
3672.00,0.0109
3671.00,0.0109
3670.00,0.0107
3669.00,0.0107
3668.00,0.0107
3667.00,0.0107
3666.00,0.0108
3665.00,0.0108
3664.00,0.0109
3663.00,0.0110
3662.00,0.0111
3661.00,0.0112
3660.00,0.0113
3659.00,0.0114
3658.00,0.0115
3657.00,0.0116
3656.00,0.0117
3655.00,0.0118
3654.00,0.0118
3653.00,0.0118
3652.00,0.0118
3651.00,0.0120
3650.00,0.0122
3649.00,0.0124
3648.00,0.0125
3647.00,0.0125
3646.00,0.0126
3645.00,0.0127
3644.00,0.0127
3643.00,0.0127
3642.00,0.0127
3641.00,0.0128
3640.00,0.0128
3639.00,0.0129
3638.00,0.0130
3637.00,0.0130
3636.00,0.0131
3635.00,0.0132
3634.00,0.0133
3633.00,0.0134
3632.00,0.0134
3631.00,0.0136
3630.00,0.0139
3629.00,0.0142
3628.00,0.0144
3627.00,0.0145
3626.00,0.0145
3625.00,0.0145
3624.00,0.0145
3623.00,0.0144
3622.00,0.0145
3621.00,0.0146
3620.00,0.0147
3619.00,0.0149
3618.00,0.0150
3617.00,0.0150
3616.00,0.0150
3615.00,0.0150
3614.00,0.0150
3613.00,0.0151
3612.00,0.0152
3611.00,0.0154
3610.00,0.0154
3609.00,0.0155
3608.00,0.0155
3607.00,0.0156
3606.00,0.0156
3605.00,0.0156
3604.00,0.0156
3603.00,0.0155
3602.00,0.0155
3601.00,0.0155
3600.00,0.0156
3599.00,0.0157
3598.00,0.0157
3597.00,0.0158
3596.00,0.0159
3595.00,0.0160
3594.00,0.0162
3593.00,0.0162
3592.00,0.0162
3591.00,0.0162
3590.00,0.0161
3589.00,0.0161
3588.00,0.0163
3587.00,0.0164
3586.00,0.0165
3585.00,0.0166
3584.00,0.0166
3583.00,0.0166
3582.00,0.0166
3581.00,0.0166
3580.00,0.0166
3579.00,0.0167
3578.00,0.0167
3577.00,0.0167
3576.00,0.0168
3575.00,0.0168
3574.00,0.0169
3573.00,0.0169
3572.00,0.0169
3571.00,0.0168
3570.00,0.0168
3569.00,0.0169
3568.00,0.0171
3567.00,0.0174
3566.00,0.0177
3565.00,0.0177
3564.00,0.0177
3563.00,0.0176
3562.00,0.0176
3561.00,0.0175
3560.00,0.0176
3559.00,0.0176
3558.00,0.0177
3557.00,0.0177
3556.00,0.0177
3555.00,0.0177
3554.00,0.0178
3553.00,0.0178
3552.00,0.0179
3551.00,0.0180
3550.00,0.0180
3549.00,0.0180
3548.00,0.0181
3547.00,0.0182
3546.00,0.0184
3545.00,0.0185
3544.00,0.0186
3543.00,0.0186
3542.00,0.0186
3541.00,0.0185
3540.00,0.0185
3539.00,0.0185
3538.00,0.0185
3537.00,0.0186
3536.00,0.0187
3535.00,0.0188
3534.00,0.0188
3533.00,0.0189
3532.00,0.0189
3531.00,0.0189
3530.00,0.0189
3529.00,0.0190
3528.00,0.0190
3527.00,0.0191
3526.00,0.0191
3525.00,0.0192
3524.00,0.0192
3523.00,0.0193
3522.00,0.0193
3521.00,0.0194
3520.00,0.0194
3519.00,0.0194
3518.00,0.0195
3517.00,0.0196
3516.00,0.0197
3515.00,0.0197
3514.00,0.0197
3513.00,0.0197
3512.00,0.0196
3511.00,0.0196
3510.00,0.0197
3509.00,0.0198
3508.00,0.0199
3507.00,0.0199
3506.00,0.0199
3505.00,0.0199
3504.00,0.0199
3503.00,0.0200
3502.00,0.0201
3501.00,0.0202
3500.00,0.0203
3499.00,0.0203
3498.00,0.0203
3497.00,0.0204
3496.00,0.0205
3495.00,0.0205
3494.00,0.0205
3493.00,0.0205
3492.00,0.0205
3491.00,0.0204
3490.00,0.0205
3489.00,0.0205
3488.00,0.0206
3487.00,0.0207
3486.00,0.0207
3485.00,0.0208
3484.00,0.0208
3483.00,0.0208
3482.00,0.0208
3481.00,0.0209
3480.00,0.0209
3479.00,0.0210
3478.00,0.0210
3477.00,0.0211
3476.00,0.0211
3475.00,0.0211
3474.00,0.0211
3473.00,0.0211
3472.00,0.0211
3471.00,0.0211
3470.00,0.0211
3469.00,0.0212
3468.00,0.0213
3467.00,0.0213
3466.00,0.0214
3465.00,0.0214
3464.00,0.0214
3463.00,0.0215
3462.00,0.0215
3461.00,0.0216
3460.00,0.0216
3459.00,0.0216
3458.00,0.0215
3457.00,0.0215
3456.00,0.0216
3455.00,0.0216
3454.00,0.0217
3453.00,0.0217
3452.00,0.0218
3451.00,0.0218
3450.00,0.0218
3449.00,0.0218
3448.00,0.0218
3447.00,0.0219
3446.00,0.0220
3445.00,0.0220
3444.00,0.0221
3443.00,0.0221
3442.00,0.0221
3441.00,0.0221
3440.00,0.0221
3439.00,0.0222
3438.00,0.0222
3437.00,0.0223
3436.00,0.0223
3435.00,0.0223
3434.00,0.0223
3433.00,0.0224
3432.00,0.0224
3431.00,0.0225
3430.00,0.0225
3429.00,0.0225
3428.00,0.0224
3427.00,0.0225
3426.00,0.0225
3425.00,0.0225
3424.00,0.0226
3423.00,0.0226
3422.00,0.0226
3421.00,0.0227
3420.00,0.0227
3419.00,0.0227
3418.00,0.0227
3417.00,0.0227
3416.00,0.0228
3415.00,0.0228
3414.00,0.0228
3413.00,0.0228
3412.00,0.0228
3411.00,0.0228
3410.00,0.0228
3409.00,0.0228
3408.00,0.0228
3407.00,0.0229
3406.00,0.0229
3405.00,0.0230
3404.00,0.0230
3403.00,0.0231
3402.00,0.0231
3401.00,0.0231
3400.00,0.0231
3399.00,0.0230
3398.00,0.0230
3397.00,0.0230
3396.00,0.0231
3395.00,0.0232
3394.00,0.0232
3393.00,0.0233
3392.00,0.0233
3391.00,0.0233
3390.00,0.0232
3389.00,0.0232
3388.00,0.0232
3387.00,0.0233
3386.00,0.0233
3385.00,0.0234
3384.00,0.0234
3383.00,0.0233
3382.00,0.0233
3381.00,0.0233
3380.00,0.0234
3379.00,0.0234
3378.00,0.0235
3377.00,0.0235
3376.00,0.0235
3375.00,0.0235
3374.00,0.0235
3373.00,0.0235
3372.00,0.0235
3371.00,0.0234
3370.00,0.0234
3369.00,0.0234
3368.00,0.0235
3367.00,0.0235
3366.00,0.0236
3365.00,0.0236
3364.00,0.0237
3363.00,0.0237
3362.00,0.0237
3361.00,0.0236
3360.00,0.0236
3359.00,0.0236
3358.00,0.0236
3357.00,0.0237
3356.00,0.0237
3355.00,0.0237
3354.00,0.0238
3353.00,0.0238
3352.00,0.0238
3351.00,0.0238
3350.00,0.0238
3349.00,0.0238
3348.00,0.0238
3347.00,0.0238
3346.00,0.0237
3345.00,0.0237
3344.00,0.0237
3343.00,0.0238
3342.00,0.0238
3341.00,0.0238
3340.00,0.0238
3339.00,0.0238
3338.00,0.0238
3337.00,0.0238
3336.00,0.0238
3335.00,0.0238
3334.00,0.0238
3333.00,0.0238
3332.00,0.0238
3331.00,0.0238
3330.00,0.0238
3329.00,0.0238
3328.00,0.0238
3327.00,0.0239
3326.00,0.0239
3325.00,0.0239
3324.00,0.0240
3323.00,0.0240
3322.00,0.0240
3321.00,0.0239
3320.00,0.0239
3319.00,0.0239
3318.00,0.0239
3317.00,0.0239
3316.00,0.0239
3315.00,0.0239
3314.00,0.0239
3313.00,0.0240
3312.00,0.0240
3311.00,0.0240
3310.00,0.0240
3309.00,0.0240
3308.00,0.0241
3307.00,0.0241
3306.00,0.0241
3305.00,0.0240
3304.00,0.0240
3303.00,0.0240
3302.00,0.0240
3301.00,0.0240
3300.00,0.0240
3299.00,0.0241
3298.00,0.0241
3297.00,0.0241
3296.00,0.0241
3295.00,0.0241
3294.00,0.0241
3293.00,0.0241
3292.00,0.0241
3291.00,0.0241
3290.00,0.0241
3289.00,0.0241
3288.00,0.0241
3287.00,0.0241
3286.00,0.0241
3285.00,0.0241
3284.00,0.0241
3283.00,0.0240
3282.00,0.0240
3281.00,0.0240
3280.00,0.0240
3279.00,0.0240
3278.00,0.0241
3277.00,0.0241
3276.00,0.0242
3275.00,0.0242
3274.00,0.0243
3273.00,0.0243
3272.00,0.0243
3271.00,0.0242
3270.00,0.0242
3269.00,0.0241
3268.00,0.0242
3267.00,0.0242
3266.00,0.0242
3265.00,0.0242
3264.00,0.0242
3263.00,0.0241
3262.00,0.0241
3261.00,0.0241
3260.00,0.0242
3259.00,0.0242
3258.00,0.0242
3257.00,0.0242
3256.00,0.0242
3255.00,0.0242
3254.00,0.0243
3253.00,0.0243
3252.00,0.0243
3251.00,0.0242
3250.00,0.0242
3249.00,0.0243
3248.00,0.0243
3247.00,0.0243
3246.00,0.0244
3245.00,0.0244
3244.00,0.0244
3243.00,0.0243
3242.00,0.0243
3241.00,0.0243
3240.00,0.0243
3239.00,0.0243
3238.00,0.0244
3237.00,0.0244
3236.00,0.0244
3235.00,0.0244
3234.00,0.0244
3233.00,0.0244
3232.00,0.0244
3231.00,0.0244
3230.00,0.0245
3229.00,0.0245
3228.00,0.0245
3227.00,0.0245
3226.00,0.0244
3225.00,0.0244
3224.00,0.0244
3223.00,0.0243
3222.00,0.0243
3221.00,0.0243
3220.00,0.0243
3219.00,0.0244
3218.00,0.0244
3217.00,0.0244
3216.00,0.0244
3215.00,0.0244
3214.00,0.0244
3213.00,0.0244
3212.00,0.0243
3211.00,0.0243
3210.00,0.0244
3209.00,0.0244
3208.00,0.0244
3207.00,0.0244
3206.00,0.0243
3205.00,0.0243
3204.00,0.0243
3203.00,0.0243
3202.00,0.0243
3201.00,0.0244
3200.00,0.0244
3199.00,0.0244
3198.00,0.0244
3197.00,0.0245
3196.00,0.0244
3195.00,0.0244
3194.00,0.0244
3193.00,0.0244
3192.00,0.0244
3191.00,0.0244
3190.00,0.0244
3189.00,0.0244
3188.00,0.0244
3187.00,0.0244
3186.00,0.0244
3185.00,0.0244
3184.00,0.0244
3183.00,0.0244
3182.00,0.0243
3181.00,0.0243
3180.00,0.0243
3179.00,0.0243
3178.00,0.0243
3177.00,0.0243
3176.00,0.0243
3175.00,0.0243
3174.00,0.0243
3173.00,0.0243
3172.00,0.0243
3171.00,0.0243
3170.00,0.0243
3169.00,0.0243
3168.00,0.0243
3167.00,0.0243
3166.00,0.0243
3165.00,0.0242
3164.00,0.0242
3163.00,0.0243
3162.00,0.0243
3161.00,0.0243
3160.00,0.0243
3159.00,0.0243
3158.00,0.0242
3157.00,0.0241
3156.00,0.0241
3155.00,0.0241
3154.00,0.0241
3153.00,0.0242
3152.00,0.0242
3151.00,0.0242
3150.00,0.0242
3149.00,0.0242
3148.00,0.0242
3147.00,0.0242
3146.00,0.0242
3145.00,0.0242
3144.00,0.0241
3143.00,0.0241
3142.00,0.0241
3141.00,0.0241
3140.00,0.0241
3139.00,0.0241
3138.00,0.0241
3137.00,0.0241
3136.00,0.0241
3135.00,0.0241
3134.00,0.0241
3133.00,0.0241
3132.00,0.0241
3131.00,0.0241
3130.00,0.0241
3129.00,0.0241
3128.00,0.0241
3127.00,0.0241
3126.00,0.0241
3125.00,0.0240
3124.00,0.0240
3123.00,0.0240
3122.00,0.0240
3121.00,0.0240
3120.00,0.0240
3119.00,0.0241
3118.00,0.0241
3117.00,0.0241
3116.00,0.0241
3115.00,0.0241
3114.00,0.0241
3113.00,0.0240
3112.00,0.0240
3111.00,0.0239
3110.00,0.0239
3109.00,0.0239
3108.00,0.0239
3107.00,0.0239
3106.00,0.0240
3105.00,0.0240
3104.00,0.0240
3103.00,0.0240
3102.00,0.0240
3101.00,0.0239
3100.00,0.0239
3099.00,0.0239
3098.00,0.0238
3097.00,0.0238
3096.00,0.0239
3095.00,0.0239
3094.00,0.0240
3093.00,0.0240
3092.00,0.0240
3091.00,0.0239
3090.00,0.0239
3089.00,0.0239
3088.00,0.0239
3087.00,0.0239
3086.00,0.0239
3085.00,0.0239
3084.00,0.0239
3083.00,0.0239
3082.00,0.0239
3081.00,0.0239
3080.00,0.0239
3079.00,0.0239
3078.00,0.0239
3077.00,0.0238
3076.00,0.0238
3075.00,0.0238
3074.00,0.0238
3073.00,0.0238
3072.00,0.0238
3071.00,0.0238
3070.00,0.0238
3069.00,0.0239
3068.00,0.0239
3067.00,0.0239
3066.00,0.0239
3065.00,0.0239
3064.00,0.0238
3063.00,0.0238
3062.00,0.0237
3061.00,0.0237
3060.00,0.0237
3059.00,0.0237
3058.00,0.0237
3057.00,0.0237
3056.00,0.0237
3055.00,0.0237
3054.00,0.0237
3053.00,0.0237
3052.00,0.0237
3051.00,0.0237
3050.00,0.0236
3049.00,0.0236
3048.00,0.0236
3047.00,0.0236
3046.00,0.0236
3045.00,0.0236
3044.00,0.0236
3043.00,0.0236
3042.00,0.0235
3041.00,0.0235
3040.00,0.0235
3039.00,0.0235
3038.00,0.0235
3037.00,0.0235
3036.00,0.0235
3035.00,0.0235
3034.00,0.0235
3033.00,0.0234
3032.00,0.0234
3031.00,0.0233
3030.00,0.0233
3029.00,0.0233
3028.00,0.0233
3027.00,0.0233
3026.00,0.0233
3025.00,0.0233
3024.00,0.0233
3023.00,0.0232
3022.00,0.0232
3021.00,0.0232
3020.00,0.0232
3019.00,0.0232
3018.00,0.0232
3017.00,0.0232
3016.00,0.0232
3015.00,0.0232
3014.00,0.0232
3013.00,0.0232
3012.00,0.0232
3011.00,0.0232
3010.00,0.0231
3009.00,0.0230
3008.00,0.0230
3007.00,0.0230
3006.00,0.0230
3005.00,0.0230
3004.00,0.0230
3003.00,0.0231
3002.00,0.0231
3001.00,0.0230
3000.00,0.0230
2999.00,0.0230
2998.00,0.0229
2997.00,0.0229
2996.00,0.0228
2995.00,0.0228
2994.00,0.0229
2993.00,0.0229
2992.00,0.0229
2991.00,0.0229
2990.00,0.0228
2989.00,0.0228
2988.00,0.0228
2987.00,0.0228
2986.00,0.0228
2985.00,0.0228
2984.00,0.0227
2983.00,0.0226
2982.00,0.0226
2981.00,0.0225
2980.00,0.0225
2979.00,0.0225
2978.00,0.0225
2977.00,0.0225
2976.00,0.0225
2975.00,0.0225
2974.00,0.0225
2973.00,0.0224
2972.00,0.0224
2971.00,0.0223
2970.00,0.0223
2969.00,0.0222
2968.00,0.0222
2967.00,0.0221
2966.00,0.0221
2965.00,0.0220
2964.00,0.0220
2963.00,0.0219
2962.00,0.0219
2961.00,0.0218
2960.00,0.0218
2959.00,0.0218
2958.00,0.0218
2957.00,0.0218
2956.00,0.0218
2955.00,0.0218
2954.00,0.0218
2953.00,0.0218
2952.00,0.0218
2951.00,0.0218
2950.00,0.0218
2949.00,0.0218
2948.00,0.0218
2947.00,0.0217
2946.00,0.0217
2945.00,0.0217
2944.00,0.0217
2943.00,0.0216
2942.00,0.0216
2941.00,0.0215
2940.00,0.0214
2939.00,0.0214
2938.00,0.0213
2937.00,0.0212
2936.00,0.0211
2935.00,0.0210
2934.00,0.0209
2933.00,0.0208
2932.00,0.0206
2931.00,0.0205
2930.00,0.0203
2929.00,0.0202
2928.00,0.0201
2927.00,0.0200
2926.00,0.0200
2925.00,0.0200
2924.00,0.0200
2923.00,0.0200
2922.00,0.0199
2921.00,0.0199
2920.00,0.0199
2919.00,0.0199
2918.00,0.0199
2917.00,0.0199
2916.00,0.0200
2915.00,0.0201
2914.00,0.0203
2913.00,0.0205
2912.00,0.0206
2911.00,0.0207
2910.00,0.0208
2909.00,0.0209
2908.00,0.0209
2907.00,0.0210
2906.00,0.0210
2905.00,0.0210
2904.00,0.0210
2903.00,0.0211
2902.00,0.0211
2901.00,0.0212
2900.00,0.0212
2899.00,0.0212
2898.00,0.0212
2897.00,0.0212
2896.00,0.0212
2895.00,0.0212
2894.00,0.0212
2893.00,0.0212
2892.00,0.0212
2891.00,0.0212
2890.00,0.0212
2889.00,0.0212
2888.00,0.0212
2887.00,0.0212
2886.00,0.0213
2885.00,0.0212
2884.00,0.0212
2883.00,0.0212
2882.00,0.0212
2881.00,0.0212
2880.00,0.0212
2879.00,0.0212
2878.00,0.0212
2877.00,0.0211
2876.00,0.0211
2875.00,0.0211
2874.00,0.0210
2873.00,0.0210
2872.00,0.0209
2871.00,0.0209
2870.00,0.0208
2869.00,0.0208
2868.00,0.0207
2867.00,0.0207
2866.00,0.0207
2865.00,0.0207
2864.00,0.0207
2863.00,0.0206
2862.00,0.0206
2861.00,0.0205
2860.00,0.0204
2859.00,0.0203
2858.00,0.0202
2857.00,0.0201
2856.00,0.0200
2855.00,0.0199
2854.00,0.0198
2853.00,0.0198
2852.00,0.0198
2851.00,0.0198
2850.00,0.0199
2849.00,0.0200
2848.00,0.0200
2847.00,0.0201
2846.00,0.0202
2845.00,0.0203
2844.00,0.0204
2843.00,0.0205
2842.00,0.0205
2841.00,0.0205
2840.00,0.0206
2839.00,0.0206
2838.00,0.0206
2837.00,0.0206
2836.00,0.0206
2835.00,0.0206
2834.00,0.0206
2833.00,0.0206
2832.00,0.0206
2831.00,0.0206
2830.00,0.0206
2829.00,0.0206
2828.00,0.0206
2827.00,0.0206
2826.00,0.0206
2825.00,0.0206
2824.00,0.0205
2823.00,0.0205
2822.00,0.0205
2821.00,0.0205
2820.00,0.0205
2819.00,0.0205
2818.00,0.0205
2817.00,0.0205
2816.00,0.0205
2815.00,0.0205
2814.00,0.0205
2813.00,0.0205
2812.00,0.0205
2811.00,0.0204
2810.00,0.0204
2809.00,0.0203
2808.00,0.0203
2807.00,0.0202
2806.00,0.0202
2805.00,0.0202
2804.00,0.0202
2803.00,0.0202
2802.00,0.0202
2801.00,0.0202
2800.00,0.0202
2799.00,0.0202
2798.00,0.0202
2797.00,0.0201
2796.00,0.0201
2795.00,0.0200
2794.00,0.0200
2793.00,0.0200
2792.00,0.0200
2791.00,0.0200
2790.00,0.0199
2789.00,0.0199
2788.00,0.0199
2787.00,0.0199
2786.00,0.0199
2785.00,0.0199
2784.00,0.0198
2783.00,0.0198
2782.00,0.0198
2781.00,0.0198
2780.00,0.0198
2779.00,0.0198
2778.00,0.0198
2777.00,0.0198
2776.00,0.0197
2775.00,0.0197
2774.00,0.0197
2773.00,0.0196
2772.00,0.0196
2771.00,0.0196
2770.00,0.0196
2769.00,0.0196
2768.00,0.0196
2767.00,0.0195
2766.00,0.0195
2765.00,0.0195
2764.00,0.0195
2763.00,0.0195
2762.00,0.0194
2761.00,0.0194
2760.00,0.0194
2759.00,0.0193
2758.00,0.0193
2757.00,0.0193
2756.00,0.0193
2755.00,0.0193
2754.00,0.0193
2753.00,0.0193
2752.00,0.0193
2751.00,0.0192
2750.00,0.0192
2749.00,0.0193
2748.00,0.0193
2747.00,0.0193
2746.00,0.0192
2745.00,0.0192
2744.00,0.0191
2743.00,0.0191
2742.00,0.0190
2741.00,0.0190
2740.00,0.0190
2739.00,0.0190
2738.00,0.0190
2737.00,0.0190
2736.00,0.0189
2735.00,0.0189
2734.00,0.0189
2733.00,0.0189
2732.00,0.0189
2731.00,0.0189
2730.00,0.0189
2729.00,0.0189
2728.00,0.0188
2727.00,0.0188
2726.00,0.0187
2725.00,0.0187
2724.00,0.0187
2723.00,0.0187
2722.00,0.0187
2721.00,0.0187
2720.00,0.0187
2719.00,0.0187
2718.00,0.0187
2717.00,0.0187
2716.00,0.0187
2715.00,0.0187
2714.00,0.0186
2713.00,0.0186
2712.00,0.0185
2711.00,0.0185
2710.00,0.0185
2709.00,0.0184
2708.00,0.0184
2707.00,0.0184
2706.00,0.0184
2705.00,0.0184
2704.00,0.0183
2703.00,0.0183
2702.00,0.0183
2701.00,0.0183
2700.00,0.0183
2699.00,0.0183
2698.00,0.0183
2697.00,0.0183
2696.00,0.0182
2695.00,0.0182
2694.00,0.0182
2693.00,0.0182
2692.00,0.0182
2691.00,0.0181
2690.00,0.0181
2689.00,0.0181
2688.00,0.0181
2687.00,0.0181
2686.00,0.0181
2685.00,0.0181
2684.00,0.0181
2683.00,0.0181
2682.00,0.0180
2681.00,0.0180
2680.00,0.0180
2679.00,0.0180
2678.00,0.0179
2677.00,0.0179
2676.00,0.0179
2675.00,0.0179
2674.00,0.0179
2673.00,0.0179
2672.00,0.0179
2671.00,0.0179
2670.00,0.0178
2669.00,0.0178
2668.00,0.0178
2667.00,0.0178
2666.00,0.0179
2665.00,0.0179
2664.00,0.0179
2663.00,0.0179
2662.00,0.0179
2661.00,0.0179
2660.00,0.0179
2659.00,0.0179
2658.00,0.0179
2657.00,0.0179
2656.00,0.0180
2655.00,0.0180
2654.00,0.0181
2653.00,0.0181
2652.00,0.0180
2651.00,0.0180
2650.00,0.0179
2649.00,0.0179
2648.00,0.0179
2647.00,0.0179
2646.00,0.0179
2645.00,0.0179
2644.00,0.0179
2643.00,0.0179
2642.00,0.0179
2641.00,0.0179
2640.00,0.0179
2639.00,0.0178
2638.00,0.0178
2637.00,0.0178
2636.00,0.0178
2635.00,0.0178
2634.00,0.0178
2633.00,0.0178
2632.00,0.0178
2631.00,0.0178
2630.00,0.0178
2629.00,0.0178
2628.00,0.0179
2627.00,0.0178
2626.00,0.0178
2625.00,0.0178
2624.00,0.0178
2623.00,0.0178
2622.00,0.0177
2621.00,0.0177
2620.00,0.0177
2619.00,0.0177
2618.00,0.0176
2617.00,0.0176
2616.00,0.0176
2615.00,0.0176
2614.00,0.0177
2613.00,0.0177
2612.00,0.0177
2611.00,0.0177
2610.00,0.0177
2609.00,0.0177
2608.00,0.0177
2607.00,0.0177
2606.00,0.0177
2605.00,0.0177
2604.00,0.0177
2603.00,0.0176
2602.00,0.0176
2601.00,0.0175
2600.00,0.0175
2599.00,0.0175
2598.00,0.0175
2597.00,0.0175
2596.00,0.0175
2595.00,0.0175
2594.00,0.0175
2593.00,0.0175
2592.00,0.0175
2591.00,0.0176
2590.00,0.0176
2589.00,0.0176
2588.00,0.0176
2587.00,0.0176
2586.00,0.0175
2585.00,0.0175
2584.00,0.0174
2583.00,0.0174
2582.00,0.0174
2581.00,0.0175
2580.00,0.0175
2579.00,0.0175
2578.00,0.0175
2577.00,0.0175
2576.00,0.0175
2575.00,0.0175
2574.00,0.0175
2573.00,0.0175
2572.00,0.0175
2571.00,0.0174
2570.00,0.0174
2569.00,0.0173
2568.00,0.0173
2567.00,0.0173
2566.00,0.0173
2565.00,0.0174
2564.00,0.0174
2563.00,0.0174
2562.00,0.0174
2561.00,0.0174
2560.00,0.0174
2559.00,0.0173
2558.00,0.0173
2557.00,0.0174
2556.00,0.0174
2555.00,0.0174
2554.00,0.0174
2553.00,0.0174
2552.00,0.0174
2551.00,0.0174
2550.00,0.0174
2549.00,0.0174
2548.00,0.0173
2547.00,0.0173
2546.00,0.0172
2545.00,0.0172
2544.00,0.0172
2543.00,0.0172
2542.00,0.0172
2541.00,0.0172
2540.00,0.0172
2539.00,0.0172
2538.00,0.0172
2537.00,0.0172
2536.00,0.0171
2535.00,0.0171
2534.00,0.0170
2533.00,0.0170
2532.00,0.0171
2531.00,0.0171
2530.00,0.0171
2529.00,0.0171
2528.00,0.0171
2527.00,0.0171
2526.00,0.0172
2525.00,0.0172
2524.00,0.0172
2523.00,0.0172
2522.00,0.0172
2521.00,0.0172
2520.00,0.0172
2519.00,0.0171
2518.00,0.0171
2517.00,0.0170
2516.00,0.0171
2515.00,0.0171
2514.00,0.0171
2513.00,0.0172
2512.00,0.0171
2511.00,0.0171
2510.00,0.0170
2509.00,0.0169
2508.00,0.0168
2507.00,0.0168
2506.00,0.0168
2505.00,0.0169
2504.00,0.0170
2503.00,0.0170
2502.00,0.0170
2501.00,0.0170
2500.00,0.0170
2499.00,0.0170
2498.00,0.0170
2497.00,0.0170
2496.00,0.0171
2495.00,0.0171
2494.00,0.0171
2493.00,0.0170
2492.00,0.0170
2491.00,0.0170
2490.00,0.0170
2489.00,0.0169
2488.00,0.0169
2487.00,0.0168
2486.00,0.0168
2485.00,0.0168
2484.00,0.0168
2483.00,0.0168
2482.00,0.0168
2481.00,0.0168
2480.00,0.0168
2479.00,0.0169
2478.00,0.0169
2477.00,0.0169
2476.00,0.0169
2475.00,0.0169
2474.00,0.0169
2473.00,0.0168
2472.00,0.0168
2471.00,0.0168
2470.00,0.0167
2469.00,0.0167
2468.00,0.0167
2467.00,0.0167
2466.00,0.0167
2465.00,0.0167
2464.00,0.0167
2463.00,0.0168
2462.00,0.0168
2461.00,0.0168
2460.00,0.0168
2459.00,0.0168
2458.00,0.0167
2457.00,0.0167
2456.00,0.0167
2455.00,0.0167
2454.00,0.0167
2453.00,0.0167
2452.00,0.0167
2451.00,0.0167
2450.00,0.0167
2449.00,0.0167
2448.00,0.0167
2447.00,0.0167
2446.00,0.0167
2445.00,0.0167
2444.00,0.0167
2443.00,0.0166
2442.00,0.0166
2441.00,0.0166
2440.00,0.0166
2439.00,0.0166
2438.00,0.0165
2437.00,0.0165
2436.00,0.0164
2435.00,0.0164
2434.00,0.0164
2433.00,0.0164
2432.00,0.0164
2431.00,0.0165
2430.00,0.0165
2429.00,0.0164
2428.00,0.0164
2427.00,0.0164
2426.00,0.0164
2425.00,0.0164
2424.00,0.0164
2423.00,0.0164
2422.00,0.0163
2421.00,0.0163
2420.00,0.0163
2419.00,0.0163
2418.00,0.0163
2417.00,0.0163
2416.00,0.0163
2415.00,0.0162
2414.00,0.0162
2413.00,0.0162
2412.00,0.0162
2411.00,0.0161
2410.00,0.0161
2409.00,0.0161
2408.00,0.0160
2407.00,0.0160
2406.00,0.0160
2405.00,0.0160
2404.00,0.0160
2403.00,0.0160
2402.00,0.0160
2401.00,0.0160
2400.00,0.0160
2399.00,0.0159
2398.00,0.0159
2397.00,0.0159
2396.00,0.0160
2395.00,0.0160
2394.00,0.0160
2393.00,0.0159
2392.00,0.0158
2391.00,0.0158
2390.00,0.0158
2389.00,0.0158
2388.00,0.0158
2387.00,0.0158
2386.00,0.0158
2385.00,0.0158
2384.00,0.0159
2383.00,0.0160
2382.00,0.0160
2381.00,0.0159
2380.00,0.0157
2379.00,0.0155
2378.00,0.0154
2377.00,0.0152
2376.00,0.0151
2375.00,0.0151
2374.00,0.0151
2373.00,0.0151
2372.00,0.0152
2371.00,0.0153
2370.00,0.0155
2369.00,0.0157
2368.00,0.0158
2367.00,0.0160
2366.00,0.0160
2365.00,0.0160
2364.00,0.0159
2363.00,0.0159
2362.00,0.0159
2361.00,0.0161
2360.00,0.0163
2359.00,0.0164
2358.00,0.0164
2357.00,0.0163
2356.00,0.0162
2355.00,0.0161
2354.00,0.0160
2353.00,0.0160
2352.00,0.0162
2351.00,0.0164
2350.00,0.0166
2349.00,0.0167
2348.00,0.0165
2347.00,0.0162
2346.00,0.0159
2345.00,0.0159
2344.00,0.0159
2343.00,0.0160
2342.00,0.0160
2341.00,0.0159
2340.00,0.0158
2339.00,0.0157
2338.00,0.0156
2337.00,0.0155
2336.00,0.0154
2335.00,0.0154
2334.00,0.0153
2333.00,0.0153
2332.00,0.0152
2331.00,0.0151
2330.00,0.0152
2329.00,0.0152
2328.00,0.0154
2327.00,0.0155
2326.00,0.0157
2325.00,0.0157
2324.00,0.0156
2323.00,0.0156
2322.00,0.0156
2321.00,0.0155
2320.00,0.0155
2319.00,0.0155
2318.00,0.0155
2317.00,0.0156
2316.00,0.0156
2315.00,0.0155
2314.00,0.0155
2313.00,0.0155
2312.00,0.0155
2311.00,0.0155
2310.00,0.0156
2309.00,0.0156
2308.00,0.0156
2307.00,0.0157
2306.00,0.0157
2305.00,0.0158
2304.00,0.0158
2303.00,0.0157
2302.00,0.0157
2301.00,0.0156
2300.00,0.0155
2299.00,0.0155
2298.00,0.0155
2297.00,0.0155
2296.00,0.0155
2295.00,0.0155
2294.00,0.0155
2293.00,0.0156
2292.00,0.0156
2291.00,0.0156
2290.00,0.0156
2289.00,0.0156
2288.00,0.0155
2287.00,0.0155
2286.00,0.0155
2285.00,0.0155
2284.00,0.0154
2283.00,0.0154
2282.00,0.0154
2281.00,0.0154
2280.00,0.0154
2279.00,0.0154
2278.00,0.0153
2277.00,0.0153
2276.00,0.0152
2275.00,0.0152
2274.00,0.0152
2273.00,0.0152
2272.00,0.0152
2271.00,0.0152
2270.00,0.0152
2269.00,0.0152
2268.00,0.0151
2267.00,0.0151
2266.00,0.0151
2265.00,0.0151
2264.00,0.0151
2263.00,0.0152
2262.00,0.0152
2261.00,0.0152
2260.00,0.0152
2259.00,0.0152
2258.00,0.0151
2257.00,0.0150
2256.00,0.0149
2255.00,0.0149
2254.00,0.0149
2253.00,0.0150
2252.00,0.0150
2251.00,0.0150
2250.00,0.0149
2249.00,0.0148
2248.00,0.0148
2247.00,0.0147
2246.00,0.0147
2245.00,0.0147
2244.00,0.0147
2243.00,0.0147
2242.00,0.0147
2241.00,0.0147
2240.00,0.0147
2239.00,0.0148
2238.00,0.0149
2237.00,0.0149
2236.00,0.0149
2235.00,0.0148
2234.00,0.0148
2233.00,0.0148
2232.00,0.0148
2231.00,0.0148
2230.00,0.0148
2229.00,0.0148
2228.00,0.0148
2227.00,0.0148
2226.00,0.0147
2225.00,0.0146
2224.00,0.0146
2223.00,0.0146
2222.00,0.0146
2221.00,0.0147
2220.00,0.0148
2219.00,0.0148
2218.00,0.0147
2217.00,0.0148
2216.00,0.0148
2215.00,0.0149
2214.00,0.0149
2213.00,0.0148
2212.00,0.0147
2211.00,0.0146
2210.00,0.0145
2209.00,0.0144
2208.00,0.0144
2207.00,0.0144
2206.00,0.0143
2205.00,0.0143
2204.00,0.0144
2203.00,0.0145
2202.00,0.0145
2201.00,0.0146
2200.00,0.0146
2199.00,0.0146
2198.00,0.0147
2197.00,0.0147
2196.00,0.0147
2195.00,0.0146
2194.00,0.0146
2193.00,0.0145
2192.00,0.0144
2191.00,0.0144
2190.00,0.0144
2189.00,0.0145
2188.00,0.0146
2187.00,0.0146
2186.00,0.0147
2185.00,0.0146
2184.00,0.0145
2183.00,0.0143
2182.00,0.0143
2181.00,0.0143
2180.00,0.0144
2179.00,0.0144
2178.00,0.0144
2177.00,0.0143
2176.00,0.0143
2175.00,0.0143
2174.00,0.0145
2173.00,0.0145
2172.00,0.0146
2171.00,0.0145
2170.00,0.0146
2169.00,0.0146
2168.00,0.0147
2167.00,0.0148
2166.00,0.0149
2165.00,0.0151
2164.00,0.0153
2163.00,0.0153
2162.00,0.0152
2161.00,0.0147
2160.00,0.0141
2159.00,0.0135
2158.00,0.0132
2157.00,0.0131
2156.00,0.0131
2155.00,0.0130
2154.00,0.0130
2153.00,0.0131
2152.00,0.0133
2151.00,0.0134
2150.00,0.0134
2149.00,0.0133
2148.00,0.0132
2147.00,0.0131
2146.00,0.0131
2145.00,0.0131
2144.00,0.0131
2143.00,0.0131
2142.00,0.0131
2141.00,0.0131
2140.00,0.0130
2139.00,0.0130
2138.00,0.0129
2137.00,0.0128
2136.00,0.0127
2135.00,0.0126
2134.00,0.0125
2133.00,0.0125
2132.00,0.0124
2131.00,0.0124
2130.00,0.0124
2129.00,0.0125
2128.00,0.0126
2127.00,0.0127
2126.00,0.0127
2125.00,0.0127
2124.00,0.0127
2123.00,0.0127
2122.00,0.0127
2121.00,0.0128
2120.00,0.0128
2119.00,0.0129
2118.00,0.0130
2117.00,0.0130
2116.00,0.0130
2115.00,0.0130
2114.00,0.0130
2113.00,0.0131
2112.00,0.0131
2111.00,0.0131
2110.00,0.0130
2109.00,0.0130
2108.00,0.0129
2107.00,0.0129
2106.00,0.0128
2105.00,0.0127
2104.00,0.0127
2103.00,0.0127
2102.00,0.0127
2101.00,0.0128
2100.00,0.0129
2099.00,0.0129
2098.00,0.0128
2097.00,0.0127
2096.00,0.0126
2095.00,0.0126
2094.00,0.0125
2093.00,0.0126
2092.00,0.0127
2091.00,0.0127
2090.00,0.0127
2089.00,0.0126
2088.00,0.0125
2087.00,0.0125
2086.00,0.0124
2085.00,0.0125
2084.00,0.0125
2083.00,0.0125
2082.00,0.0124
2081.00,0.0124
2080.00,0.0125
2079.00,0.0126
2078.00,0.0127
2077.00,0.0128
2076.00,0.0128
2075.00,0.0127
2074.00,0.0126
2073.00,0.0125
2072.00,0.0125
2071.00,0.0124
2070.00,0.0124
2069.00,0.0125
2068.00,0.0125
2067.00,0.0126
2066.00,0.0126
2065.00,0.0126
2064.00,0.0125
2063.00,0.0124
2062.00,0.0123
2061.00,0.0123
2060.00,0.0122
2059.00,0.0122
2058.00,0.0122
2057.00,0.0121
2056.00,0.0121
2055.00,0.0121
2054.00,0.0122
2053.00,0.0124
2052.00,0.0126
2051.00,0.0128
2050.00,0.0127
2049.00,0.0127
2048.00,0.0126
2047.00,0.0127
2046.00,0.0128
2045.00,0.0129
2044.00,0.0129
2043.00,0.0129
2042.00,0.0128
2041.00,0.0127
2040.00,0.0127
2039.00,0.0127
2038.00,0.0127
2037.00,0.0128
2036.00,0.0130
2035.00,0.0130
2034.00,0.0131
2033.00,0.0130
2032.00,0.0129
2031.00,0.0128
2030.00,0.0127
2029.00,0.0126
2028.00,0.0124
2027.00,0.0121
2026.00,0.0120
2025.00,0.0120
2024.00,0.0120
2023.00,0.0121
2022.00,0.0121
2021.00,0.0122
2020.00,0.0121
2019.00,0.0121
2018.00,0.0122
2017.00,0.0122
2016.00,0.0122
2015.00,0.0122
2014.00,0.0122
2013.00,0.0123
2012.00,0.0124
2011.00,0.0124
2010.00,0.0123
2009.00,0.0121
2008.00,0.0118
2007.00,0.0116
2006.00,0.0115
2005.00,0.0116
2004.00,0.0117
2003.00,0.0118
2002.00,0.0118
2001.00,0.0119
2000.00,0.0119
1999.00,0.0120
1998.00,0.0120
1997.00,0.0119
1996.00,0.0119
1995.00,0.0118
1994.00,0.0117
1993.00,0.0118
1992.00,0.0118
1991.00,0.0119
1990.00,0.0120
1989.00,0.0120
1988.00,0.0119
1987.00,0.0119
1986.00,0.0119
1985.00,0.0121
1984.00,0.0123
1983.00,0.0124
1982.00,0.0126
1981.00,0.0127
1980.00,0.0127
1979.00,0.0124
1978.00,0.0119
1977.00,0.0116
1976.00,0.0113
1975.00,0.0112
1974.00,0.0111
1973.00,0.0111
1972.00,0.0112
1971.00,0.0112
1970.00,0.0112
1969.00,0.0111
1968.00,0.0111
1967.00,0.0111
1966.00,0.0112
1965.00,0.0113
1964.00,0.0114
1963.00,0.0113
1962.00,0.0112
1961.00,0.0110
1960.00,0.0109
1959.00,0.0107
1958.00,0.0106
1957.00,0.0106
1956.00,0.0106
1955.00,0.0106
1954.00,0.0106
1953.00,0.0106
1952.00,0.0105
1951.00,0.0104
1950.00,0.0103
1949.00,0.0103
1948.00,0.0104
1947.00,0.0104
1946.00,0.0105
1945.00,0.0105
1944.00,0.0105
1943.00,0.0104
1942.00,0.0102
1941.00,0.0101
1940.00,0.0100
1939.00,0.0099
1938.00,0.0099
1937.00,0.0100
1936.00,0.0101
1935.00,0.0102
1934.00,0.0103
1933.00,0.0102
1932.00,0.0102
1931.00,0.0100
1930.00,0.0099
1929.00,0.0098
1928.00,0.0098
1927.00,0.0098
1926.00,0.0098
1925.00,0.0099
1924.00,0.0098
1923.00,0.0097
1922.00,0.0096
1921.00,0.0097
1920.00,0.0098
1919.00,0.0098
1918.00,0.0097
1917.00,0.0095
1916.00,0.0094
1915.00,0.0094
1914.00,0.0094
1913.00,0.0094
1912.00,0.0094
1911.00,0.0093
1910.00,0.0092
1909.00,0.0092
1908.00,0.0092
1907.00,0.0093
1906.00,0.0093
1905.00,0.0093
1904.00,0.0092
1903.00,0.0091
1902.00,0.0090
1901.00,0.0090
1900.00,0.0090
1899.00,0.0090
1898.00,0.0091
1897.00,0.0091
1896.00,0.0090
1895.00,0.0088
1894.00,0.0088
1893.00,0.0088
1892.00,0.0089
1891.00,0.0089
1890.00,0.0087
1889.00,0.0086
1888.00,0.0085
1887.00,0.0085
1886.00,0.0086
1885.00,0.0086
1884.00,0.0086
1883.00,0.0085
1882.00,0.0085
1881.00,0.0085
1880.00,0.0085
1879.00,0.0085
1878.00,0.0085
1877.00,0.0084
1876.00,0.0084
1875.00,0.0084
1874.00,0.0084
1873.00,0.0084
1872.00,0.0085
1871.00,0.0085
1870.00,0.0084
1869.00,0.0082
1868.00,0.0080
1867.00,0.0078
1866.00,0.0079
1865.00,0.0080
1864.00,0.0081
1863.00,0.0081
1862.00,0.0081
1861.00,0.0080
1860.00,0.0080
1859.00,0.0079
1858.00,0.0079
1857.00,0.0079
1856.00,0.0078
1855.00,0.0078
1854.00,0.0077
1853.00,0.0077
1852.00,0.0077
1851.00,0.0077
1850.00,0.0077
1849.00,0.0078
1848.00,0.0078
1847.00,0.0079
1846.00,0.0079
1845.00,0.0077
1844.00,0.0074
1843.00,0.0072
1842.00,0.0072
1841.00,0.0073
1840.00,0.0074
1839.00,0.0074
1838.00,0.0074
1837.00,0.0073
1836.00,0.0072
1835.00,0.0072
1834.00,0.0072
1833.00,0.0074
1832.00,0.0074
1831.00,0.0073
1830.00,0.0070
1829.00,0.0067
1828.00,0.0066
1827.00,0.0067
1826.00,0.0067
1825.00,0.0066
1824.00,0.0066
1823.00,0.0066
1822.00,0.0067
1821.00,0.0067
1820.00,0.0068
1819.00,0.0067
1818.00,0.0067
1817.00,0.0066
1816.00,0.0065
1815.00,0.0065
1814.00,0.0066
1813.00,0.0066
1812.00,0.0066
1811.00,0.0064
1810.00,0.0063
1809.00,0.0064
1808.00,0.0064
1807.00,0.0065
1806.00,0.0065
1805.00,0.0066
1804.00,0.0067
1803.00,0.0067
1802.00,0.0066
1801.00,0.0065
1800.00,0.0064
1799.00,0.0065
1798.00,0.0066
1797.00,0.0068
1796.00,0.0070
1795.00,0.0071
1794.00,0.0072
1793.00,0.0071
1792.00,0.0069
1791.00,0.0066
1790.00,0.0067
1789.00,0.0069
1788.00,0.0071
1787.00,0.0073
1786.00,0.0074
1785.00,0.0075
1784.00,0.0076
1783.00,0.0077
1782.00,0.0077
1781.00,0.0077
1780.00,0.0078
1779.00,0.0079
1778.00,0.0080
1777.00,0.0083
1776.00,0.0085
1775.00,0.0088
1774.00,0.0089
1773.00,0.0089
1772.00,0.0087
1771.00,0.0086
1770.00,0.0088
1769.00,0.0091
1768.00,0.0093
1767.00,0.0094
1766.00,0.0096
1765.00,0.0098
1764.00,0.0100
1763.00,0.0101
1762.00,0.0100
1761.00,0.0099
1760.00,0.0101
1759.00,0.0103
1758.00,0.0104
1757.00,0.0105
1756.00,0.0106
1755.00,0.0108
1754.00,0.0111
1753.00,0.0114
1752.00,0.0117
1751.00,0.0118
1750.00,0.0117
1749.00,0.0116
1748.00,0.0116
1747.00,0.0118
1746.00,0.0120
1745.00,0.0122
1744.00,0.0124
1743.00,0.0126
1742.00,0.0128
1741.00,0.0131
1740.00,0.0133
1739.00,0.0134
1738.00,0.0137
1737.00,0.0141
1736.00,0.0145
1735.00,0.0148
1734.00,0.0150
1733.00,0.0149
1732.00,0.0149
1731.00,0.0150
1730.00,0.0152
1729.00,0.0154
1728.00,0.0157
1727.00,0.0160
1726.00,0.0162
1725.00,0.0164
1724.00,0.0165
1723.00,0.0167
1722.00,0.0168
1721.00,0.0170
1720.00,0.0171
1719.00,0.0173
1718.00,0.0174
1717.00,0.0176
1716.00,0.0175
1715.00,0.0175
1714.00,0.0175
1713.00,0.0177
1712.00,0.0178
1711.00,0.0179
1710.00,0.0180
1709.00,0.0181
1708.00,0.0182
1707.00,0.0182
1706.00,0.0182
1705.00,0.0182
1704.00,0.0184
1703.00,0.0186
1702.00,0.0187
1701.00,0.0189
1700.00,0.0189
1699.00,0.0188
1698.00,0.0189
1697.00,0.0189
1696.00,0.0187
1695.00,0.0186
1694.00,0.0187
1693.00,0.0188
1692.00,0.0189
1691.00,0.0189
1690.00,0.0190
1689.00,0.0191
1688.00,0.0192
1687.00,0.0192
1686.00,0.0192
1685.00,0.0189
1684.00,0.0185
1683.00,0.0184
1682.00,0.0187
1681.00,0.0189
1680.00,0.0192
1679.00,0.0193
1678.00,0.0194
1677.00,0.0195
1676.00,0.0196
1675.00,0.0197
1674.00,0.0197
1673.00,0.0198
1672.00,0.0199
1671.00,0.0200
1670.00,0.0200
1669.00,0.0201
1668.00,0.0202
1667.00,0.0204
1666.00,0.0206
1665.00,0.0208
1664.00,0.0208
1663.00,0.0209
1662.00,0.0211
1661.00,0.0213
1660.00,0.0215
1659.00,0.0217
1658.00,0.0218
1657.00,0.0218
1656.00,0.0218
1655.00,0.0219
1654.00,0.0221
1653.00,0.0223
1652.00,0.0224
1651.00,0.0226
1650.00,0.0227
1649.00,0.0227
1648.00,0.0229
1647.00,0.0231
1646.00,0.0233
1645.00,0.0236
1644.00,0.0238
1643.00,0.0240
1642.00,0.0241
1641.00,0.0243
1640.00,0.0244
1639.00,0.0244
1638.00,0.0245
1637.00,0.0246
1636.00,0.0248
1635.00,0.0249
1634.00,0.0252
1633.00,0.0255
1632.00,0.0257
1631.00,0.0258
1630.00,0.0260
1629.00,0.0261
1628.00,0.0263
1627.00,0.0265
1626.00,0.0267
1625.00,0.0269
1624.00,0.0271
1623.00,0.0273
1622.00,0.0275
1621.00,0.0276
1620.00,0.0277
1619.00,0.0278
1618.00,0.0280
1617.00,0.0283
1616.00,0.0285
1615.00,0.0286
1614.00,0.0288
1613.00,0.0289
1612.00,0.0290
1611.00,0.0292
1610.00,0.0293
1609.00,0.0294
1608.00,0.0296
1607.00,0.0297
1606.00,0.0299
1605.00,0.0300
1604.00,0.0301
1603.00,0.0303
1602.00,0.0304
1601.00,0.0305
1600.00,0.0306
1599.00,0.0307
1598.00,0.0308
1597.00,0.0309
1596.00,0.0310
1595.00,0.0311
1594.00,0.0312
1593.00,0.0313
1592.00,0.0314
1591.00,0.0315
1590.00,0.0316
1589.00,0.0317
1588.00,0.0317
1587.00,0.0319
1586.00,0.0319
1585.00,0.0320
1584.00,0.0320
1583.00,0.0321
1582.00,0.0321
1581.00,0.0322
1580.00,0.0322
1579.00,0.0321
1578.00,0.0322
1577.00,0.0323
1576.00,0.0325
1575.00,0.0327
1574.00,0.0326
1573.00,0.0325
1572.00,0.0323
1571.00,0.0323
1570.00,0.0323
1569.00,0.0324
1568.00,0.0324
1567.00,0.0325
1566.00,0.0325
1565.00,0.0325
1564.00,0.0325
1563.00,0.0324
1562.00,0.0321
1561.00,0.0317
1560.00,0.0316
1559.00,0.0323
1558.00,0.0323
1557.00,0.0323
1556.00,0.0323
1555.00,0.0323
1554.00,0.0323
1553.00,0.0322
1552.00,0.0320
1551.00,0.0319
1550.00,0.0318
1549.00,0.0317
1548.00,0.0316
1547.00,0.0315
1546.00,0.0313
1545.00,0.0312
1544.00,0.0310
1543.00,0.0308
1542.00,0.0306
1541.00,0.0304
1540.00,0.0301
1539.00,0.0299
1538.00,0.0300
1537.00,0.0300
1536.00,0.0299
1535.00,0.0297
1534.00,0.0296
1533.00,0.0295
1532.00,0.0294
1531.00,0.0293
1530.00,0.0293
1529.00,0.0292
1528.00,0.0291
1527.00,0.0291
1526.00,0.0290
1525.00,0.0289
1524.00,0.0288
1523.00,0.0286
1522.00,0.0285
1521.00,0.0283
1520.00,0.0280
1519.00,0.0277
1518.00,0.0274
1517.00,0.0273
1516.00,0.0272
1515.00,0.0273
1514.00,0.0273
1513.00,0.0274
1512.00,0.0274
1511.00,0.0273
1510.00,0.0270
1509.00,0.0268
1508.00,0.0268
1507.00,0.0265
1506.00,0.0261
1505.00,0.0261
1504.00,0.0262
1503.00,0.0261
1502.00,0.0260
1501.00,0.0259
1500.00,0.0258
1499.00,0.0257
1498.00,0.0256
1497.00,0.0257
1496.00,0.0257
1495.00,0.0257
1494.00,0.0257
1493.00,0.0257
1492.00,0.0257
1491.00,0.0256
1490.00,0.0255
1489.00,0.0254
1488.00,0.0252
1487.00,0.0251
1486.00,0.0252
1485.00,0.0252
1484.00,0.0253
1483.00,0.0253
1482.00,0.0254
1481.00,0.0254
1480.00,0.0253
1479.00,0.0253
1478.00,0.0252
1477.00,0.0252
1476.00,0.0253
1475.00,0.0255
1474.00,0.0256
1473.00,0.0257
1472.00,0.0256
1471.00,0.0255
1470.00,0.0255
1469.00,0.0255
1468.00,0.0254
1467.00,0.0254
1466.00,0.0254
1465.00,0.0255
1464.00,0.0255
1463.00,0.0256
1462.00,0.0256
1461.00,0.0256
1460.00,0.0256
1459.00,0.0256
1458.00,0.0259
1457.00,0.0261
1456.00,0.0262
1455.00,0.0262
1454.00,0.0262
1453.00,0.0262
1452.00,0.0263
1451.00,0.0264
1450.00,0.0265
1449.00,0.0267
1448.00,0.0268
1447.00,0.0269
1446.00,0.0269
1445.00,0.0269
1444.00,0.0270
1443.00,0.0271
1442.00,0.0271
1441.00,0.0272
1440.00,0.0272
1439.00,0.0273
1438.00,0.0273
1437.00,0.0275
1436.00,0.0277
1435.00,0.0277
1434.00,0.0277
1433.00,0.0278
1432.00,0.0278
1431.00,0.0278
1430.00,0.0279
1429.00,0.0279
1428.00,0.0280
1427.00,0.0281
1426.00,0.0281
1425.00,0.0282
1424.00,0.0282
1423.00,0.0283
1422.00,0.0283
1421.00,0.0283
1420.00,0.0284
1419.00,0.0286
1418.00,0.0286
1417.00,0.0287
1416.00,0.0287
1415.00,0.0288
1414.00,0.0289
1413.00,0.0289
1412.00,0.0290
1411.00,0.0290
1410.00,0.0290
1409.00,0.0290
1408.00,0.0291
1407.00,0.0291
1406.00,0.0291
1405.00,0.0292
1404.00,0.0293
1403.00,0.0294
1402.00,0.0295
1401.00,0.0295
1400.00,0.0296
1399.00,0.0297
1398.00,0.0298
1397.00,0.0299
1396.00,0.0300
1395.00,0.0300
1394.00,0.0301
1393.00,0.0301
1392.00,0.0302
1391.00,0.0303
1390.00,0.0303
1389.00,0.0304
1388.00,0.0305
1387.00,0.0307
1386.00,0.0307
1385.00,0.0308
1384.00,0.0308
1383.00,0.0308
1382.00,0.0308
1381.00,0.0309
1380.00,0.0309
1379.00,0.0310
1378.00,0.0310
1377.00,0.0309
1376.00,0.0309
1375.00,0.0310
1374.00,0.0311
1373.00,0.0311
1372.00,0.0312
1371.00,0.0312
1370.00,0.0312
1369.00,0.0312
1368.00,0.0312
1367.00,0.0313
1366.00,0.0313
1365.00,0.0312
1364.00,0.0312
1363.00,0.0312
1362.00,0.0312
1361.00,0.0312
1360.00,0.0312
1359.00,0.0311
1358.00,0.0311
1357.00,0.0311
1356.00,0.0311
1355.00,0.0310
1354.00,0.0310
1353.00,0.0310
1352.00,0.0309
1351.00,0.0309
1350.00,0.0309
1349.00,0.0309
1348.00,0.0309
1347.00,0.0308
1346.00,0.0308
1345.00,0.0308
1344.00,0.0308
1343.00,0.0308
1342.00,0.0307
1341.00,0.0307
1340.00,0.0307
1339.00,0.0306
1338.00,0.0305
1337.00,0.0304
1336.00,0.0303
1335.00,0.0303
1334.00,0.0303
1333.00,0.0303
1332.00,0.0303
1331.00,0.0302
1330.00,0.0302
1329.00,0.0301
1328.00,0.0301
1327.00,0.0300
1326.00,0.0300
1325.00,0.0299
1324.00,0.0299
1323.00,0.0299
1322.00,0.0299
1321.00,0.0299
1320.00,0.0299
1319.00,0.0299
1318.00,0.0299
1317.00,0.0299
1316.00,0.0299
1315.00,0.0298
1314.00,0.0298
1313.00,0.0298
1312.00,0.0298
1311.00,0.0298
1310.00,0.0298
1309.00,0.0298
1308.00,0.0298
1307.00,0.0298
1306.00,0.0299
1305.00,0.0299
1304.00,0.0298
1303.00,0.0298
1302.00,0.0298
1301.00,0.0298
1300.00,0.0298
1299.00,0.0298
1298.00,0.0298
1297.00,0.0298
1296.00,0.0299
1295.00,0.0300
1294.00,0.0300
1293.00,0.0300
1292.00,0.0300
1291.00,0.0300
1290.00,0.0300
1289.00,0.0300
1288.00,0.0300
1287.00,0.0300
1286.00,0.0301
1285.00,0.0301
1284.00,0.0301
1283.00,0.0301
1282.00,0.0302
1281.00,0.0302
1280.00,0.0303
1279.00,0.0303
1278.00,0.0303
1277.00,0.0303
1276.00,0.0304
1275.00,0.0304
1274.00,0.0304
1273.00,0.0304
1272.00,0.0304
1271.00,0.0304
1270.00,0.0305
1269.00,0.0305
1268.00,0.0305
1267.00,0.0306
1266.00,0.0306
1265.00,0.0306
1264.00,0.0306
1263.00,0.0305
1262.00,0.0305
1261.00,0.0306
1260.00,0.0306
1259.00,0.0307
1258.00,0.0307
1257.00,0.0308
1256.00,0.0308
1255.00,0.0308
1254.00,0.0308
1253.00,0.0308
1252.00,0.0307
1251.00,0.0307
1250.00,0.0306
1249.00,0.0307
1248.00,0.0307
1247.00,0.0307
1246.00,0.0308
1245.00,0.0308
1244.00,0.0308
1243.00,0.0308
1242.00,0.0309
1241.00,0.0309
1240.00,0.0309
1239.00,0.0309
1238.00,0.0308
1237.00,0.0307
1236.00,0.0307
1235.00,0.0307
1234.00,0.0307
1233.00,0.0307
1232.00,0.0307
1231.00,0.0307
1230.00,0.0307
1229.00,0.0307
1228.00,0.0307
1227.00,0.0307
1226.00,0.0307
1225.00,0.0306
1224.00,0.0305
1223.00,0.0305
1222.00,0.0305
1221.00,0.0305
1220.00,0.0305
1219.00,0.0304
1218.00,0.0304
1217.00,0.0303
1216.00,0.0303
1215.00,0.0302
1214.00,0.0302
1213.00,0.0301
1212.00,0.0301
1211.00,0.0301
1210.00,0.0301
1209.00,0.0301
1208.00,0.0300
1207.00,0.0300
1206.00,0.0300
1205.00,0.0300
1204.00,0.0301
1203.00,0.0301
1202.00,0.0300
1201.00,0.0300
1200.00,0.0299
1199.00,0.0299
1198.00,0.0298
1197.00,0.0298
1196.00,0.0297
1195.00,0.0297
1194.00,0.0296
1193.00,0.0296
1192.00,0.0296
1191.00,0.0296
1190.00,0.0295
1189.00,0.0295
1188.00,0.0294
1187.00,0.0294
1186.00,0.0294
1185.00,0.0294
1184.00,0.0294
1183.00,0.0294
1182.00,0.0294
1181.00,0.0294
1180.00,0.0294
1179.00,0.0294
1178.00,0.0294
1177.00,0.0294
1176.00,0.0294
1175.00,0.0293
1174.00,0.0292
1173.00,0.0290
1172.00,0.0289
1171.00,0.0289
1170.00,0.0289
1169.00,0.0289
1168.00,0.0289
1167.00,0.0290
1166.00,0.0290
1165.00,0.0289
1164.00,0.0289
1163.00,0.0288
1162.00,0.0288
1161.00,0.0288
1160.00,0.0287
1159.00,0.0286
1158.00,0.0285
1157.00,0.0285
1156.00,0.0285
1155.00,0.0285
1154.00,0.0285
1153.00,0.0285
1152.00,0.0285
1151.00,0.0285
1150.00,0.0285
1149.00,0.0285
1148.00,0.0284
1147.00,0.0284
1146.00,0.0283
1145.00,0.0283
1144.00,0.0283
1143.00,0.0283
1142.00,0.0283
1141.00,0.0283
1140.00,0.0283
1139.00,0.0283
1138.00,0.0283
1137.00,0.0283
1136.00,0.0283
1135.00,0.0283
1134.00,0.0283
1133.00,0.0283
1132.00,0.0283
1131.00,0.0283
1130.00,0.0283
1129.00,0.0283
1128.00,0.0284
1127.00,0.0284
1126.00,0.0284
1125.00,0.0284
1124.00,0.0284
1123.00,0.0285
1122.00,0.0286
1121.00,0.0287
1120.00,0.0288
1119.00,0.0289
1118.00,0.0289
1117.00,0.0290
1116.00,0.0292
1115.00,0.0292
1114.00,0.0292
1113.00,0.0292
1112.00,0.0292
1111.00,0.0293
1110.00,0.0293
1109.00,0.0292
1108.00,0.0292
1107.00,0.0292
1106.00,0.0293
1105.00,0.0293
1104.00,0.0294
1103.00,0.0295
1102.00,0.0296
1101.00,0.0297
1100.00,0.0298
1099.00,0.0298
1098.00,0.0297
1097.00,0.0297
1096.00,0.0298
1095.00,0.0298
1094.00,0.0298
1093.00,0.0299
1092.00,0.0300
1091.00,0.0301
1090.00,0.0301
1089.00,0.0302
1088.00,0.0302
1087.00,0.0302
1086.00,0.0301
1085.00,0.0300
1084.00,0.0299
1083.00,0.0299
1082.00,0.0300
1081.00,0.0300
1080.00,0.0300
1079.00,0.0301
1078.00,0.0302
1077.00,0.0302
1076.00,0.0303
1075.00,0.0304
1074.00,0.0305
1073.00,0.0306
1072.00,0.0306
1071.00,0.0306
1070.00,0.0305
1069.00,0.0305
1068.00,0.0306
1067.00,0.0306
1066.00,0.0307
1065.00,0.0308
1064.00,0.0309
1063.00,0.0310
1062.00,0.0310
1061.00,0.0310
1060.00,0.0310
1059.00,0.0310
1058.00,0.0309
1057.00,0.0309
1056.00,0.0309
1055.00,0.0311
1054.00,0.0312
1053.00,0.0314
1052.00,0.0316
1051.00,0.0318
1050.00,0.0319
1049.00,0.0320
1048.00,0.0320
1047.00,0.0320
1046.00,0.0318
1045.00,0.0317
1044.00,0.0317
1043.00,0.0317
1042.00,0.0318
1041.00,0.0319
1040.00,0.0321
1039.00,0.0323
1038.00,0.0324
1037.00,0.0325
1036.00,0.0326
1035.00,0.0326
1034.00,0.0326
1033.00,0.0325
1032.00,0.0325
1031.00,0.0324
1030.00,0.0324
1029.00,0.0324
1028.00,0.0323
1027.00,0.0322
1026.00,0.0321
1025.00,0.0319
1024.00,0.0318
1023.00,0.0317
1022.00,0.0317
1021.00,0.0317
1020.00,0.0317
1019.00,0.0316
1018.00,0.0315
1017.00,0.0315
1016.00,0.0316
1015.00,0.0316
1014.00,0.0317
1013.00,0.0318
1012.00,0.0319
1011.00,0.0319
1010.00,0.0319
1009.00,0.0319
1008.00,0.0319
1007.00,0.0319
1006.00,0.0318
1005.00,0.0318
1004.00,0.0317
1003.00,0.0317
1002.00,0.0317
1001.00,0.0317
1000.00,0.0316
999.00,0.0315
998.00,0.0314
997.00,0.0313
996.00,0.0311
995.00,0.0310
994.00,0.0308
993.00,0.0308
992.00,0.0308
991.00,0.0308
990.00,0.0307
989.00,0.0306
988.00,0.0305
987.00,0.0305
986.00,0.0305
985.00,0.0304
984.00,0.0304
983.00,0.0304
982.00,0.0303
981.00,0.0302
980.00,0.0302
979.00,0.0302
978.00,0.0302
977.00,0.0301
976.00,0.0301
975.00,0.0301
974.00,0.0300
973.00,0.0300
972.00,0.0299
971.00,0.0298
970.00,0.0297
969.00,0.0296
968.00,0.0296
967.00,0.0295
966.00,0.0295
965.00,0.0295
964.00,0.0295
963.00,0.0295
962.00,0.0295
961.00,0.0296
960.00,0.0296
959.00,0.0297
958.00,0.0296
957.00,0.0296
956.00,0.0295
955.00,0.0294
954.00,0.0294
953.00,0.0293
952.00,0.0293
951.00,0.0293
950.00,0.0293
949.00,0.0294
948.00,0.0295
947.00,0.0296
946.00,0.0296
945.00,0.0297
944.00,0.0297
943.00,0.0297
942.00,0.0298
941.00,0.0298
940.00,0.0299
939.00,0.0300
938.00,0.0300
937.00,0.0300
936.00,0.0300
935.00,0.0301
934.00,0.0301
933.00,0.0302
932.00,0.0301
931.00,0.0300
930.00,0.0300
929.00,0.0299
928.00,0.0299
927.00,0.0300
926.00,0.0301
925.00,0.0302
924.00,0.0303
923.00,0.0303
922.00,0.0304
921.00,0.0304
920.00,0.0305
919.00,0.0307
918.00,0.0309
917.00,0.0310
916.00,0.0311
915.00,0.0311
914.00,0.0311
913.00,0.0311
912.00,0.0312
911.00,0.0312
910.00,0.0312
909.00,0.0313
908.00,0.0313
907.00,0.0313
906.00,0.0313
905.00,0.0313
904.00,0.0313
903.00,0.0313
902.00,0.0313
901.00,0.0312
900.00,0.0311
899.00,0.0312
898.00,0.0312
897.00,0.0313
896.00,0.0313
895.00,0.0312
894.00,0.0311
893.00,0.0310
892.00,0.0309
891.00,0.0308
890.00,0.0308
889.00,0.0308
888.00,0.0308
887.00,0.0308
886.00,0.0307
885.00,0.0306
884.00,0.0306
883.00,0.0306
882.00,0.0307
881.00,0.0308
880.00,0.0309
879.00,0.0309
878.00,0.0308
877.00,0.0308
876.00,0.0308
875.00,0.0307
874.00,0.0307
873.00,0.0307
872.00,0.0308
871.00,0.0309
870.00,0.0309
869.00,0.0309
868.00,0.0308
867.00,0.0308
866.00,0.0307
865.00,0.0306
864.00,0.0305
863.00,0.0306
862.00,0.0307
861.00,0.0308
860.00,0.0308
859.00,0.0309
858.00,0.0309
857.00,0.0308
856.00,0.0308
855.00,0.0307
854.00,0.0306
853.00,0.0305
852.00,0.0304
851.00,0.0304
850.00,0.0305
849.00,0.0307
848.00,0.0309
847.00,0.0310
846.00,0.0310
845.00,0.0310
844.00,0.0311
843.00,0.0311
842.00,0.0310
841.00,0.0309
840.00,0.0309
839.00,0.0311
838.00,0.0312
837.00,0.0314
836.00,0.0314
835.00,0.0314
834.00,0.0313
833.00,0.0313
832.00,0.0313
831.00,0.0315
830.00,0.0317
829.00,0.0319
828.00,0.0320
827.00,0.0319
826.00,0.0317
825.00,0.0316
824.00,0.0317
823.00,0.0319
822.00,0.0321
821.00,0.0323
820.00,0.0323
819.00,0.0323
818.00,0.0323
817.00,0.0324
816.00,0.0325
815.00,0.0326
814.00,0.0327
813.00,0.0326
812.00,0.0326
811.00,0.0325
810.00,0.0325
809.00,0.0326
808.00,0.0327
807.00,0.0329
806.00,0.0329
805.00,0.0329
804.00,0.0329
803.00,0.0329
802.00,0.0330
801.00,0.0331
800.00,0.0332
799.00,0.0333
798.00,0.0333
797.00,0.0333
796.00,0.0333
795.00,0.0333
794.00,0.0333
793.00,0.0333
792.00,0.0334
791.00,0.0334
790.00,0.0335
789.00,0.0335
788.00,0.0335
787.00,0.0335
786.00,0.0335
785.00,0.0335
784.00,0.0335
783.00,0.0335
782.00,0.0336
781.00,0.0337
780.00,0.0339
779.00,0.0341
778.00,0.0342
777.00,0.0341
776.00,0.0341
775.00,0.0341
774.00,0.0342
773.00,0.0342
772.00,0.0341
771.00,0.0340
770.00,0.0340
769.00,0.0341
768.00,0.0343
767.00,0.0345
766.00,0.0346
765.00,0.0345
764.00,0.0344
763.00,0.0342
762.00,0.0342
761.00,0.0344
760.00,0.0346
759.00,0.0348
758.00,0.0350
757.00,0.0350
756.00,0.0351
755.00,0.0351
754.00,0.0350
753.00,0.0348
752.00,0.0347
751.00,0.0348
750.00,0.0349
749.00,0.0350
748.00,0.0351
747.00,0.0353
746.00,0.0353
745.00,0.0353
744.00,0.0353
743.00,0.0353
742.00,0.0353
741.00,0.0352
740.00,0.0351
739.00,0.0350
738.00,0.0351
737.00,0.0352
736.00,0.0353
735.00,0.0354
734.00,0.0354
733.00,0.0354
732.00,0.0354
731.00,0.0355
730.00,0.0356
729.00,0.0356
728.00,0.0357
727.00,0.0357
726.00,0.0356
725.00,0.0355
724.00,0.0354
723.00,0.0355
722.00,0.0356
721.00,0.0359
720.00,0.0361
719.00,0.0362
718.00,0.0363
717.00,0.0364
716.00,0.0364
715.00,0.0363
714.00,0.0362
713.00,0.0362
712.00,0.0362
711.00,0.0363
710.00,0.0363
709.00,0.0364
708.00,0.0367
707.00,0.0369
706.00,0.0371
705.00,0.0372
704.00,0.0372
703.00,0.0374
702.00,0.0375
701.00,0.0376
700.00,0.0377
699.00,0.0377
698.00,0.0376
697.00,0.0376
696.00,0.0376
695.00,0.0376
694.00,0.0377
693.00,0.0378
692.00,0.0380
691.00,0.0383
690.00,0.0385
689.00,0.0387
688.00,0.0387
687.00,0.0388
686.00,0.0390
685.00,0.0392
684.00,0.0393
683.00,0.0392
682.00,0.0391
681.00,0.0391
680.00,0.0393
679.00,0.0394
678.00,0.0394
677.00,0.0394
676.00,0.0395
675.00,0.0397
674.00,0.0400
673.00,0.0401
672.00,0.0401
671.00,0.0396
670.00,0.0387
669.00,0.0377
668.00,0.0374
667.00,0.0380
666.00,0.0390
665.00,0.0399
664.00,0.0403
663.00,0.0405
662.00,0.0406
661.00,0.0405
660.00,0.0403
659.00,0.0400
658.00,0.0398
657.00,0.0405
656.00,0.0407
655.00,0.0410
654.00,0.0414
653.00,0.0418
652.00,0.0419
651.00,0.0418
650.00,0.0415
