Created as New Dataset,Monday, April 03 2023
cm-1,A
4000.00,0.0215
3999.00,0.0215
3998.00,0.0215
3997.00,0.0215
3996.00,0.0215
3995.00,0.0215
3994.00,0.0215
3993.00,0.0215
3992.00,0.0215
3991.00,0.0215
3990.00,0.0215
3989.00,0.0215
3988.00,0.0214
3987.00,0.0214
3986.00,0.0214
3985.00,0.0214
3984.00,0.0214
3983.00,0.0214
3982.00,0.0214
3981.00,0.0214
3980.00,0.0214
3979.00,0.0214
3978.00,0.0215
3977.00,0.0215
3976.00,0.0214
3975.00,0.0214
3974.00,0.0213
3973.00,0.0213
3972.00,0.0213
3971.00,0.0213
3970.00,0.0213
3969.00,0.0213
3968.00,0.0213
3967.00,0.0213
3966.00,0.0213
3965.00,0.0213
3964.00,0.0213
3963.00,0.0213
3962.00,0.0213
3961.00,0.0213
3960.00,0.0213
3959.00,0.0213
3958.00,0.0213
3957.00,0.0213
3956.00,0.0213
3955.00,0.0213
3954.00,0.0212
3953.00,0.0212
3952.00,0.0212
3951.00,0.0212
3950.00,0.0212
3949.00,0.0212
3948.00,0.0212
3947.00,0.0211
3946.00,0.0211
3945.00,0.0211
3944.00,0.0211
3943.00,0.0211
3942.00,0.0211
3941.00,0.0211
3940.00,0.0211
3939.00,0.0212
3938.00,0.0212
3937.00,0.0212
3936.00,0.0212
3935.00,0.0212
3934.00,0.0213
3933.00,0.0212
3932.00,0.0212
3931.00,0.0211
3930.00,0.0210
3929.00,0.0210
3928.00,0.0210
3927.00,0.0211
3926.00,0.0211
3925.00,0.0211
3924.00,0.0210
3923.00,0.0209
3922.00,0.0209
3921.00,0.0210
3920.00,0.0210
3919.00,0.0210
3918.00,0.0210
3917.00,0.0210
3916.00,0.0209
3915.00,0.0209
3914.00,0.0210
3913.00,0.0210
3912.00,0.0211
3911.00,0.0211
3910.00,0.0211
3909.00,0.0210
3908.00,0.0209
3907.00,0.0207
3906.00,0.0206
3905.00,0.0205
3904.00,0.0205
3903.00,0.0204
3902.00,0.0205
3901.00,0.0206
3900.00,0.0207
3899.00,0.0207
3898.00,0.0207
3897.00,0.0207
3896.00,0.0208
3895.00,0.0208
3894.00,0.0208
3893.00,0.0208
3892.00,0.0208
3891.00,0.0207
3890.00,0.0206
3889.00,0.0206
3888.00,0.0207
3887.00,0.0209
3886.00,0.0209
3885.00,0.0207
3884.00,0.0206
3883.00,0.0206
3882.00,0.0207
3881.00,0.0207
3880.00,0.0206
3879.00,0.0205
3878.00,0.0205
3877.00,0.0206
3876.00,0.0206
3875.00,0.0205
3874.00,0.0204
3873.00,0.0202
3872.00,0.0203
3871.00,0.0204
3870.00,0.0204
3869.00,0.0203
3868.00,0.0202
3867.00,0.0204
3866.00,0.0205
3865.00,0.0204
3864.00,0.0204
3863.00,0.0204
3862.00,0.0204
3861.00,0.0205
3860.00,0.0205
3859.00,0.0204
3858.00,0.0202
3857.00,0.0200
3856.00,0.0197
3855.00,0.0198
3854.00,0.0201
3853.00,0.0202
3852.00,0.0200
3851.00,0.0200
3850.00,0.0203
3849.00,0.0206
3848.00,0.0206
3847.00,0.0206
3846.00,0.0205
3845.00,0.0204
3844.00,0.0203
3843.00,0.0202
3842.00,0.0200
3841.00,0.0199
3840.00,0.0199
3839.00,0.0200
3838.00,0.0200
3837.00,0.0200
3836.00,0.0200
3835.00,0.0201
3834.00,0.0202
3833.00,0.0203
3832.00,0.0204
3831.00,0.0204
3830.00,0.0204
3829.00,0.0204
3828.00,0.0204
3827.00,0.0204
3826.00,0.0202
3825.00,0.0200
3824.00,0.0199
3823.00,0.0199
3822.00,0.0200
3821.00,0.0199
3820.00,0.0198
3819.00,0.0198
3818.00,0.0200
3817.00,0.0203
3816.00,0.0203
3815.00,0.0202
3814.00,0.0202
3813.00,0.0203
3812.00,0.0204
3811.00,0.0203
3810.00,0.0201
3809.00,0.0201
3808.00,0.0202
3807.00,0.0202
3806.00,0.0200
3805.00,0.0199
3804.00,0.0199
3803.00,0.0200
3802.00,0.0201
3801.00,0.0200
3800.00,0.0199
3799.00,0.0200
3798.00,0.0201
3797.00,0.0202
3796.00,0.0202
3795.00,0.0201
3794.00,0.0202
3793.00,0.0202
3792.00,0.0202
3791.00,0.0202
3790.00,0.0202
3789.00,0.0202
3788.00,0.0203
3787.00,0.0203
3786.00,0.0203
3785.00,0.0202
3784.00,0.0201
3783.00,0.0200
3782.00,0.0200
3781.00,0.0200
3780.00,0.0200
3779.00,0.0200
3778.00,0.0199
3777.00,0.0200
3776.00,0.0201
3775.00,0.0201
3774.00,0.0200
3773.00,0.0199
3772.00,0.0199
3771.00,0.0199
3770.00,0.0199
3769.00,0.0198
3768.00,0.0198
3767.00,0.0198
3766.00,0.0199
3765.00,0.0199
3764.00,0.0198
3763.00,0.0198
3762.00,0.0198
3761.00,0.0198
3760.00,0.0197
3759.00,0.0196
3758.00,0.0195
3757.00,0.0194
3756.00,0.0193
3755.00,0.0192
3754.00,0.0191
3753.00,0.0190
3752.00,0.0191
3751.00,0.0192
3750.00,0.0192
3749.00,0.0191
3748.00,0.0190
3747.00,0.0190
3746.00,0.0192
3745.00,0.0194
3744.00,0.0193
3743.00,0.0191
3742.00,0.0191
3741.00,0.0193
3740.00,0.0194
3739.00,0.0192
3738.00,0.0190
3737.00,0.0190
3736.00,0.0189
3735.00,0.0189
3734.00,0.0188
3733.00,0.0189
3732.00,0.0190
3731.00,0.0190
3730.00,0.0192
3729.00,0.0193
3728.00,0.0194
3727.00,0.0194
3726.00,0.0192
3725.00,0.0191
3724.00,0.0191
3723.00,0.0191
3722.00,0.0191
3721.00,0.0191
3720.00,0.0192
3719.00,0.0192
3718.00,0.0193
3717.00,0.0192
3716.00,0.0192
3715.00,0.0191
3714.00,0.0189
3713.00,0.0189
3712.00,0.0189
3711.00,0.0190
3710.00,0.0191
3709.00,0.0192
3708.00,0.0194
3707.00,0.0195
3706.00,0.0195
3705.00,0.0195
3704.00,0.0195
3703.00,0.0195
3702.00,0.0195
3701.00,0.0195
3700.00,0.0195
3699.00,0.0196
3698.00,0.0197
3697.00,0.0197
3696.00,0.0196
3695.00,0.0195
3694.00,0.0193
3693.00,0.0192
3692.00,0.0190
3691.00,0.0189
3690.00,0.0191
3689.00,0.0193
3688.00,0.0193
3687.00,0.0193
3686.00,0.0195
3685.00,0.0196
3684.00,0.0197
3683.00,0.0197
3682.00,0.0197
3681.00,0.0196
3680.00,0.0193
3679.00,0.0190
3678.00,0.0188
3677.00,0.0189
3676.00,0.0192
3675.00,0.0193
3674.00,0.0192
3673.00,0.0193
3672.00,0.0196
3671.00,0.0198
3670.00,0.0198
3669.00,0.0198
3668.00,0.0198
3667.00,0.0200
3666.00,0.0203
3665.00,0.0204
3664.00,0.0205
3663.00,0.0206
3662.00,0.0207
3661.00,0.0207
3660.00,0.0207
3659.00,0.0207
3658.00,0.0208
3657.00,0.0210
3656.00,0.0210
3655.00,0.0210
3654.00,0.0208
3653.00,0.0207
3652.00,0.0206
3651.00,0.0205
3650.00,0.0208
3649.00,0.0212
3648.00,0.0214
3647.00,0.0215
3646.00,0.0217
3645.00,0.0219
3644.00,0.0222
3643.00,0.0224
3642.00,0.0225
3641.00,0.0226
3640.00,0.0227
3639.00,0.0228
3638.00,0.0228
3637.00,0.0229
3636.00,0.0229
3635.00,0.0230
3634.00,0.0230
3633.00,0.0229
3632.00,0.0228
3631.00,0.0228
3630.00,0.0231
3629.00,0.0235
3628.00,0.0237
3627.00,0.0237
3626.00,0.0239
3625.00,0.0241
3624.00,0.0242
3623.00,0.0241
3622.00,0.0240
3621.00,0.0241
3620.00,0.0243
3619.00,0.0245
3618.00,0.0246
3617.00,0.0246
3616.00,0.0246
3615.00,0.0247
3614.00,0.0247
3613.00,0.0248
3612.00,0.0248
3611.00,0.0248
3610.00,0.0250
3609.00,0.0252
3608.00,0.0255
3607.00,0.0256
3606.00,0.0258
3605.00,0.0259
3604.00,0.0259
3603.00,0.0259
3602.00,0.0259
3601.00,0.0260
3600.00,0.0260
3599.00,0.0260
3598.00,0.0260
3597.00,0.0260
3596.00,0.0261
3595.00,0.0263
3594.00,0.0265
3593.00,0.0265
3592.00,0.0265
3591.00,0.0265
3590.00,0.0265
3589.00,0.0265
3588.00,0.0267
3587.00,0.0268
3586.00,0.0269
3585.00,0.0270
3584.00,0.0271
3583.00,0.0272
3582.00,0.0274
3581.00,0.0275
3580.00,0.0276
3579.00,0.0276
3578.00,0.0277
3577.00,0.0277
3576.00,0.0278
3575.00,0.0279
3574.00,0.0279
3573.00,0.0279
3572.00,0.0278
3571.00,0.0276
3570.00,0.0275
3569.00,0.0276
3568.00,0.0278
3567.00,0.0281
3566.00,0.0283
3565.00,0.0284
3564.00,0.0284
3563.00,0.0285
3562.00,0.0285
3561.00,0.0286
3560.00,0.0287
3559.00,0.0288
3558.00,0.0289
3557.00,0.0289
3556.00,0.0289
3555.00,0.0289
3554.00,0.0290
3553.00,0.0291
3552.00,0.0292
3551.00,0.0293
3550.00,0.0293
3549.00,0.0293
3548.00,0.0294
3547.00,0.0295
3546.00,0.0296
3545.00,0.0297
3544.00,0.0298
3543.00,0.0298
3542.00,0.0299
3541.00,0.0299
3540.00,0.0299
3539.00,0.0300
3538.00,0.0301
3537.00,0.0302
3536.00,0.0303
3535.00,0.0303
3534.00,0.0304
3533.00,0.0303
3532.00,0.0303
3531.00,0.0302
3530.00,0.0302
3529.00,0.0303
3528.00,0.0304
3527.00,0.0305
3526.00,0.0306
3525.00,0.0307
3524.00,0.0308
3523.00,0.0308
3522.00,0.0309
3521.00,0.0309
3520.00,0.0309
3519.00,0.0310
3518.00,0.0310
3517.00,0.0311
3516.00,0.0312
3515.00,0.0312
3514.00,0.0312
3513.00,0.0312
3512.00,0.0312
3511.00,0.0312
3510.00,0.0314
3509.00,0.0315
3508.00,0.0315
3507.00,0.0315
3506.00,0.0314
3505.00,0.0314
3504.00,0.0316
3503.00,0.0317
3502.00,0.0319
3501.00,0.0319
3500.00,0.0319
3499.00,0.0319
3498.00,0.0320
3497.00,0.0321
3496.00,0.0322
3495.00,0.0323
3494.00,0.0324
3493.00,0.0324
3492.00,0.0324
3491.00,0.0324
3490.00,0.0324
3489.00,0.0324
3488.00,0.0325
3487.00,0.0325
3486.00,0.0326
3485.00,0.0326
3484.00,0.0326
3483.00,0.0326
3482.00,0.0326
3481.00,0.0327
3480.00,0.0328
3479.00,0.0328
3478.00,0.0329
3477.00,0.0330
3476.00,0.0330
3475.00,0.0331
3474.00,0.0331
3473.00,0.0332
3472.00,0.0332
3471.00,0.0332
3470.00,0.0333
3469.00,0.0333
3468.00,0.0333
3467.00,0.0333
3466.00,0.0334
3465.00,0.0334
3464.00,0.0335
3463.00,0.0335
3462.00,0.0336
3461.00,0.0336
3460.00,0.0336
3459.00,0.0336
3458.00,0.0336
3457.00,0.0337
3456.00,0.0337
3455.00,0.0338
3454.00,0.0338
3453.00,0.0339
3452.00,0.0339
3451.00,0.0339
3450.00,0.0340
3449.00,0.0340
3448.00,0.0341
3447.00,0.0342
3446.00,0.0342
3445.00,0.0343
3444.00,0.0343
3443.00,0.0343
3442.00,0.0344
3441.00,0.0344
3440.00,0.0344
3439.00,0.0345
3438.00,0.0345
3437.00,0.0346
3436.00,0.0346
3435.00,0.0347
3434.00,0.0347
3433.00,0.0347
3432.00,0.0348
3431.00,0.0348
3430.00,0.0348
3429.00,0.0348
3428.00,0.0348
3427.00,0.0348
3426.00,0.0348
3425.00,0.0348
3424.00,0.0349
3423.00,0.0349
3422.00,0.0350
3421.00,0.0351
3420.00,0.0351
3419.00,0.0352
3418.00,0.0352
3417.00,0.0351
3416.00,0.0351
3415.00,0.0351
3414.00,0.0352
3413.00,0.0352
3412.00,0.0352
3411.00,0.0352
3410.00,0.0352
3409.00,0.0352
3408.00,0.0353
3407.00,0.0354
3406.00,0.0354
3405.00,0.0354
3404.00,0.0355
3403.00,0.0355
3402.00,0.0356
3401.00,0.0356
3400.00,0.0356
3399.00,0.0356
3398.00,0.0356
3397.00,0.0356
3396.00,0.0356
3395.00,0.0357
3394.00,0.0358
3393.00,0.0358
3392.00,0.0358
3391.00,0.0358
3390.00,0.0358
3389.00,0.0358
3388.00,0.0358
3387.00,0.0359
3386.00,0.0359
3385.00,0.0359
3384.00,0.0359
3383.00,0.0359
3382.00,0.0359
3381.00,0.0360
3380.00,0.0360
3379.00,0.0361
3378.00,0.0361
3377.00,0.0361
3376.00,0.0361
3375.00,0.0361
3374.00,0.0361
3373.00,0.0361
3372.00,0.0361
3371.00,0.0361
3370.00,0.0361
3369.00,0.0361
3368.00,0.0361
3367.00,0.0361
3366.00,0.0362
3365.00,0.0362
3364.00,0.0363
3363.00,0.0363
3362.00,0.0363
3361.00,0.0363
3360.00,0.0363
3359.00,0.0363
3358.00,0.0363
3357.00,0.0363
3356.00,0.0364
3355.00,0.0364
3354.00,0.0364
3353.00,0.0364
3352.00,0.0365
3351.00,0.0365
3350.00,0.0365
3349.00,0.0365
3348.00,0.0365
3347.00,0.0365
3346.00,0.0365
3345.00,0.0366
3344.00,0.0366
3343.00,0.0366
3342.00,0.0366
3341.00,0.0366
3340.00,0.0366
3339.00,0.0366
3338.00,0.0366
3337.00,0.0366
3336.00,0.0367
3335.00,0.0367
3334.00,0.0367
3333.00,0.0366
3332.00,0.0366
3331.00,0.0366
3330.00,0.0365
3329.00,0.0366
3328.00,0.0366
3327.00,0.0366
3326.00,0.0367
3325.00,0.0367
3324.00,0.0367
3323.00,0.0367
3322.00,0.0366
3321.00,0.0366
3320.00,0.0367
3319.00,0.0367
3318.00,0.0368
3317.00,0.0368
3316.00,0.0368
3315.00,0.0368
3314.00,0.0368
3313.00,0.0368
3312.00,0.0368
3311.00,0.0368
3310.00,0.0368
3309.00,0.0368
3308.00,0.0369
3307.00,0.0369
3306.00,0.0368
3305.00,0.0368
3304.00,0.0368
3303.00,0.0368
3302.00,0.0368
3301.00,0.0368
3300.00,0.0369
3299.00,0.0369
3298.00,0.0369
3297.00,0.0369
3296.00,0.0368
3295.00,0.0368
3294.00,0.0368
3293.00,0.0369
3292.00,0.0369
3291.00,0.0370
3290.00,0.0369
3289.00,0.0369
3288.00,0.0369
3287.00,0.0369
3286.00,0.0369
3285.00,0.0369
3284.00,0.0369
3283.00,0.0369
3282.00,0.0369
3281.00,0.0369
3280.00,0.0369
3279.00,0.0369
3278.00,0.0370
3277.00,0.0370
3276.00,0.0370
3275.00,0.0371
3274.00,0.0371
3273.00,0.0371
3272.00,0.0371
3271.00,0.0371
3270.00,0.0371
3269.00,0.0371
3268.00,0.0371
3267.00,0.0371
3266.00,0.0372
3265.00,0.0371
3264.00,0.0371
3263.00,0.0371
3262.00,0.0371
3261.00,0.0371
3260.00,0.0371
3259.00,0.0371
3258.00,0.0371
3257.00,0.0371
3256.00,0.0371
3255.00,0.0371
3254.00,0.0372
3253.00,0.0372
3252.00,0.0372
3251.00,0.0372
3250.00,0.0373
3249.00,0.0373
3248.00,0.0373
3247.00,0.0373
3246.00,0.0373
3245.00,0.0373
3244.00,0.0373
3243.00,0.0373
3242.00,0.0373
3241.00,0.0373
3240.00,0.0373
3239.00,0.0374
3238.00,0.0374
3237.00,0.0374
3236.00,0.0374
3235.00,0.0373
3234.00,0.0373
3233.00,0.0373
3232.00,0.0374
3231.00,0.0374
3230.00,0.0374
3229.00,0.0374
3228.00,0.0374
3227.00,0.0374
3226.00,0.0374
3225.00,0.0374
3224.00,0.0373
3223.00,0.0373
3222.00,0.0373
3221.00,0.0373
3220.00,0.0374
3219.00,0.0374
3218.00,0.0374
3217.00,0.0374
3216.00,0.0373
3215.00,0.0373
3214.00,0.0373
3213.00,0.0373
3212.00,0.0374
3211.00,0.0374
3210.00,0.0374
3209.00,0.0374
3208.00,0.0373
3207.00,0.0373
3206.00,0.0373
3205.00,0.0373
3204.00,0.0373
3203.00,0.0373
3202.00,0.0373
3201.00,0.0373
3200.00,0.0373
3199.00,0.0373
3198.00,0.0374
3197.00,0.0373
3196.00,0.0373
3195.00,0.0373
3194.00,0.0373
3193.00,0.0373
3192.00,0.0373
3191.00,0.0373
3190.00,0.0373
3189.00,0.0373
3188.00,0.0373
3187.00,0.0373
3186.00,0.0373
3185.00,0.0373
3184.00,0.0372
3183.00,0.0372
3182.00,0.0372
3181.00,0.0371
3180.00,0.0371
3179.00,0.0371
3178.00,0.0371
3177.00,0.0371
3176.00,0.0371
3175.00,0.0371
3174.00,0.0371
3173.00,0.0371
3172.00,0.0371
3171.00,0.0371
3170.00,0.0371
3169.00,0.0371
3168.00,0.0370
3167.00,0.0370
3166.00,0.0370
3165.00,0.0370
3164.00,0.0371
3163.00,0.0371
3162.00,0.0371
3161.00,0.0371
3160.00,0.0371
3159.00,0.0371
3158.00,0.0370
3157.00,0.0370
3156.00,0.0369
3155.00,0.0369
3154.00,0.0368
3153.00,0.0368
3152.00,0.0368
3151.00,0.0368
3150.00,0.0368
3149.00,0.0368
3148.00,0.0368
3147.00,0.0368
3146.00,0.0368
3145.00,0.0368
3144.00,0.0368
3143.00,0.0367
3142.00,0.0367
3141.00,0.0367
3140.00,0.0367
3139.00,0.0368
3138.00,0.0368
3137.00,0.0367
3136.00,0.0367
3135.00,0.0366
3134.00,0.0366
3133.00,0.0366
3132.00,0.0366
3131.00,0.0366
3130.00,0.0366
3129.00,0.0366
3128.00,0.0366
3127.00,0.0365
3126.00,0.0365
3125.00,0.0364
3124.00,0.0364
3123.00,0.0364
3122.00,0.0364
3121.00,0.0364
3120.00,0.0365
3119.00,0.0365
3118.00,0.0365
3117.00,0.0365
3116.00,0.0364
3115.00,0.0364
3114.00,0.0364
3113.00,0.0364
3112.00,0.0364
3111.00,0.0363
3110.00,0.0363
3109.00,0.0363
3108.00,0.0363
3107.00,0.0363
3106.00,0.0363
3105.00,0.0363
3104.00,0.0362
3103.00,0.0362
3102.00,0.0362
3101.00,0.0362
3100.00,0.0362
3099.00,0.0361
3098.00,0.0361
3097.00,0.0361
3096.00,0.0361
3095.00,0.0361
3094.00,0.0361
3093.00,0.0361
3092.00,0.0361
3091.00,0.0362
3090.00,0.0362
3089.00,0.0362
3088.00,0.0362
3087.00,0.0361
3086.00,0.0361
3085.00,0.0361
3084.00,0.0361
3083.00,0.0361
3082.00,0.0360
3081.00,0.0360
3080.00,0.0361
3079.00,0.0361
3078.00,0.0360
3077.00,0.0360
3076.00,0.0360
3075.00,0.0360
3074.00,0.0359
3073.00,0.0359
3072.00,0.0359
3071.00,0.0359
3070.00,0.0358
3069.00,0.0358
3068.00,0.0358
3067.00,0.0358
3066.00,0.0358
3065.00,0.0358
3064.00,0.0358
3063.00,0.0358
3062.00,0.0357
3061.00,0.0357
3060.00,0.0357
3059.00,0.0357
3058.00,0.0356
3057.00,0.0356
3056.00,0.0356
3055.00,0.0356
3054.00,0.0355
3053.00,0.0355
3052.00,0.0354
3051.00,0.0354
3050.00,0.0354
3049.00,0.0353
3048.00,0.0353
3047.00,0.0353
3046.00,0.0353
3045.00,0.0353
3044.00,0.0353
3043.00,0.0353
3042.00,0.0353
3041.00,0.0353
3040.00,0.0352
3039.00,0.0352
3038.00,0.0352
3037.00,0.0352
3036.00,0.0351
3035.00,0.0351
3034.00,0.0351
3033.00,0.0350
3032.00,0.0350
3031.00,0.0349
3030.00,0.0349
3029.00,0.0349
3028.00,0.0349
3027.00,0.0349
3026.00,0.0349
3025.00,0.0348
3024.00,0.0348
3023.00,0.0348
3022.00,0.0348
3021.00,0.0347
3020.00,0.0347
3019.00,0.0346
3018.00,0.0346
3017.00,0.0346
3016.00,0.0346
3015.00,0.0346
3014.00,0.0346
3013.00,0.0346
3012.00,0.0346
3011.00,0.0346
3010.00,0.0345
3009.00,0.0345
3008.00,0.0344
3007.00,0.0344
3006.00,0.0344
3005.00,0.0344
3004.00,0.0344
3003.00,0.0344
3002.00,0.0344
3001.00,0.0344
3000.00,0.0344
2999.00,0.0344
2998.00,0.0343
2997.00,0.0343
2996.00,0.0343
2995.00,0.0343
2994.00,0.0343
2993.00,0.0343
2992.00,0.0342
2991.00,0.0342
2990.00,0.0342
2989.00,0.0341
2988.00,0.0341
2987.00,0.0340
2986.00,0.0340
2985.00,0.0340
2984.00,0.0340
2983.00,0.0340
2982.00,0.0339
2981.00,0.0339
2980.00,0.0339
2979.00,0.0338
2978.00,0.0338
2977.00,0.0337
2976.00,0.0337
2975.00,0.0337
2974.00,0.0337
2973.00,0.0336
2972.00,0.0335
2971.00,0.0334
2970.00,0.0334
2969.00,0.0333
2968.00,0.0332
2967.00,0.0332
2966.00,0.0331
2965.00,0.0330
2964.00,0.0329
2963.00,0.0329
2962.00,0.0328
2961.00,0.0327
2960.00,0.0326
2959.00,0.0326
2958.00,0.0325
2957.00,0.0325
2956.00,0.0325
2955.00,0.0325
2954.00,0.0325
2953.00,0.0325
2952.00,0.0325
2951.00,0.0325
2950.00,0.0324
2949.00,0.0324
2948.00,0.0324
2947.00,0.0323
2946.00,0.0323
2945.00,0.0323
2944.00,0.0322
2943.00,0.0321
2942.00,0.0320
2941.00,0.0319
2940.00,0.0318
2939.00,0.0317
2938.00,0.0316
2937.00,0.0315
2936.00,0.0314
2935.00,0.0312
2934.00,0.0311
2933.00,0.0310
2932.00,0.0308
2931.00,0.0307
2930.00,0.0306
2929.00,0.0304
2928.00,0.0303
2927.00,0.0302
2926.00,0.0301
2925.00,0.0300
2924.00,0.0300
2923.00,0.0299
2922.00,0.0299
2921.00,0.0299
2920.00,0.0298
2919.00,0.0298
2918.00,0.0298
2917.00,0.0298
2916.00,0.0298
2915.00,0.0300
2914.00,0.0302
2913.00,0.0304
2912.00,0.0306
2911.00,0.0308
2910.00,0.0308
2909.00,0.0309
2908.00,0.0310
2907.00,0.0310
2906.00,0.0311
2905.00,0.0311
2904.00,0.0312
2903.00,0.0312
2902.00,0.0313
2901.00,0.0313
2900.00,0.0313
2899.00,0.0313
2898.00,0.0313
2897.00,0.0313
2896.00,0.0313
2895.00,0.0313
2894.00,0.0313
2893.00,0.0313
2892.00,0.0313
2891.00,0.0313
2890.00,0.0313
2889.00,0.0313
2888.00,0.0313
2887.00,0.0313
2886.00,0.0313
2885.00,0.0313
2884.00,0.0313
2883.00,0.0313
2882.00,0.0312
2881.00,0.0312
2880.00,0.0311
2879.00,0.0311
2878.00,0.0311
2877.00,0.0311
2876.00,0.0311
2875.00,0.0310
2874.00,0.0310
2873.00,0.0309
2872.00,0.0308
2871.00,0.0308
2870.00,0.0307
2869.00,0.0306
2868.00,0.0306
2867.00,0.0305
2866.00,0.0304
2865.00,0.0304
2864.00,0.0303
2863.00,0.0303
2862.00,0.0303
2861.00,0.0302
2860.00,0.0301
2859.00,0.0300
2858.00,0.0299
2857.00,0.0298
2856.00,0.0297
2855.00,0.0296
2854.00,0.0295
2853.00,0.0295
2852.00,0.0295
2851.00,0.0295
2850.00,0.0295
2849.00,0.0296
2848.00,0.0297
2847.00,0.0298
2846.00,0.0299
2845.00,0.0301
2844.00,0.0302
2843.00,0.0302
2842.00,0.0303
2841.00,0.0303
2840.00,0.0304
2839.00,0.0304
2838.00,0.0304
2837.00,0.0304
2836.00,0.0304
2835.00,0.0304
2834.00,0.0303
2833.00,0.0303
2832.00,0.0303
2831.00,0.0303
2830.00,0.0303
2829.00,0.0303
2828.00,0.0303
2827.00,0.0303
2826.00,0.0303
2825.00,0.0303
2824.00,0.0303
2823.00,0.0303
2822.00,0.0303
2821.00,0.0302
2820.00,0.0302
2819.00,0.0302
2818.00,0.0302
2817.00,0.0302
2816.00,0.0302
2815.00,0.0302
2814.00,0.0301
2813.00,0.0301
2812.00,0.0301
2811.00,0.0301
2810.00,0.0301
2809.00,0.0301
2808.00,0.0300
2807.00,0.0300
2806.00,0.0299
2805.00,0.0299
2804.00,0.0299
2803.00,0.0299
2802.00,0.0299
2801.00,0.0299
2800.00,0.0299
2799.00,0.0298
2798.00,0.0298
2797.00,0.0298
2796.00,0.0298
2795.00,0.0298
2794.00,0.0297
2793.00,0.0297
2792.00,0.0297
2791.00,0.0296
2790.00,0.0296
2789.00,0.0296
2788.00,0.0296
2787.00,0.0296
2786.00,0.0296
2785.00,0.0295
2784.00,0.0295
2783.00,0.0294
2782.00,0.0294
2781.00,0.0294
2780.00,0.0294
2779.00,0.0294
2778.00,0.0294
2777.00,0.0293
2776.00,0.0293
2775.00,0.0293
2774.00,0.0293
2773.00,0.0293
2772.00,0.0293
2771.00,0.0293
2770.00,0.0293
2769.00,0.0293
2768.00,0.0292
2767.00,0.0292
2766.00,0.0291
2765.00,0.0291
2764.00,0.0291
2763.00,0.0291
2762.00,0.0291
2761.00,0.0291
2760.00,0.0291
2759.00,0.0290
2758.00,0.0290
2757.00,0.0290
2756.00,0.0290
2755.00,0.0289
2754.00,0.0289
2753.00,0.0289
2752.00,0.0289
2751.00,0.0289
2750.00,0.0289
2749.00,0.0289
2748.00,0.0288
2747.00,0.0288
2746.00,0.0288
2745.00,0.0287
2744.00,0.0287
2743.00,0.0287
2742.00,0.0287
2741.00,0.0287
2740.00,0.0287
2739.00,0.0286
2738.00,0.0286
2737.00,0.0286
2736.00,0.0286
2735.00,0.0285
2734.00,0.0285
2733.00,0.0284
2732.00,0.0284
2731.00,0.0284
2730.00,0.0284
2729.00,0.0284
2728.00,0.0284
2727.00,0.0284
2726.00,0.0284
2725.00,0.0284
2724.00,0.0284
2723.00,0.0284
2722.00,0.0283
2721.00,0.0283
2720.00,0.0283
2719.00,0.0283
2718.00,0.0283
2717.00,0.0283
2716.00,0.0282
2715.00,0.0282
2714.00,0.0282
2713.00,0.0282
2712.00,0.0281
2711.00,0.0281
2710.00,0.0281
2709.00,0.0281
2708.00,0.0281
2707.00,0.0280
2706.00,0.0280
2705.00,0.0280
2704.00,0.0279
2703.00,0.0279
2702.00,0.0279
2701.00,0.0279
2700.00,0.0279
2699.00,0.0279
2698.00,0.0279
2697.00,0.0279
2696.00,0.0278
2695.00,0.0278
2694.00,0.0278
2693.00,0.0278
2692.00,0.0278
2691.00,0.0278
2690.00,0.0278
2689.00,0.0278
2688.00,0.0277
2687.00,0.0277
2686.00,0.0277
2685.00,0.0276
2684.00,0.0276
2683.00,0.0276
2682.00,0.0276
2681.00,0.0276
2680.00,0.0276
2679.00,0.0276
2678.00,0.0276
2677.00,0.0276
2676.00,0.0276
2675.00,0.0276
2674.00,0.0276
2673.00,0.0276
2672.00,0.0276
2671.00,0.0275
2670.00,0.0275
2669.00,0.0275
2668.00,0.0275
2667.00,0.0275
2666.00,0.0275
2665.00,0.0275
2664.00,0.0275
2663.00,0.0275
2662.00,0.0275
2661.00,0.0275
2660.00,0.0275
2659.00,0.0275
2658.00,0.0275
2657.00,0.0275
2656.00,0.0275
2655.00,0.0275
2654.00,0.0275
2653.00,0.0276
2652.00,0.0276
2651.00,0.0275
2650.00,0.0275
2649.00,0.0275
2648.00,0.0275
2647.00,0.0275
2646.00,0.0275
2645.00,0.0275
2644.00,0.0275
2643.00,0.0275
2642.00,0.0275
2641.00,0.0275
2640.00,0.0275
2639.00,0.0275
2638.00,0.0275
2637.00,0.0274
2636.00,0.0274
2635.00,0.0274
2634.00,0.0274
2633.00,0.0274
2632.00,0.0274
2631.00,0.0274
2630.00,0.0274
2629.00,0.0274
2628.00,0.0275
2627.00,0.0275
2626.00,0.0274
2625.00,0.0274
2624.00,0.0274
2623.00,0.0274
2622.00,0.0274
2621.00,0.0274
2620.00,0.0274
2619.00,0.0274
2618.00,0.0274
2617.00,0.0274
2616.00,0.0274
2615.00,0.0274
2614.00,0.0274
2613.00,0.0274
2612.00,0.0274
2611.00,0.0274
2610.00,0.0274
2609.00,0.0274
2608.00,0.0274
2607.00,0.0274
2606.00,0.0274
2605.00,0.0274
2604.00,0.0274
2603.00,0.0274
2602.00,0.0274
2601.00,0.0274
2600.00,0.0273
2599.00,0.0273
2598.00,0.0273
2597.00,0.0273
2596.00,0.0273
2595.00,0.0273
2594.00,0.0273
2593.00,0.0273
2592.00,0.0273
2591.00,0.0273
2590.00,0.0273
2589.00,0.0273
2588.00,0.0273
2587.00,0.0273
2586.00,0.0272
2585.00,0.0272
2584.00,0.0272
2583.00,0.0272
2582.00,0.0273
2581.00,0.0273
2580.00,0.0273
2579.00,0.0273
2578.00,0.0273
2577.00,0.0273
2576.00,0.0273
2575.00,0.0272
2574.00,0.0272
2573.00,0.0272
2572.00,0.0272
2571.00,0.0272
2570.00,0.0272
2569.00,0.0272
2568.00,0.0271
2567.00,0.0272
2566.00,0.0272
2565.00,0.0272
2564.00,0.0272
2563.00,0.0272
2562.00,0.0271
2561.00,0.0271
2560.00,0.0270
2559.00,0.0270
2558.00,0.0270
2557.00,0.0270
2556.00,0.0269
2555.00,0.0269
2554.00,0.0269
2553.00,0.0270
2552.00,0.0270
2551.00,0.0270
2550.00,0.0271
2549.00,0.0271
2548.00,0.0271
2547.00,0.0271
2546.00,0.0271
2545.00,0.0270
2544.00,0.0270
2543.00,0.0270
2542.00,0.0270
2541.00,0.0270
2540.00,0.0270
2539.00,0.0270
2538.00,0.0270
2537.00,0.0270
2536.00,0.0269
2535.00,0.0269
2534.00,0.0269
2533.00,0.0269
2532.00,0.0269
2531.00,0.0269
2530.00,0.0269
2529.00,0.0268
2528.00,0.0268
2527.00,0.0268
2526.00,0.0268
2525.00,0.0268
2524.00,0.0268
2523.00,0.0268
2522.00,0.0268
2521.00,0.0268
2520.00,0.0268
2519.00,0.0268
2518.00,0.0268
2517.00,0.0267
2516.00,0.0267
2515.00,0.0268
2514.00,0.0268
2513.00,0.0268
2512.00,0.0267
2511.00,0.0267
2510.00,0.0266
2509.00,0.0266
2508.00,0.0266
2507.00,0.0265
2506.00,0.0265
2505.00,0.0266
2504.00,0.0266
2503.00,0.0266
2502.00,0.0266
2501.00,0.0265
2500.00,0.0265
2499.00,0.0265
2498.00,0.0265
2497.00,0.0265
2496.00,0.0266
2495.00,0.0266
2494.00,0.0267
2493.00,0.0267
2492.00,0.0266
2491.00,0.0266
2490.00,0.0266
2489.00,0.0266
2488.00,0.0266
2487.00,0.0265
2486.00,0.0265
2485.00,0.0264
2484.00,0.0264
2483.00,0.0264
2482.00,0.0263
2481.00,0.0263
2480.00,0.0263
2479.00,0.0263
2478.00,0.0264
2477.00,0.0264
2476.00,0.0264
2475.00,0.0264
2474.00,0.0264
2473.00,0.0264
2472.00,0.0263
2471.00,0.0263
2470.00,0.0263
2469.00,0.0263
2468.00,0.0262
2467.00,0.0262
2466.00,0.0262
2465.00,0.0262
2464.00,0.0263
2463.00,0.0263
2462.00,0.0263
2461.00,0.0263
2460.00,0.0263
2459.00,0.0263
2458.00,0.0263
2457.00,0.0262
2456.00,0.0262
2455.00,0.0261
2454.00,0.0261
2453.00,0.0261
2452.00,0.0261
2451.00,0.0262
2450.00,0.0261
2449.00,0.0261
2448.00,0.0261
2447.00,0.0261
2446.00,0.0260
2445.00,0.0260
2444.00,0.0260
2443.00,0.0260
2442.00,0.0260
2441.00,0.0260
2440.00,0.0260
2439.00,0.0260
2438.00,0.0259
2437.00,0.0259
2436.00,0.0259
2435.00,0.0258
2434.00,0.0258
2433.00,0.0258
2432.00,0.0258
2431.00,0.0258
2430.00,0.0257
2429.00,0.0257
2428.00,0.0257
2427.00,0.0257
2426.00,0.0257
2425.00,0.0257
2424.00,0.0257
2423.00,0.0256
2422.00,0.0256
2421.00,0.0256
2420.00,0.0256
2419.00,0.0256
2418.00,0.0255
2417.00,0.0255
2416.00,0.0254
2415.00,0.0254
2414.00,0.0254
2413.00,0.0254
2412.00,0.0254
2411.00,0.0253
2410.00,0.0253
2409.00,0.0252
2408.00,0.0252
2407.00,0.0252
2406.00,0.0252
2405.00,0.0252
2404.00,0.0252
2403.00,0.0252
2402.00,0.0252
2401.00,0.0251
2400.00,0.0251
2399.00,0.0250
2398.00,0.0250
2397.00,0.0250
2396.00,0.0250
2395.00,0.0250
2394.00,0.0250
2393.00,0.0250
2392.00,0.0249
2391.00,0.0249
2390.00,0.0249
2389.00,0.0249
2388.00,0.0249
2387.00,0.0248
2386.00,0.0248
2385.00,0.0248
2384.00,0.0248
2383.00,0.0248
2382.00,0.0247
2381.00,0.0246
2380.00,0.0245
2379.00,0.0244
2378.00,0.0243
2377.00,0.0243
2376.00,0.0242
2375.00,0.0242
2374.00,0.0242
2373.00,0.0242
2372.00,0.0243
2371.00,0.0243
2370.00,0.0243
2369.00,0.0242
2368.00,0.0241
2367.00,0.0240
2366.00,0.0239
2365.00,0.0238
2364.00,0.0237
2363.00,0.0237
2362.00,0.0237
2361.00,0.0237
2360.00,0.0238
2359.00,0.0238
2358.00,0.0237
2357.00,0.0237
2356.00,0.0237
2355.00,0.0237
2354.00,0.0239
2353.00,0.0240
2352.00,0.0241
2351.00,0.0241
2350.00,0.0239
2349.00,0.0234
2348.00,0.0230
2347.00,0.0229
2346.00,0.0232
2345.00,0.0235
2344.00,0.0237
2343.00,0.0235
2342.00,0.0233
2341.00,0.0231
2340.00,0.0231
2339.00,0.0231
2338.00,0.0231
2337.00,0.0231
2336.00,0.0232
2335.00,0.0232
2334.00,0.0232
2333.00,0.0233
2332.00,0.0234
2331.00,0.0235
2330.00,0.0236
2329.00,0.0237
2328.00,0.0237
2327.00,0.0238
2326.00,0.0239
2325.00,0.0240
2324.00,0.0241
2323.00,0.0242
2322.00,0.0243
2321.00,0.0243
2320.00,0.0244
2319.00,0.0243
2318.00,0.0243
2317.00,0.0243
2316.00,0.0242
2315.00,0.0242
2314.00,0.0243
2313.00,0.0244
2312.00,0.0245
2311.00,0.0245
2310.00,0.0244
2309.00,0.0243
2308.00,0.0242
2307.00,0.0241
2306.00,0.0240
2305.00,0.0240
2304.00,0.0239
2303.00,0.0238
2302.00,0.0238
2301.00,0.0237
2300.00,0.0236
2299.00,0.0236
2298.00,0.0235
2297.00,0.0235
2296.00,0.0235
2295.00,0.0236
2294.00,0.0236
2293.00,0.0237
2292.00,0.0237
2291.00,0.0238
2290.00,0.0238
2289.00,0.0239
2288.00,0.0240
2287.00,0.0239
2286.00,0.0239
2285.00,0.0238
2284.00,0.0237
2283.00,0.0236
2282.00,0.0236
2281.00,0.0236
2280.00,0.0236
2279.00,0.0236
2278.00,0.0236
2277.00,0.0235
2276.00,0.0235
2275.00,0.0235
2274.00,0.0235
2273.00,0.0235
2272.00,0.0235
2271.00,0.0235
2270.00,0.0235
2269.00,0.0234
2268.00,0.0234
2267.00,0.0234
2266.00,0.0234
2265.00,0.0235
2264.00,0.0236
2263.00,0.0236
2262.00,0.0236
2261.00,0.0236
2260.00,0.0236
2259.00,0.0235
2258.00,0.0234
2257.00,0.0233
2256.00,0.0232
2255.00,0.0231
2254.00,0.0230
2253.00,0.0230
2252.00,0.0230
2251.00,0.0231
2250.00,0.0231
2249.00,0.0232
2248.00,0.0232
2247.00,0.0231
2246.00,0.0230
2245.00,0.0230
2244.00,0.0229
2243.00,0.0229
2242.00,0.0229
2241.00,0.0229
2240.00,0.0229
2239.00,0.0230
2238.00,0.0230
2237.00,0.0231
2236.00,0.0231
2235.00,0.0231
2234.00,0.0232
2233.00,0.0233
2232.00,0.0233
2231.00,0.0233
2230.00,0.0233
2229.00,0.0232
2228.00,0.0231
2227.00,0.0231
2226.00,0.0230
2225.00,0.0230
2224.00,0.0229
2223.00,0.0229
2222.00,0.0229
2221.00,0.0230
2220.00,0.0231
2219.00,0.0231
2218.00,0.0231
2217.00,0.0231
2216.00,0.0230
2215.00,0.0230
2214.00,0.0231
2213.00,0.0232
2212.00,0.0232
2211.00,0.0233
2210.00,0.0233
2209.00,0.0233
2208.00,0.0232
2207.00,0.0230
2206.00,0.0228
2205.00,0.0227
2204.00,0.0226
2203.00,0.0226
2202.00,0.0226
2201.00,0.0228
2200.00,0.0230
2199.00,0.0232
2198.00,0.0233
2197.00,0.0233
2196.00,0.0231
2195.00,0.0230
2194.00,0.0230
2193.00,0.0229
2192.00,0.0229
2191.00,0.0229
2190.00,0.0230
2189.00,0.0231
2188.00,0.0233
2187.00,0.0233
2186.00,0.0233
2185.00,0.0232
2184.00,0.0230
2183.00,0.0228
2182.00,0.0227
2181.00,0.0227
2180.00,0.0227
2179.00,0.0227
2178.00,0.0227
2177.00,0.0226
2176.00,0.0225
2175.00,0.0225
2174.00,0.0225
2173.00,0.0227
2172.00,0.0229
2171.00,0.0231
2170.00,0.0232
2169.00,0.0233
2168.00,0.0233
2167.00,0.0231
2166.00,0.0230
2165.00,0.0229
2164.00,0.0229
2163.00,0.0230
2162.00,0.0230
2161.00,0.0227
2160.00,0.0222
2159.00,0.0219
2158.00,0.0217
2157.00,0.0218
2156.00,0.0219
2155.00,0.0219
2154.00,0.0218
2153.00,0.0219
2152.00,0.0218
2151.00,0.0217
2150.00,0.0215
2149.00,0.0214
2148.00,0.0214
2147.00,0.0215
2146.00,0.0216
2145.00,0.0217
2144.00,0.0217
2143.00,0.0216
2142.00,0.0214
2141.00,0.0213
2140.00,0.0212
2139.00,0.0212
2138.00,0.0212
2137.00,0.0212
2136.00,0.0211
2135.00,0.0210
2134.00,0.0210
2133.00,0.0211
2132.00,0.0212
2131.00,0.0212
2130.00,0.0212
2129.00,0.0212
2128.00,0.0212
2127.00,0.0212
2126.00,0.0212
2125.00,0.0212
2124.00,0.0212
2123.00,0.0211
2122.00,0.0211
2121.00,0.0212
2120.00,0.0212
2119.00,0.0213
2118.00,0.0213
2117.00,0.0213
2116.00,0.0213
2115.00,0.0212
2114.00,0.0212
2113.00,0.0213
2112.00,0.0213
2111.00,0.0214
2110.00,0.0214
2109.00,0.0214
2108.00,0.0213
2107.00,0.0213
2106.00,0.0212
2105.00,0.0212
2104.00,0.0212
2103.00,0.0211
2102.00,0.0211
2101.00,0.0211
2100.00,0.0211
2099.00,0.0211
2098.00,0.0210
2097.00,0.0210
2096.00,0.0210
2095.00,0.0210
2094.00,0.0209
2093.00,0.0209
2092.00,0.0209
2091.00,0.0208
2090.00,0.0207
2089.00,0.0207
2088.00,0.0208
2087.00,0.0209
2086.00,0.0209
2085.00,0.0208
2084.00,0.0208
2083.00,0.0207
2082.00,0.0206
2081.00,0.0206
2080.00,0.0207
2079.00,0.0207
2078.00,0.0209
2077.00,0.0209
2076.00,0.0209
2075.00,0.0209
2074.00,0.0208
2073.00,0.0208
2072.00,0.0208
2071.00,0.0208
2070.00,0.0208
2069.00,0.0207
2068.00,0.0206
2067.00,0.0205
2066.00,0.0205
2065.00,0.0205
2064.00,0.0204
2063.00,0.0204
2062.00,0.0204
2061.00,0.0204
2060.00,0.0205
2059.00,0.0206
2058.00,0.0207
2057.00,0.0207
2056.00,0.0207
2055.00,0.0207
2054.00,0.0207
2053.00,0.0208
2052.00,0.0208
2051.00,0.0208
2050.00,0.0208
2049.00,0.0208
2048.00,0.0207
2047.00,0.0205
2046.00,0.0205
2045.00,0.0205
2044.00,0.0205
2043.00,0.0205
2042.00,0.0204
2041.00,0.0204
2040.00,0.0204
2039.00,0.0205
2038.00,0.0207
2037.00,0.0209
2036.00,0.0210
2035.00,0.0210
2034.00,0.0209
2033.00,0.0208
2032.00,0.0207
2031.00,0.0206
2030.00,0.0206
2029.00,0.0206
2028.00,0.0206
2027.00,0.0204
2026.00,0.0203
2025.00,0.0203
2024.00,0.0202
2023.00,0.0202
2022.00,0.0201
2021.00,0.0202
2020.00,0.0202
2019.00,0.0203
2018.00,0.0204
2017.00,0.0204
2016.00,0.0204
2015.00,0.0203
2014.00,0.0203
2013.00,0.0203
2012.00,0.0203
2011.00,0.0202
2010.00,0.0200
2009.00,0.0199
2008.00,0.0198
2007.00,0.0197
2006.00,0.0196
2005.00,0.0197
2004.00,0.0197
2003.00,0.0197
2002.00,0.0197
2001.00,0.0197
2000.00,0.0198
1999.00,0.0198
1998.00,0.0198
1997.00,0.0198
1996.00,0.0198
1995.00,0.0199
1994.00,0.0200
1993.00,0.0201
1992.00,0.0201
1991.00,0.0200
1990.00,0.0198
1989.00,0.0196
1988.00,0.0194
1987.00,0.0193
1986.00,0.0193
1985.00,0.0194
1984.00,0.0196
1983.00,0.0197
1982.00,0.0198
1981.00,0.0199
1980.00,0.0199
1979.00,0.0197
1978.00,0.0195
1977.00,0.0193
1976.00,0.0192
1975.00,0.0192
1974.00,0.0191
1973.00,0.0191
1972.00,0.0191
1971.00,0.0192
1970.00,0.0192
1969.00,0.0192
1968.00,0.0192
1967.00,0.0191
1966.00,0.0190
1965.00,0.0189
1964.00,0.0189
1963.00,0.0189
1962.00,0.0189
1961.00,0.0188
1960.00,0.0187
1959.00,0.0185
1958.00,0.0184
1957.00,0.0183
1956.00,0.0182
1955.00,0.0182
1954.00,0.0182
1953.00,0.0183
1952.00,0.0183
1951.00,0.0182
1950.00,0.0181
1949.00,0.0181
1948.00,0.0181
1947.00,0.0180
1946.00,0.0181
1945.00,0.0181
1944.00,0.0182
1943.00,0.0182
1942.00,0.0180
1941.00,0.0178
1940.00,0.0177
1939.00,0.0176
1938.00,0.0176
1937.00,0.0176
1936.00,0.0177
1935.00,0.0177
1934.00,0.0177
1933.00,0.0176
1932.00,0.0175
1931.00,0.0175
1930.00,0.0174
1929.00,0.0174
1928.00,0.0173
1927.00,0.0172
1926.00,0.0173
1925.00,0.0173
1924.00,0.0173
1923.00,0.0172
1922.00,0.0171
1921.00,0.0171
1920.00,0.0172
1919.00,0.0171
1918.00,0.0169
1917.00,0.0167
1916.00,0.0167
1915.00,0.0167
1914.00,0.0168
1913.00,0.0168
1912.00,0.0167
1911.00,0.0166
1910.00,0.0165
1909.00,0.0165
1908.00,0.0164
1907.00,0.0164
1906.00,0.0164
1905.00,0.0165
1904.00,0.0164
1903.00,0.0164
1902.00,0.0164
1901.00,0.0164
1900.00,0.0164
1899.00,0.0164
1898.00,0.0164
1897.00,0.0164
1896.00,0.0163
1895.00,0.0161
1894.00,0.0160
1893.00,0.0160
1892.00,0.0160
1891.00,0.0160
1890.00,0.0158
1889.00,0.0157
1888.00,0.0156
1887.00,0.0156
1886.00,0.0156
1885.00,0.0156
1884.00,0.0156
1883.00,0.0155
1882.00,0.0155
1881.00,0.0155
1880.00,0.0155
1879.00,0.0154
1878.00,0.0154
1877.00,0.0153
1876.00,0.0153
1875.00,0.0152
1874.00,0.0151
1873.00,0.0151
1872.00,0.0152
1871.00,0.0152
1870.00,0.0152
1869.00,0.0150
1868.00,0.0147
1867.00,0.0146
1866.00,0.0146
1865.00,0.0147
1864.00,0.0148
1863.00,0.0148
1862.00,0.0147
1861.00,0.0147
1860.00,0.0146
1859.00,0.0146
1858.00,0.0145
1857.00,0.0145
1856.00,0.0144
1855.00,0.0143
1854.00,0.0143
1853.00,0.0143
1852.00,0.0143
1851.00,0.0143
1850.00,0.0143
1849.00,0.0143
1848.00,0.0143
1847.00,0.0143
1846.00,0.0144
1845.00,0.0142
1844.00,0.0139
1843.00,0.0136
1842.00,0.0136
1841.00,0.0137
1840.00,0.0138
1839.00,0.0138
1838.00,0.0137
1837.00,0.0137
1836.00,0.0137
1835.00,0.0136
1834.00,0.0136
1833.00,0.0136
1832.00,0.0136
1831.00,0.0136
1830.00,0.0133
1829.00,0.0130
1828.00,0.0130
1827.00,0.0131
1826.00,0.0132
1825.00,0.0131
1824.00,0.0130
1823.00,0.0129
1822.00,0.0130
1821.00,0.0130
1820.00,0.0130
1819.00,0.0129
1818.00,0.0128
1817.00,0.0128
1816.00,0.0127
1815.00,0.0127
1814.00,0.0127
1813.00,0.0127
1812.00,0.0127
1811.00,0.0126
1810.00,0.0125
1809.00,0.0125
1808.00,0.0126
1807.00,0.0126
1806.00,0.0127
1805.00,0.0128
1804.00,0.0129
1803.00,0.0130
1802.00,0.0130
1801.00,0.0129
1800.00,0.0129
1799.00,0.0128
1798.00,0.0129
1797.00,0.0131
1796.00,0.0132
1795.00,0.0134
1794.00,0.0135
1793.00,0.0135
1792.00,0.0134
1791.00,0.0133
1790.00,0.0134
1789.00,0.0137
1788.00,0.0139
1787.00,0.0142
1786.00,0.0144
1785.00,0.0145
1784.00,0.0146
1783.00,0.0147
1782.00,0.0148
1781.00,0.0150
1780.00,0.0151
1779.00,0.0152
1778.00,0.0155
1777.00,0.0157
1776.00,0.0160
1775.00,0.0162
1774.00,0.0164
1773.00,0.0165
1772.00,0.0164
1771.00,0.0165
1770.00,0.0169
1769.00,0.0173
1768.00,0.0176
1767.00,0.0176
1766.00,0.0177
1765.00,0.0180
1764.00,0.0182
1763.00,0.0183
1762.00,0.0184
1761.00,0.0184
1760.00,0.0186
1759.00,0.0189
1758.00,0.0191
1757.00,0.0191
1756.00,0.0191
1755.00,0.0193
1754.00,0.0197
1753.00,0.0200
1752.00,0.0202
1751.00,0.0204
1750.00,0.0205
1749.00,0.0205
1748.00,0.0207
1747.00,0.0209
1746.00,0.0211
1745.00,0.0214
1744.00,0.0217
1743.00,0.0220
1742.00,0.0222
1741.00,0.0225
1740.00,0.0228
1739.00,0.0230
1738.00,0.0233
1737.00,0.0238
1736.00,0.0243
1735.00,0.0247
1734.00,0.0249
1733.00,0.0249
1732.00,0.0252
1731.00,0.0257
1730.00,0.0261
1729.00,0.0263
1728.00,0.0266
1727.00,0.0269
1726.00,0.0272
1725.00,0.0275
1724.00,0.0277
1723.00,0.0279
1722.00,0.0281
1721.00,0.0282
1720.00,0.0284
1719.00,0.0284
1718.00,0.0285
1717.00,0.0285
1716.00,0.0286
1715.00,0.0288
1714.00,0.0290
1713.00,0.0292
1712.00,0.0294
1711.00,0.0294
1710.00,0.0295
1709.00,0.0295
1708.00,0.0295
1707.00,0.0295
1706.00,0.0295
1705.00,0.0294
1704.00,0.0295
1703.00,0.0297
1702.00,0.0300
1701.00,0.0301
1700.00,0.0299
1699.00,0.0295
1698.00,0.0296
1697.00,0.0299
1696.00,0.0298
1695.00,0.0295
1694.00,0.0294
1693.00,0.0297
1692.00,0.0299
1691.00,0.0299
1690.00,0.0298
1689.00,0.0298
1688.00,0.0298
1687.00,0.0298
1686.00,0.0298
1685.00,0.0298
1684.00,0.0297
1683.00,0.0297
1682.00,0.0302
1681.00,0.0307
1680.00,0.0310
1679.00,0.0311
1678.00,0.0313
1677.00,0.0315
1676.00,0.0318
1675.00,0.0319
1674.00,0.0320
1673.00,0.0322
1672.00,0.0325
1671.00,0.0327
1670.00,0.0330
1669.00,0.0332
1668.00,0.0334
1667.00,0.0337
1666.00,0.0340
1665.00,0.0342
1664.00,0.0344
1663.00,0.0346
1662.00,0.0349
1661.00,0.0352
1660.00,0.0355
1659.00,0.0358
1658.00,0.0359
1657.00,0.0360
1656.00,0.0360
1655.00,0.0361
1654.00,0.0368
1653.00,0.0375
1652.00,0.0374
1651.00,0.0376
1650.00,0.0381
1649.00,0.0384
1648.00,0.0387
1647.00,0.0392
1646.00,0.0396
1645.00,0.0401
1644.00,0.0405
1643.00,0.0408
1642.00,0.0411
1641.00,0.0412
1640.00,0.0413
1639.00,0.0414
1638.00,0.0417
1637.00,0.0421
1636.00,0.0428
1635.00,0.0433
1634.00,0.0437
1633.00,0.0441
1632.00,0.0445
1631.00,0.0448
1630.00,0.0450
1629.00,0.0453
1628.00,0.0457
1627.00,0.0460
1626.00,0.0463
1625.00,0.0467
1624.00,0.0472
1623.00,0.0477
1622.00,0.0481
1621.00,0.0483
1620.00,0.0485
1619.00,0.0487
1618.00,0.0490
1617.00,0.0495
1616.00,0.0499
1615.00,0.0502
1614.00,0.0506
1613.00,0.0510
1612.00,0.0512
1611.00,0.0515
1610.00,0.0518
1609.00,0.0521
1608.00,0.0524
1607.00,0.0528
1606.00,0.0530
1605.00,0.0532
1604.00,0.0535
1603.00,0.0537
1602.00,0.0540
1601.00,0.0542
1600.00,0.0544
1599.00,0.0546
1598.00,0.0548
1597.00,0.0551
1596.00,0.0553
1595.00,0.0555
1594.00,0.0558
1593.00,0.0559
1592.00,0.0561
1591.00,0.0563
1590.00,0.0565
1589.00,0.0567
1588.00,0.0568
1587.00,0.0569
1586.00,0.0570
1585.00,0.0571
1584.00,0.0571
1583.00,0.0573
1582.00,0.0574
1581.00,0.0573
1580.00,0.0572
1579.00,0.0571
1578.00,0.0570
1577.00,0.0572
1576.00,0.0574
1575.00,0.0576
1574.00,0.0576
1573.00,0.0575
1572.00,0.0573
1571.00,0.0572
1570.00,0.0573
1569.00,0.0573
1568.00,0.0573
1567.00,0.0572
1566.00,0.0571
1565.00,0.0569
1564.00,0.0567
1563.00,0.0564
1562.00,0.0560
1561.00,0.0552
1560.00,0.0550
1559.00,0.0558
1558.00,0.0559
1557.00,0.0557
1556.00,0.0557
1555.00,0.0556
1554.00,0.0553
1553.00,0.0550
1552.00,0.0548
1551.00,0.0546
1550.00,0.0543
1549.00,0.0539
1548.00,0.0535
1547.00,0.0532
1546.00,0.0528
1545.00,0.0524
1544.00,0.0519
1543.00,0.0515
1542.00,0.0509
1541.00,0.0506
1540.00,0.0505
1539.00,0.0501
1538.00,0.0499
1537.00,0.0498
1536.00,0.0496
1535.00,0.0493
1534.00,0.0490
1533.00,0.0488
1532.00,0.0487
1531.00,0.0485
1530.00,0.0483
1529.00,0.0480
1528.00,0.0477
1527.00,0.0474
1526.00,0.0471
1525.00,0.0467
1524.00,0.0464
1523.00,0.0461
1522.00,0.0459
1521.00,0.0456
1520.00,0.0454
1519.00,0.0453
1518.00,0.0451
1517.00,0.0449
1516.00,0.0447
1515.00,0.0445
1514.00,0.0443
1513.00,0.0441
1512.00,0.0439
1511.00,0.0436
1510.00,0.0432
1509.00,0.0428
1508.00,0.0426
1507.00,0.0426
1506.00,0.0422
1505.00,0.0420
1504.00,0.0421
1503.00,0.0421
1502.00,0.0419
1501.00,0.0416
1500.00,0.0414
1499.00,0.0412
1498.00,0.0410
1497.00,0.0410
1496.00,0.0410
1495.00,0.0410
1494.00,0.0410
1493.00,0.0411
1492.00,0.0410
1491.00,0.0410
1490.00,0.0409
1489.00,0.0408
1488.00,0.0408
1487.00,0.0408
1486.00,0.0407
1485.00,0.0407
1484.00,0.0407
1483.00,0.0407
1482.00,0.0407
1481.00,0.0407
1480.00,0.0406
1479.00,0.0406
1478.00,0.0406
1477.00,0.0406
1476.00,0.0407
1475.00,0.0407
1474.00,0.0408
1473.00,0.0410
1472.00,0.0411
1471.00,0.0411
1470.00,0.0412
1469.00,0.0412
1468.00,0.0412
1467.00,0.0411
1466.00,0.0411
1465.00,0.0413
1464.00,0.0414
1463.00,0.0415
1462.00,0.0415
1461.00,0.0415
1460.00,0.0414
1459.00,0.0415
1458.00,0.0418
1457.00,0.0423
1456.00,0.0425
1455.00,0.0427
1454.00,0.0428
1453.00,0.0429
1452.00,0.0431
1451.00,0.0432
1450.00,0.0434
1449.00,0.0436
1448.00,0.0439
1447.00,0.0441
1446.00,0.0442
1445.00,0.0443
1444.00,0.0444
1443.00,0.0446
1442.00,0.0447
1441.00,0.0448
1440.00,0.0450
1439.00,0.0452
1438.00,0.0454
1437.00,0.0458
1436.00,0.0461
1435.00,0.0462
1434.00,0.0462
1433.00,0.0463
1432.00,0.0464
1431.00,0.0465
1430.00,0.0467
1429.00,0.0469
1428.00,0.0470
1427.00,0.0471
1426.00,0.0472
1425.00,0.0472
1424.00,0.0473
1423.00,0.0474
1422.00,0.0475
1421.00,0.0475
1420.00,0.0478
1419.00,0.0481
1418.00,0.0483
1417.00,0.0485
1416.00,0.0486
1415.00,0.0487
1414.00,0.0487
1413.00,0.0487
1412.00,0.0488
1411.00,0.0489
1410.00,0.0490
1409.00,0.0491
1408.00,0.0491
1407.00,0.0493
1406.00,0.0494
1405.00,0.0496
1404.00,0.0498
1403.00,0.0499
1402.00,0.0500
1401.00,0.0500
1400.00,0.0502
1399.00,0.0505
1398.00,0.0507
1397.00,0.0508
1396.00,0.0511
1395.00,0.0513
1394.00,0.0514
1393.00,0.0515
1392.00,0.0516
1391.00,0.0517
1390.00,0.0518
1389.00,0.0519
1388.00,0.0522
1387.00,0.0524
1386.00,0.0525
1385.00,0.0526
1384.00,0.0526
1383.00,0.0527
1382.00,0.0527
1381.00,0.0528
1380.00,0.0529
1379.00,0.0530
1378.00,0.0530
1377.00,0.0531
1376.00,0.0531
1375.00,0.0532
1374.00,0.0534
1373.00,0.0535
1372.00,0.0535
1371.00,0.0535
1370.00,0.0535
1369.00,0.0535
1368.00,0.0535
1367.00,0.0535
1366.00,0.0534
1365.00,0.0534
1364.00,0.0535
1363.00,0.0536
1362.00,0.0536
1361.00,0.0536
1360.00,0.0536
1359.00,0.0535
1358.00,0.0534
1357.00,0.0533
1356.00,0.0533
1355.00,0.0532
1354.00,0.0531
1353.00,0.0530
1352.00,0.0530
1351.00,0.0529
1350.00,0.0528
1349.00,0.0528
1348.00,0.0527
1347.00,0.0526
1346.00,0.0526
1345.00,0.0525
1344.00,0.0524
1343.00,0.0523
1342.00,0.0523
1341.00,0.0523
1340.00,0.0523
1339.00,0.0523
1338.00,0.0522
1337.00,0.0521
1336.00,0.0520
1335.00,0.0518
1334.00,0.0516
1333.00,0.0515
1332.00,0.0514
1331.00,0.0513
1330.00,0.0513
1329.00,0.0512
1328.00,0.0511
1327.00,0.0509
1326.00,0.0508
1325.00,0.0506
1324.00,0.0505
1323.00,0.0505
1322.00,0.0504
1321.00,0.0503
1320.00,0.0503
1319.00,0.0502
1318.00,0.0502
1317.00,0.0502
1316.00,0.0502
1315.00,0.0501
1314.00,0.0500
1313.00,0.0500
1312.00,0.0499
1311.00,0.0498
1310.00,0.0498
1309.00,0.0497
1308.00,0.0497
1307.00,0.0497
1306.00,0.0496
1305.00,0.0496
1304.00,0.0496
1303.00,0.0496
1302.00,0.0496
1301.00,0.0496
1300.00,0.0496
1299.00,0.0495
1298.00,0.0495
1297.00,0.0495
1296.00,0.0495
1295.00,0.0495
1294.00,0.0495
1293.00,0.0495
1292.00,0.0496
1291.00,0.0496
1290.00,0.0496
1289.00,0.0496
1288.00,0.0497
1287.00,0.0497
1286.00,0.0498
1285.00,0.0498
1284.00,0.0498
1283.00,0.0498
1282.00,0.0498
1281.00,0.0499
1280.00,0.0499
1279.00,0.0500
1278.00,0.0500
1277.00,0.0501
1276.00,0.0501
1275.00,0.0501
1274.00,0.0501
1273.00,0.0502
1272.00,0.0502
1271.00,0.0502
1270.00,0.0503
1269.00,0.0503
1268.00,0.0503
1267.00,0.0504
1266.00,0.0504
1265.00,0.0504
1264.00,0.0504
1263.00,0.0505
1262.00,0.0505
1261.00,0.0505
1260.00,0.0505
1259.00,0.0505
1258.00,0.0505
1257.00,0.0506
1256.00,0.0506
1255.00,0.0506
1254.00,0.0506
1253.00,0.0505
1252.00,0.0505
1251.00,0.0504
1250.00,0.0504
1249.00,0.0504
1248.00,0.0504
1247.00,0.0504
1246.00,0.0504
1245.00,0.0503
1244.00,0.0503
1243.00,0.0503
1242.00,0.0503
1241.00,0.0503
1240.00,0.0502
1239.00,0.0502
1238.00,0.0501
1237.00,0.0501
1236.00,0.0500
1235.00,0.0499
1234.00,0.0499
1233.00,0.0498
1232.00,0.0498
1231.00,0.0497
1230.00,0.0497
1229.00,0.0497
1228.00,0.0496
1227.00,0.0495
1226.00,0.0494
1225.00,0.0493
1224.00,0.0492
1223.00,0.0491
1222.00,0.0490
1221.00,0.0489
1220.00,0.0488
1219.00,0.0487
1218.00,0.0486
1217.00,0.0485
1216.00,0.0484
1215.00,0.0483
1214.00,0.0483
1213.00,0.0482
1212.00,0.0482
1211.00,0.0481
1210.00,0.0481
1209.00,0.0480
1208.00,0.0478
1207.00,0.0477
1206.00,0.0476
1205.00,0.0475
1204.00,0.0475
1203.00,0.0475
1202.00,0.0475
1201.00,0.0474
1200.00,0.0472
1199.00,0.0471
1198.00,0.0470
1197.00,0.0469
1196.00,0.0469
1195.00,0.0468
1194.00,0.0467
1193.00,0.0466
1192.00,0.0465
1191.00,0.0464
1190.00,0.0464
1189.00,0.0464
1188.00,0.0464
1187.00,0.0463
1186.00,0.0463
1185.00,0.0463
1184.00,0.0462
1183.00,0.0461
1182.00,0.0460
1181.00,0.0458
1180.00,0.0458
1179.00,0.0458
1178.00,0.0458
1177.00,0.0458
1176.00,0.0458
1175.00,0.0457
1174.00,0.0456
1173.00,0.0455
1172.00,0.0454
1171.00,0.0452
1170.00,0.0451
1169.00,0.0451
1168.00,0.0450
1167.00,0.0449
1166.00,0.0449
1165.00,0.0448
1164.00,0.0447
1163.00,0.0447
1162.00,0.0447
1161.00,0.0446
1160.00,0.0446
1159.00,0.0445
1158.00,0.0445
1157.00,0.0445
1156.00,0.0444
1155.00,0.0444
1154.00,0.0443
1153.00,0.0442
1152.00,0.0441
1151.00,0.0441
1150.00,0.0440
1149.00,0.0439
1148.00,0.0438
1147.00,0.0438
1146.00,0.0438
1145.00,0.0439
1144.00,0.0439
1143.00,0.0439
1142.00,0.0439
1141.00,0.0438
1140.00,0.0437
1139.00,0.0437
1138.00,0.0437
1137.00,0.0437
1136.00,0.0436
1135.00,0.0436
1134.00,0.0436
1133.00,0.0436
1132.00,0.0435
1131.00,0.0435
1130.00,0.0435
1129.00,0.0435
1128.00,0.0435
1127.00,0.0435
1126.00,0.0435
1125.00,0.0435
1124.00,0.0435
1123.00,0.0435
1122.00,0.0435
1121.00,0.0436
1120.00,0.0436
1119.00,0.0436
1118.00,0.0437
1117.00,0.0437
1116.00,0.0438
1115.00,0.0439
1114.00,0.0438
1113.00,0.0438
1112.00,0.0438
1111.00,0.0438
1110.00,0.0439
1109.00,0.0438
1108.00,0.0438
1107.00,0.0438
1106.00,0.0438
1105.00,0.0438
1104.00,0.0437
1103.00,0.0437
1102.00,0.0437
1101.00,0.0437
1100.00,0.0438
1099.00,0.0438
1098.00,0.0438
1097.00,0.0439
1096.00,0.0439
1095.00,0.0439
1094.00,0.0439
1093.00,0.0440
1092.00,0.0441
1091.00,0.0441
1090.00,0.0441
1089.00,0.0441
1088.00,0.0440
1087.00,0.0440
1086.00,0.0440
1085.00,0.0440
1084.00,0.0441
1083.00,0.0441
1082.00,0.0441
1081.00,0.0441
1080.00,0.0442
1079.00,0.0442
1078.00,0.0442
1077.00,0.0442
1076.00,0.0443
1075.00,0.0444
1074.00,0.0444
1073.00,0.0444
1072.00,0.0444
1071.00,0.0443
1070.00,0.0444
1069.00,0.0445
1068.00,0.0446
1067.00,0.0446
1066.00,0.0446
1065.00,0.0446
1064.00,0.0446
1063.00,0.0447
1062.00,0.0448
1061.00,0.0448
1060.00,0.0449
1059.00,0.0448
1058.00,0.0448
1057.00,0.0448
1056.00,0.0448
1055.00,0.0449
1054.00,0.0449
1053.00,0.0450
1052.00,0.0450
1051.00,0.0451
1050.00,0.0452
1049.00,0.0454
1048.00,0.0455
1047.00,0.0455
1046.00,0.0455
1045.00,0.0455
1044.00,0.0455
1043.00,0.0455
1042.00,0.0455
1041.00,0.0456
1040.00,0.0457
1039.00,0.0458
1038.00,0.0458
1037.00,0.0458
1036.00,0.0458
1035.00,0.0457
1034.00,0.0457
1033.00,0.0457
1032.00,0.0456
1031.00,0.0456
1030.00,0.0456
1029.00,0.0455
1028.00,0.0454
1027.00,0.0452
1026.00,0.0451
1025.00,0.0450
1024.00,0.0450
1023.00,0.0449
1022.00,0.0449
1021.00,0.0449
1020.00,0.0449
1019.00,0.0449
1018.00,0.0449
1017.00,0.0449
1016.00,0.0449
1015.00,0.0449
1014.00,0.0449
1013.00,0.0449
1012.00,0.0450
1011.00,0.0450
1010.00,0.0450
1009.00,0.0450
1008.00,0.0449
1007.00,0.0448
1006.00,0.0447
1005.00,0.0447
1004.00,0.0447
1003.00,0.0447
1002.00,0.0446
1001.00,0.0445
1000.00,0.0445
999.00,0.0445
998.00,0.0445
997.00,0.0444
996.00,0.0443
995.00,0.0442
994.00,0.0441
993.00,0.0441
992.00,0.0441
991.00,0.0441
990.00,0.0441
989.00,0.0441
988.00,0.0440
987.00,0.0439
986.00,0.0438
985.00,0.0438
984.00,0.0438
983.00,0.0438
982.00,0.0439
981.00,0.0440
980.00,0.0441
979.00,0.0441
978.00,0.0441
977.00,0.0440
976.00,0.0440
975.00,0.0440
974.00,0.0440
973.00,0.0439
972.00,0.0439
971.00,0.0439
970.00,0.0438
969.00,0.0438
968.00,0.0438
967.00,0.0438
966.00,0.0438
965.00,0.0437
964.00,0.0437
963.00,0.0437
962.00,0.0438
961.00,0.0439
960.00,0.0439
959.00,0.0439
958.00,0.0439
957.00,0.0439
956.00,0.0439
955.00,0.0440
954.00,0.0440
953.00,0.0440
952.00,0.0440
951.00,0.0441
950.00,0.0441
949.00,0.0442
948.00,0.0443
947.00,0.0444
946.00,0.0444
945.00,0.0445
944.00,0.0445
943.00,0.0446
942.00,0.0446
941.00,0.0447
940.00,0.0448
939.00,0.0449
938.00,0.0450
937.00,0.0450
936.00,0.0450
935.00,0.0450
934.00,0.0451
933.00,0.0452
932.00,0.0453
931.00,0.0453
930.00,0.0453
929.00,0.0453
928.00,0.0453
927.00,0.0454
926.00,0.0456
925.00,0.0457
924.00,0.0458
923.00,0.0459
922.00,0.0460
921.00,0.0461
920.00,0.0462
919.00,0.0464
918.00,0.0465
917.00,0.0467
916.00,0.0469
915.00,0.0470
914.00,0.0469
913.00,0.0469
912.00,0.0469
911.00,0.0470
910.00,0.0471
909.00,0.0472
908.00,0.0473
907.00,0.0473
906.00,0.0474
905.00,0.0474
904.00,0.0474
903.00,0.0474
902.00,0.0474
901.00,0.0473
900.00,0.0474
899.00,0.0475
898.00,0.0477
897.00,0.0478
896.00,0.0478
895.00,0.0477
894.00,0.0475
893.00,0.0474
892.00,0.0474
891.00,0.0473
890.00,0.0473
889.00,0.0473
888.00,0.0474
887.00,0.0476
886.00,0.0477
885.00,0.0478
884.00,0.0478
883.00,0.0477
882.00,0.0475
881.00,0.0474
880.00,0.0475
879.00,0.0476
878.00,0.0476
877.00,0.0477
876.00,0.0476
875.00,0.0475
874.00,0.0475
873.00,0.0475
872.00,0.0476
871.00,0.0477
870.00,0.0477
869.00,0.0477
868.00,0.0477
867.00,0.0476
866.00,0.0476
865.00,0.0476
864.00,0.0477
863.00,0.0478
862.00,0.0480
861.00,0.0482
860.00,0.0483
859.00,0.0483
858.00,0.0483
857.00,0.0482
856.00,0.0481
855.00,0.0481
854.00,0.0482
853.00,0.0484
852.00,0.0485
851.00,0.0486
850.00,0.0487
849.00,0.0488
848.00,0.0490
847.00,0.0491
846.00,0.0493
845.00,0.0496
844.00,0.0498
843.00,0.0500
842.00,0.0501
841.00,0.0502
840.00,0.0503
839.00,0.0505
838.00,0.0506
837.00,0.0507
836.00,0.0508
835.00,0.0509
834.00,0.0509
833.00,0.0509
832.00,0.0511
831.00,0.0513
830.00,0.0515
829.00,0.0517
828.00,0.0519
827.00,0.0520
826.00,0.0521
825.00,0.0522
824.00,0.0522
823.00,0.0523
822.00,0.0525
821.00,0.0527
820.00,0.0528
819.00,0.0529
818.00,0.0530
817.00,0.0530
816.00,0.0531
815.00,0.0532
814.00,0.0533
813.00,0.0533
812.00,0.0534
811.00,0.0534
810.00,0.0533
809.00,0.0534
808.00,0.0535
807.00,0.0536
806.00,0.0537
805.00,0.0537
804.00,0.0538
803.00,0.0540
802.00,0.0541
801.00,0.0542
800.00,0.0543
799.00,0.0544
798.00,0.0545
797.00,0.0545
796.00,0.0546
795.00,0.0546
794.00,0.0546
793.00,0.0546
792.00,0.0547
791.00,0.0547
790.00,0.0548
789.00,0.0549
788.00,0.0551
787.00,0.0552
786.00,0.0553
785.00,0.0554
784.00,0.0554
783.00,0.0555
782.00,0.0557
781.00,0.0558
780.00,0.0561
779.00,0.0563
778.00,0.0564
777.00,0.0565
776.00,0.0566
775.00,0.0567
774.00,0.0568
773.00,0.0569
772.00,0.0569
771.00,0.0568
770.00,0.0568
769.00,0.0569
768.00,0.0572
767.00,0.0575
766.00,0.0576
765.00,0.0577
764.00,0.0578
763.00,0.0578
762.00,0.0578
761.00,0.0579
760.00,0.0580
759.00,0.0581
758.00,0.0582
757.00,0.0583
756.00,0.0584
755.00,0.0584
754.00,0.0583
753.00,0.0583
752.00,0.0583
751.00,0.0583
750.00,0.0584
749.00,0.0585
748.00,0.0587
747.00,0.0588
746.00,0.0589
745.00,0.0590
744.00,0.0591
743.00,0.0590
742.00,0.0590
741.00,0.0590
740.00,0.0590
739.00,0.0590
738.00,0.0591
737.00,0.0592
736.00,0.0593
735.00,0.0594
734.00,0.0594
733.00,0.0595
732.00,0.0598
731.00,0.0601
730.00,0.0603
729.00,0.0604
728.00,0.0606
727.00,0.0607
726.00,0.0608
725.00,0.0608
724.00,0.0609
723.00,0.0609
722.00,0.0610
721.00,0.0611
720.00,0.0613
719.00,0.0615
718.00,0.0616
717.00,0.0618
716.00,0.0619
715.00,0.0621
714.00,0.0622
713.00,0.0623
712.00,0.0625
711.00,0.0626
710.00,0.0628
709.00,0.0631
708.00,0.0634
707.00,0.0637
706.00,0.0639
705.00,0.0639
704.00,0.0640
703.00,0.0641
702.00,0.0642
701.00,0.0644
700.00,0.0647
699.00,0.0648
698.00,0.0648
697.00,0.0647
696.00,0.0647
695.00,0.0649
694.00,0.0651
693.00,0.0652
692.00,0.0653
691.00,0.0654
690.00,0.0655
689.00,0.0657
688.00,0.0660
687.00,0.0664
686.00,0.0667
685.00,0.0670
684.00,0.0672
683.00,0.0673
682.00,0.0674
681.00,0.0675
680.00,0.0677
679.00,0.0678
678.00,0.0677
677.00,0.0677
676.00,0.0679
675.00,0.0685
674.00,0.0692
673.00,0.0697
672.00,0.0701
671.00,0.0702
670.00,0.0703
669.00,0.0708
668.00,0.0714
667.00,0.0716
666.00,0.0716
665.00,0.0714
664.00,0.0712
663.00,0.0710
662.00,0.0709
661.00,0.0708
660.00,0.0710
659.00,0.0711
658.00,0.0711
657.00,0.0710
656.00,0.0711
655.00,0.0714
654.00,0.0718
653.00,0.0720
652.00,0.0726
651.00,0.0729
650.00,0.0729
