Created as New Dataset,Monday, April 03 2023
cm-1,A
4000.00,0.0261
3999.00,0.0261
3998.00,0.0260
3997.00,0.0260
3996.00,0.0260
3995.00,0.0260
3994.00,0.0260
3993.00,0.0260
3992.00,0.0261
3991.00,0.0260
3990.00,0.0260
3989.00,0.0260
3988.00,0.0259
3987.00,0.0259
3986.00,0.0259
3985.00,0.0259
3984.00,0.0259
3983.00,0.0259
3982.00,0.0259
3981.00,0.0259
3980.00,0.0259
3979.00,0.0259
3978.00,0.0259
3977.00,0.0258
3976.00,0.0258
3975.00,0.0258
3974.00,0.0258
3973.00,0.0258
3972.00,0.0258
3971.00,0.0258
3970.00,0.0257
3969.00,0.0257
3968.00,0.0257
3967.00,0.0257
3966.00,0.0257
3965.00,0.0257
3964.00,0.0257
3963.00,0.0257
3962.00,0.0257
3961.00,0.0257
3960.00,0.0257
3959.00,0.0256
3958.00,0.0256
3957.00,0.0256
3956.00,0.0256
3955.00,0.0256
3954.00,0.0256
3953.00,0.0256
3952.00,0.0256
3951.00,0.0255
3950.00,0.0255
3949.00,0.0255
3948.00,0.0255
3947.00,0.0256
3946.00,0.0256
3945.00,0.0256
3944.00,0.0255
3943.00,0.0254
3942.00,0.0253
3941.00,0.0253
3940.00,0.0253
3939.00,0.0254
3938.00,0.0254
3937.00,0.0255
3936.00,0.0256
3935.00,0.0256
3934.00,0.0256
3933.00,0.0256
3932.00,0.0255
3931.00,0.0254
3930.00,0.0254
3929.00,0.0253
3928.00,0.0253
3927.00,0.0252
3926.00,0.0252
3925.00,0.0252
3924.00,0.0252
3923.00,0.0252
3922.00,0.0252
3921.00,0.0252
3920.00,0.0253
3919.00,0.0253
3918.00,0.0253
3917.00,0.0252
3916.00,0.0252
3915.00,0.0251
3914.00,0.0251
3913.00,0.0251
3912.00,0.0251
3911.00,0.0252
3910.00,0.0252
3909.00,0.0252
3908.00,0.0252
3907.00,0.0252
3906.00,0.0252
3905.00,0.0252
3904.00,0.0252
3903.00,0.0252
3902.00,0.0252
3901.00,0.0251
3900.00,0.0250
3899.00,0.0249
3898.00,0.0249
3897.00,0.0250
3896.00,0.0251
3895.00,0.0251
3894.00,0.0251
3893.00,0.0249
3892.00,0.0249
3891.00,0.0249
3890.00,0.0249
3889.00,0.0250
3888.00,0.0251
3887.00,0.0251
3886.00,0.0251
3885.00,0.0251
3884.00,0.0251
3883.00,0.0250
3882.00,0.0248
3881.00,0.0246
3880.00,0.0245
3879.00,0.0246
3878.00,0.0248
3877.00,0.0249
3876.00,0.0248
3875.00,0.0248
3874.00,0.0248
3873.00,0.0248
3872.00,0.0248
3871.00,0.0247
3870.00,0.0246
3869.00,0.0247
3868.00,0.0248
3867.00,0.0249
3866.00,0.0249
3865.00,0.0248
3864.00,0.0247
3863.00,0.0246
3862.00,0.0246
3861.00,0.0246
3860.00,0.0247
3859.00,0.0247
3858.00,0.0247
3857.00,0.0246
3856.00,0.0247
3855.00,0.0248
3854.00,0.0249
3853.00,0.0248
3852.00,0.0246
3851.00,0.0246
3850.00,0.0246
3849.00,0.0245
3848.00,0.0245
3847.00,0.0245
3846.00,0.0246
3845.00,0.0246
3844.00,0.0246
3843.00,0.0246
3842.00,0.0247
3841.00,0.0247
3840.00,0.0246
3839.00,0.0246
3838.00,0.0245
3837.00,0.0245
3836.00,0.0244
3835.00,0.0243
3834.00,0.0243
3833.00,0.0242
3832.00,0.0243
3831.00,0.0244
3830.00,0.0245
3829.00,0.0245
3828.00,0.0244
3827.00,0.0244
3826.00,0.0243
3825.00,0.0243
3824.00,0.0244
3823.00,0.0244
3822.00,0.0243
3821.00,0.0243
3820.00,0.0242
3819.00,0.0243
3818.00,0.0243
3817.00,0.0242
3816.00,0.0241
3815.00,0.0241
3814.00,0.0241
3813.00,0.0241
3812.00,0.0241
3811.00,0.0240
3810.00,0.0240
3809.00,0.0241
3808.00,0.0241
3807.00,0.0242
3806.00,0.0242
3805.00,0.0243
3804.00,0.0243
3803.00,0.0242
3802.00,0.0241
3801.00,0.0240
3800.00,0.0240
3799.00,0.0240
3798.00,0.0239
3797.00,0.0237
3796.00,0.0237
3795.00,0.0237
3794.00,0.0237
3793.00,0.0237
3792.00,0.0237
3791.00,0.0237
3790.00,0.0237
3789.00,0.0238
3788.00,0.0238
3787.00,0.0238
3786.00,0.0237
3785.00,0.0236
3784.00,0.0236
3783.00,0.0237
3782.00,0.0237
3781.00,0.0237
3780.00,0.0236
3779.00,0.0234
3778.00,0.0234
3777.00,0.0234
3776.00,0.0235
3775.00,0.0235
3774.00,0.0235
3773.00,0.0236
3772.00,0.0236
3771.00,0.0236
3770.00,0.0236
3769.00,0.0236
3768.00,0.0236
3767.00,0.0235
3766.00,0.0235
3765.00,0.0234
3764.00,0.0235
3763.00,0.0235
3762.00,0.0236
3761.00,0.0236
3760.00,0.0235
3759.00,0.0235
3758.00,0.0235
3757.00,0.0235
3756.00,0.0235
3755.00,0.0236
3754.00,0.0237
3753.00,0.0239
3752.00,0.0241
3751.00,0.0240
3750.00,0.0239
3749.00,0.0238
3748.00,0.0237
3747.00,0.0235
3746.00,0.0234
3745.00,0.0233
3744.00,0.0234
3743.00,0.0236
3742.00,0.0238
3741.00,0.0238
3740.00,0.0237
3739.00,0.0237
3738.00,0.0237
3737.00,0.0238
3736.00,0.0237
3735.00,0.0235
3734.00,0.0232
3733.00,0.0231
3732.00,0.0232
3731.00,0.0233
3730.00,0.0234
3729.00,0.0235
3728.00,0.0235
3727.00,0.0235
3726.00,0.0234
3725.00,0.0234
3724.00,0.0233
3723.00,0.0232
3722.00,0.0231
3721.00,0.0230
3720.00,0.0229
3719.00,0.0230
3718.00,0.0230
3717.00,0.0232
3716.00,0.0234
3715.00,0.0235
3714.00,0.0237
3713.00,0.0238
3712.00,0.0238
3711.00,0.0237
3710.00,0.0237
3709.00,0.0237
3708.00,0.0238
3707.00,0.0240
3706.00,0.0241
3705.00,0.0241
3704.00,0.0241
3703.00,0.0242
3702.00,0.0242
3701.00,0.0243
3700.00,0.0244
3699.00,0.0246
3698.00,0.0247
3697.00,0.0248
3696.00,0.0248
3695.00,0.0248
3694.00,0.0248
3693.00,0.0248
3692.00,0.0248
3691.00,0.0247
3690.00,0.0246
3689.00,0.0245
3688.00,0.0245
3687.00,0.0245
3686.00,0.0245
3685.00,0.0245
3684.00,0.0244
3683.00,0.0244
3682.00,0.0244
3681.00,0.0244
3680.00,0.0244
3679.00,0.0243
3678.00,0.0243
3677.00,0.0244
3676.00,0.0244
3675.00,0.0244
3674.00,0.0245
3673.00,0.0247
3672.00,0.0248
3671.00,0.0247
3670.00,0.0245
3669.00,0.0244
3668.00,0.0244
3667.00,0.0245
3666.00,0.0246
3665.00,0.0247
3664.00,0.0249
3663.00,0.0250
3662.00,0.0252
3661.00,0.0253
3660.00,0.0255
3659.00,0.0256
3658.00,0.0258
3657.00,0.0260
3656.00,0.0262
3655.00,0.0263
3654.00,0.0264
3653.00,0.0264
3652.00,0.0265
3651.00,0.0267
3650.00,0.0270
3649.00,0.0270
3648.00,0.0269
3647.00,0.0268
3646.00,0.0269
3645.00,0.0271
3644.00,0.0272
3643.00,0.0273
3642.00,0.0273
3641.00,0.0274
3640.00,0.0275
3639.00,0.0276
3638.00,0.0276
3637.00,0.0277
3636.00,0.0278
3635.00,0.0280
3634.00,0.0281
3633.00,0.0282
3632.00,0.0283
3631.00,0.0284
3630.00,0.0286
3629.00,0.0289
3628.00,0.0291
3627.00,0.0294
3626.00,0.0296
3625.00,0.0297
3624.00,0.0298
3623.00,0.0300
3622.00,0.0301
3621.00,0.0303
3620.00,0.0304
3619.00,0.0304
3618.00,0.0304
3617.00,0.0304
3616.00,0.0303
3615.00,0.0302
3614.00,0.0302
3613.00,0.0303
3612.00,0.0304
3611.00,0.0306
3610.00,0.0307
3609.00,0.0308
3608.00,0.0309
3607.00,0.0308
3606.00,0.0308
3605.00,0.0309
3604.00,0.0309
3603.00,0.0310
3602.00,0.0310
3601.00,0.0311
3600.00,0.0311
3599.00,0.0311
3598.00,0.0311
3597.00,0.0311
3596.00,0.0312
3595.00,0.0314
3594.00,0.0315
3593.00,0.0317
3592.00,0.0318
3591.00,0.0318
3590.00,0.0318
3589.00,0.0318
3588.00,0.0318
3587.00,0.0319
3586.00,0.0320
3585.00,0.0321
3584.00,0.0322
3583.00,0.0322
3582.00,0.0323
3581.00,0.0324
3580.00,0.0325
3579.00,0.0325
3578.00,0.0326
3577.00,0.0326
3576.00,0.0327
3575.00,0.0328
3574.00,0.0328
3573.00,0.0329
3572.00,0.0329
3571.00,0.0329
3570.00,0.0330
3569.00,0.0331
3568.00,0.0333
3567.00,0.0335
3566.00,0.0336
3565.00,0.0337
3564.00,0.0337
3563.00,0.0337
3562.00,0.0337
3561.00,0.0338
3560.00,0.0339
3559.00,0.0340
3558.00,0.0341
3557.00,0.0342
3556.00,0.0342
3555.00,0.0343
3554.00,0.0344
3553.00,0.0345
3552.00,0.0346
3551.00,0.0347
3550.00,0.0347
3549.00,0.0348
3548.00,0.0348
3547.00,0.0350
3546.00,0.0351
3545.00,0.0352
3544.00,0.0353
3543.00,0.0353
3542.00,0.0353
3541.00,0.0353
3540.00,0.0353
3539.00,0.0354
3538.00,0.0354
3537.00,0.0356
3536.00,0.0357
3535.00,0.0358
3534.00,0.0359
3533.00,0.0359
3532.00,0.0359
3531.00,0.0359
3530.00,0.0360
3529.00,0.0361
3528.00,0.0362
3527.00,0.0363
3526.00,0.0364
3525.00,0.0364
3524.00,0.0365
3523.00,0.0365
3522.00,0.0366
3521.00,0.0366
3520.00,0.0367
3519.00,0.0367
3518.00,0.0367
3517.00,0.0368
3516.00,0.0369
3515.00,0.0370
3514.00,0.0370
3513.00,0.0370
3512.00,0.0371
3511.00,0.0371
3510.00,0.0372
3509.00,0.0373
3508.00,0.0374
3507.00,0.0375
3506.00,0.0375
3505.00,0.0376
3504.00,0.0376
3503.00,0.0377
3502.00,0.0378
3501.00,0.0378
3500.00,0.0379
3499.00,0.0379
3498.00,0.0380
3497.00,0.0381
3496.00,0.0381
3495.00,0.0382
3494.00,0.0383
3493.00,0.0383
3492.00,0.0384
3491.00,0.0384
3490.00,0.0384
3489.00,0.0385
3488.00,0.0385
3487.00,0.0386
3486.00,0.0386
3485.00,0.0386
3484.00,0.0387
3483.00,0.0387
3482.00,0.0388
3481.00,0.0389
3480.00,0.0390
3479.00,0.0391
3478.00,0.0391
3477.00,0.0392
3476.00,0.0392
3475.00,0.0393
3474.00,0.0393
3473.00,0.0394
3472.00,0.0394
3471.00,0.0394
3470.00,0.0395
3469.00,0.0395
3468.00,0.0396
3467.00,0.0397
3466.00,0.0398
3465.00,0.0398
3464.00,0.0399
3463.00,0.0399
3462.00,0.0400
3461.00,0.0400
3460.00,0.0401
3459.00,0.0401
3458.00,0.0402
3457.00,0.0402
3456.00,0.0403
3455.00,0.0403
3454.00,0.0403
3453.00,0.0404
3452.00,0.0404
3451.00,0.0405
3450.00,0.0405
3449.00,0.0406
3448.00,0.0406
3447.00,0.0407
3446.00,0.0408
3445.00,0.0408
3444.00,0.0409
3443.00,0.0409
3442.00,0.0409
3441.00,0.0410
3440.00,0.0411
3439.00,0.0411
3438.00,0.0412
3437.00,0.0412
3436.00,0.0412
3435.00,0.0413
3434.00,0.0413
3433.00,0.0414
3432.00,0.0414
3431.00,0.0415
3430.00,0.0415
3429.00,0.0416
3428.00,0.0416
3427.00,0.0416
3426.00,0.0416
3425.00,0.0416
3424.00,0.0417
3423.00,0.0418
3422.00,0.0418
3421.00,0.0419
3420.00,0.0419
3419.00,0.0420
3418.00,0.0420
3417.00,0.0420
3416.00,0.0421
3415.00,0.0421
3414.00,0.0421
3413.00,0.0421
3412.00,0.0421
3411.00,0.0422
3410.00,0.0422
3409.00,0.0422
3408.00,0.0422
3407.00,0.0423
3406.00,0.0423
3405.00,0.0424
3404.00,0.0424
3403.00,0.0425
3402.00,0.0426
3401.00,0.0426
3400.00,0.0426
3399.00,0.0426
3398.00,0.0426
3397.00,0.0426
3396.00,0.0427
3395.00,0.0427
3394.00,0.0428
3393.00,0.0428
3392.00,0.0428
3391.00,0.0429
3390.00,0.0429
3389.00,0.0429
3388.00,0.0429
3387.00,0.0430
3386.00,0.0430
3385.00,0.0430
3384.00,0.0430
3383.00,0.0431
3382.00,0.0431
3381.00,0.0431
3380.00,0.0431
3379.00,0.0432
3378.00,0.0432
3377.00,0.0433
3376.00,0.0433
3375.00,0.0433
3374.00,0.0434
3373.00,0.0434
3372.00,0.0434
3371.00,0.0434
3370.00,0.0434
3369.00,0.0434
3368.00,0.0434
3367.00,0.0434
3366.00,0.0435
3365.00,0.0435
3364.00,0.0436
3363.00,0.0436
3362.00,0.0436
3361.00,0.0436
3360.00,0.0436
3359.00,0.0436
3358.00,0.0436
3357.00,0.0436
3356.00,0.0436
3355.00,0.0437
3354.00,0.0437
3353.00,0.0437
3352.00,0.0438
3351.00,0.0438
3350.00,0.0438
3349.00,0.0438
3348.00,0.0438
3347.00,0.0438
3346.00,0.0438
3345.00,0.0438
3344.00,0.0438
3343.00,0.0439
3342.00,0.0439
3341.00,0.0440
3340.00,0.0440
3339.00,0.0440
3338.00,0.0440
3337.00,0.0440
3336.00,0.0440
3335.00,0.0440
3334.00,0.0440
3333.00,0.0440
3332.00,0.0440
3331.00,0.0440
3330.00,0.0441
3329.00,0.0441
3328.00,0.0441
3327.00,0.0441
3326.00,0.0441
3325.00,0.0442
3324.00,0.0441
3323.00,0.0441
3322.00,0.0441
3321.00,0.0441
3320.00,0.0441
3319.00,0.0442
3318.00,0.0442
3317.00,0.0443
3316.00,0.0443
3315.00,0.0443
3314.00,0.0443
3313.00,0.0443
3312.00,0.0443
3311.00,0.0443
3310.00,0.0443
3309.00,0.0443
3308.00,0.0443
3307.00,0.0443
3306.00,0.0442
3305.00,0.0442
3304.00,0.0442
3303.00,0.0442
3302.00,0.0442
3301.00,0.0443
3300.00,0.0443
3299.00,0.0444
3298.00,0.0444
3297.00,0.0444
3296.00,0.0444
3295.00,0.0444
3294.00,0.0444
3293.00,0.0445
3292.00,0.0445
3291.00,0.0445
3290.00,0.0445
3289.00,0.0445
3288.00,0.0445
3287.00,0.0445
3286.00,0.0445
3285.00,0.0445
3284.00,0.0445
3283.00,0.0445
3282.00,0.0445
3281.00,0.0445
3280.00,0.0445
3279.00,0.0445
3278.00,0.0445
3277.00,0.0445
3276.00,0.0445
3275.00,0.0446
3274.00,0.0446
3273.00,0.0446
3272.00,0.0447
3271.00,0.0447
3270.00,0.0447
3269.00,0.0447
3268.00,0.0447
3267.00,0.0447
3266.00,0.0447
3265.00,0.0447
3264.00,0.0447
3263.00,0.0446
3262.00,0.0446
3261.00,0.0446
3260.00,0.0446
3259.00,0.0445
3258.00,0.0445
3257.00,0.0445
3256.00,0.0445
3255.00,0.0446
3254.00,0.0446
3253.00,0.0447
3252.00,0.0447
3251.00,0.0447
3250.00,0.0447
3249.00,0.0447
3248.00,0.0447
3247.00,0.0448
3246.00,0.0448
3245.00,0.0448
3244.00,0.0448
3243.00,0.0448
3242.00,0.0447
3241.00,0.0447
3240.00,0.0447
3239.00,0.0447
3238.00,0.0447
3237.00,0.0447
3236.00,0.0448
3235.00,0.0448
3234.00,0.0448
3233.00,0.0448
3232.00,0.0448
3231.00,0.0448
3230.00,0.0448
3229.00,0.0448
3228.00,0.0448
3227.00,0.0448
3226.00,0.0448
3225.00,0.0447
3224.00,0.0447
3223.00,0.0447
3222.00,0.0448
3221.00,0.0448
3220.00,0.0448
3219.00,0.0448
3218.00,0.0448
3217.00,0.0447
3216.00,0.0447
3215.00,0.0447
3214.00,0.0447
3213.00,0.0448
3212.00,0.0448
3211.00,0.0448
3210.00,0.0448
3209.00,0.0447
3208.00,0.0447
3207.00,0.0447
3206.00,0.0448
3205.00,0.0448
3204.00,0.0447
3203.00,0.0447
3202.00,0.0447
3201.00,0.0447
3200.00,0.0447
3199.00,0.0448
3198.00,0.0448
3197.00,0.0448
3196.00,0.0448
3195.00,0.0448
3194.00,0.0447
3193.00,0.0447
3192.00,0.0447
3191.00,0.0447
3190.00,0.0447
3189.00,0.0448
3188.00,0.0448
3187.00,0.0447
3186.00,0.0447
3185.00,0.0447
3184.00,0.0447
3183.00,0.0446
3182.00,0.0446
3181.00,0.0446
3180.00,0.0446
3179.00,0.0446
3178.00,0.0446
3177.00,0.0446
3176.00,0.0446
3175.00,0.0446
3174.00,0.0446
3173.00,0.0446
3172.00,0.0446
3171.00,0.0446
3170.00,0.0446
3169.00,0.0446
3168.00,0.0445
3167.00,0.0445
3166.00,0.0444
3165.00,0.0444
3164.00,0.0444
3163.00,0.0445
3162.00,0.0445
3161.00,0.0445
3160.00,0.0445
3159.00,0.0444
3158.00,0.0444
3157.00,0.0443
3156.00,0.0443
3155.00,0.0443
3154.00,0.0442
3153.00,0.0442
3152.00,0.0442
3151.00,0.0442
3150.00,0.0442
3149.00,0.0443
3148.00,0.0443
3147.00,0.0443
3146.00,0.0443
3145.00,0.0443
3144.00,0.0443
3143.00,0.0442
3142.00,0.0442
3141.00,0.0442
3140.00,0.0443
3139.00,0.0443
3138.00,0.0442
3137.00,0.0442
3136.00,0.0441
3135.00,0.0441
3134.00,0.0440
3133.00,0.0440
3132.00,0.0441
3131.00,0.0441
3130.00,0.0441
3129.00,0.0441
3128.00,0.0441
3127.00,0.0441
3126.00,0.0441
3125.00,0.0441
3124.00,0.0441
3123.00,0.0441
3122.00,0.0440
3121.00,0.0440
3120.00,0.0440
3119.00,0.0440
3118.00,0.0440
3117.00,0.0440
3116.00,0.0440
3115.00,0.0440
3114.00,0.0440
3113.00,0.0440
3112.00,0.0440
3111.00,0.0439
3110.00,0.0439
3109.00,0.0439
3108.00,0.0439
3107.00,0.0439
3106.00,0.0439
3105.00,0.0439
3104.00,0.0439
3103.00,0.0439
3102.00,0.0439
3101.00,0.0439
3100.00,0.0439
3099.00,0.0439
3098.00,0.0439
3097.00,0.0439
3096.00,0.0439
3095.00,0.0440
3094.00,0.0440
3093.00,0.0440
3092.00,0.0439
3091.00,0.0439
3090.00,0.0440
3089.00,0.0440
3088.00,0.0440
3087.00,0.0439
3086.00,0.0439
3085.00,0.0439
3084.00,0.0438
3083.00,0.0438
3082.00,0.0438
3081.00,0.0438
3080.00,0.0438
3079.00,0.0439
3078.00,0.0438
3077.00,0.0438
3076.00,0.0438
3075.00,0.0438
3074.00,0.0438
3073.00,0.0438
3072.00,0.0437
3071.00,0.0437
3070.00,0.0437
3069.00,0.0437
3068.00,0.0437
3067.00,0.0438
3066.00,0.0438
3065.00,0.0438
3064.00,0.0437
3063.00,0.0437
3062.00,0.0437
3061.00,0.0437
3060.00,0.0437
3059.00,0.0437
3058.00,0.0436
3057.00,0.0436
3056.00,0.0436
3055.00,0.0435
3054.00,0.0435
3053.00,0.0435
3052.00,0.0435
3051.00,0.0434
3050.00,0.0434
3049.00,0.0434
3048.00,0.0434
3047.00,0.0434
3046.00,0.0434
3045.00,0.0434
3044.00,0.0434
3043.00,0.0433
3042.00,0.0433
3041.00,0.0433
3040.00,0.0432
3039.00,0.0432
3038.00,0.0432
3037.00,0.0432
3036.00,0.0431
3035.00,0.0431
3034.00,0.0431
3033.00,0.0431
3032.00,0.0431
3031.00,0.0430
3030.00,0.0430
3029.00,0.0430
3028.00,0.0429
3027.00,0.0429
3026.00,0.0429
3025.00,0.0429
3024.00,0.0429
3023.00,0.0429
3022.00,0.0429
3021.00,0.0428
3020.00,0.0428
3019.00,0.0428
3018.00,0.0428
3017.00,0.0428
3016.00,0.0427
3015.00,0.0427
3014.00,0.0427
3013.00,0.0427
3012.00,0.0427
3011.00,0.0426
3010.00,0.0426
3009.00,0.0425
3008.00,0.0425
3007.00,0.0425
3006.00,0.0425
3005.00,0.0425
3004.00,0.0425
3003.00,0.0425
3002.00,0.0425
3001.00,0.0425
3000.00,0.0426
2999.00,0.0426
2998.00,0.0425
2997.00,0.0425
2996.00,0.0425
2995.00,0.0424
2994.00,0.0424
2993.00,0.0424
2992.00,0.0424
2991.00,0.0424
2990.00,0.0424
2989.00,0.0423
2988.00,0.0423
2987.00,0.0423
2986.00,0.0424
2985.00,0.0424
2984.00,0.0424
2983.00,0.0423
2982.00,0.0423
2981.00,0.0423
2980.00,0.0423
2979.00,0.0422
2978.00,0.0422
2977.00,0.0422
2976.00,0.0422
2975.00,0.0422
2974.00,0.0421
2973.00,0.0421
2972.00,0.0420
2971.00,0.0420
2970.00,0.0419
2969.00,0.0418
2968.00,0.0418
2967.00,0.0417
2966.00,0.0417
2965.00,0.0416
2964.00,0.0416
2963.00,0.0416
2962.00,0.0415
2961.00,0.0414
2960.00,0.0414
2959.00,0.0413
2958.00,0.0413
2957.00,0.0413
2956.00,0.0413
2955.00,0.0413
2954.00,0.0413
2953.00,0.0413
2952.00,0.0413
2951.00,0.0413
2950.00,0.0413
2949.00,0.0412
2948.00,0.0412
2947.00,0.0412
2946.00,0.0411
2945.00,0.0411
2944.00,0.0411
2943.00,0.0410
2942.00,0.0410
2941.00,0.0409
2940.00,0.0408
2939.00,0.0408
2938.00,0.0407
2937.00,0.0406
2936.00,0.0405
2935.00,0.0404
2934.00,0.0403
2933.00,0.0402
2932.00,0.0401
2931.00,0.0400
2930.00,0.0399
2929.00,0.0398
2928.00,0.0397
2927.00,0.0397
2926.00,0.0396
2925.00,0.0395
2924.00,0.0395
2923.00,0.0395
2922.00,0.0395
2921.00,0.0395
2920.00,0.0395
2919.00,0.0395
2918.00,0.0394
2917.00,0.0394
2916.00,0.0395
2915.00,0.0396
2914.00,0.0397
2913.00,0.0398
2912.00,0.0399
2911.00,0.0400
2910.00,0.0400
2909.00,0.0401
2908.00,0.0402
2907.00,0.0402
2906.00,0.0402
2905.00,0.0402
2904.00,0.0402
2903.00,0.0402
2902.00,0.0403
2901.00,0.0403
2900.00,0.0403
2899.00,0.0403
2898.00,0.0403
2897.00,0.0403
2896.00,0.0403
2895.00,0.0403
2894.00,0.0403
2893.00,0.0403
2892.00,0.0403
2891.00,0.0403
2890.00,0.0402
2889.00,0.0402
2888.00,0.0402
2887.00,0.0402
2886.00,0.0403
2885.00,0.0403
2884.00,0.0403
2883.00,0.0402
2882.00,0.0401
2881.00,0.0401
2880.00,0.0401
2879.00,0.0401
2878.00,0.0401
2877.00,0.0401
2876.00,0.0400
2875.00,0.0400
2874.00,0.0400
2873.00,0.0399
2872.00,0.0398
2871.00,0.0397
2870.00,0.0397
2869.00,0.0396
2868.00,0.0396
2867.00,0.0395
2866.00,0.0395
2865.00,0.0394
2864.00,0.0394
2863.00,0.0393
2862.00,0.0393
2861.00,0.0392
2860.00,0.0391
2859.00,0.0390
2858.00,0.0389
2857.00,0.0388
2856.00,0.0387
2855.00,0.0386
2854.00,0.0386
2853.00,0.0386
2852.00,0.0386
2851.00,0.0386
2850.00,0.0386
2849.00,0.0386
2848.00,0.0387
2847.00,0.0388
2846.00,0.0388
2845.00,0.0389
2844.00,0.0389
2843.00,0.0390
2842.00,0.0390
2841.00,0.0390
2840.00,0.0390
2839.00,0.0391
2838.00,0.0391
2837.00,0.0390
2836.00,0.0390
2835.00,0.0390
2834.00,0.0390
2833.00,0.0389
2832.00,0.0389
2831.00,0.0389
2830.00,0.0389
2829.00,0.0389
2828.00,0.0388
2827.00,0.0388
2826.00,0.0388
2825.00,0.0388
2824.00,0.0388
2823.00,0.0388
2822.00,0.0388
2821.00,0.0387
2820.00,0.0387
2819.00,0.0387
2818.00,0.0387
2817.00,0.0386
2816.00,0.0386
2815.00,0.0386
2814.00,0.0385
2813.00,0.0385
2812.00,0.0385
2811.00,0.0384
2810.00,0.0384
2809.00,0.0384
2808.00,0.0384
2807.00,0.0384
2806.00,0.0383
2805.00,0.0383
2804.00,0.0383
2803.00,0.0382
2802.00,0.0382
2801.00,0.0382
2800.00,0.0382
2799.00,0.0381
2798.00,0.0381
2797.00,0.0381
2796.00,0.0381
2795.00,0.0381
2794.00,0.0380
2793.00,0.0380
2792.00,0.0379
2791.00,0.0379
2790.00,0.0379
2789.00,0.0379
2788.00,0.0379
2787.00,0.0378
2786.00,0.0378
2785.00,0.0377
2784.00,0.0377
2783.00,0.0377
2782.00,0.0377
2781.00,0.0377
2780.00,0.0376
2779.00,0.0376
2778.00,0.0375
2777.00,0.0375
2776.00,0.0375
2775.00,0.0375
2774.00,0.0374
2773.00,0.0374
2772.00,0.0374
2771.00,0.0374
2770.00,0.0374
2769.00,0.0374
2768.00,0.0373
2767.00,0.0373
2766.00,0.0373
2765.00,0.0372
2764.00,0.0372
2763.00,0.0371
2762.00,0.0371
2761.00,0.0371
2760.00,0.0370
2759.00,0.0370
2758.00,0.0370
2757.00,0.0370
2756.00,0.0370
2755.00,0.0370
2754.00,0.0370
2753.00,0.0369
2752.00,0.0369
2751.00,0.0369
2750.00,0.0369
2749.00,0.0368
2748.00,0.0368
2747.00,0.0368
2746.00,0.0367
2745.00,0.0367
2744.00,0.0367
2743.00,0.0366
2742.00,0.0366
2741.00,0.0366
2740.00,0.0366
2739.00,0.0366
2738.00,0.0366
2737.00,0.0365
2736.00,0.0365
2735.00,0.0364
2734.00,0.0364
2733.00,0.0364
2732.00,0.0363
2731.00,0.0363
2730.00,0.0363
2729.00,0.0363
2728.00,0.0362
2727.00,0.0362
2726.00,0.0362
2725.00,0.0361
2724.00,0.0361
2723.00,0.0361
2722.00,0.0361
2721.00,0.0361
2720.00,0.0361
2719.00,0.0360
2718.00,0.0360
2717.00,0.0360
2716.00,0.0360
2715.00,0.0360
2714.00,0.0359
2713.00,0.0359
2712.00,0.0359
2711.00,0.0359
2710.00,0.0358
2709.00,0.0358
2708.00,0.0358
2707.00,0.0357
2706.00,0.0357
2705.00,0.0357
2704.00,0.0356
2703.00,0.0356
2702.00,0.0355
2701.00,0.0355
2700.00,0.0355
2699.00,0.0354
2698.00,0.0354
2697.00,0.0354
2696.00,0.0354
2695.00,0.0354
2694.00,0.0354
2693.00,0.0353
2692.00,0.0353
2691.00,0.0353
2690.00,0.0353
2689.00,0.0353
2688.00,0.0353
2687.00,0.0353
2686.00,0.0353
2685.00,0.0352
2684.00,0.0352
2683.00,0.0352
2682.00,0.0352
2681.00,0.0351
2680.00,0.0351
2679.00,0.0351
2678.00,0.0350
2677.00,0.0350
2676.00,0.0350
2675.00,0.0350
2674.00,0.0350
2673.00,0.0350
2672.00,0.0350
2671.00,0.0350
2670.00,0.0349
2669.00,0.0349
2668.00,0.0349
2667.00,0.0349
2666.00,0.0349
2665.00,0.0349
2664.00,0.0349
2663.00,0.0349
2662.00,0.0349
2661.00,0.0349
2660.00,0.0349
2659.00,0.0349
2658.00,0.0349
2657.00,0.0349
2656.00,0.0349
2655.00,0.0350
2654.00,0.0350
2653.00,0.0350
2652.00,0.0350
2651.00,0.0350
2650.00,0.0349
2649.00,0.0349
2648.00,0.0349
2647.00,0.0349
2646.00,0.0349
2645.00,0.0349
2644.00,0.0349
2643.00,0.0349
2642.00,0.0349
2641.00,0.0349
2640.00,0.0349
2639.00,0.0349
2638.00,0.0348
2637.00,0.0348
2636.00,0.0348
2635.00,0.0348
2634.00,0.0348
2633.00,0.0348
2632.00,0.0348
2631.00,0.0348
2630.00,0.0348
2629.00,0.0349
2628.00,0.0349
2627.00,0.0349
2626.00,0.0348
2625.00,0.0348
2624.00,0.0348
2623.00,0.0348
2622.00,0.0348
2621.00,0.0348
2620.00,0.0348
2619.00,0.0347
2618.00,0.0347
2617.00,0.0346
2616.00,0.0346
2615.00,0.0346
2614.00,0.0347
2613.00,0.0347
2612.00,0.0348
2611.00,0.0348
2610.00,0.0347
2609.00,0.0347
2608.00,0.0348
2607.00,0.0348
2606.00,0.0348
2605.00,0.0348
2604.00,0.0348
2603.00,0.0347
2602.00,0.0347
2601.00,0.0347
2600.00,0.0346
2599.00,0.0346
2598.00,0.0346
2597.00,0.0346
2596.00,0.0346
2595.00,0.0346
2594.00,0.0346
2593.00,0.0346
2592.00,0.0346
2591.00,0.0346
2590.00,0.0346
2589.00,0.0346
2588.00,0.0346
2587.00,0.0346
2586.00,0.0345
2585.00,0.0345
2584.00,0.0345
2583.00,0.0345
2582.00,0.0345
2581.00,0.0345
2580.00,0.0345
2579.00,0.0345
2578.00,0.0345
2577.00,0.0345
2576.00,0.0345
2575.00,0.0345
2574.00,0.0345
2573.00,0.0345
2572.00,0.0345
2571.00,0.0345
2570.00,0.0345
2569.00,0.0345
2568.00,0.0345
2567.00,0.0344
2566.00,0.0344
2565.00,0.0344
2564.00,0.0344
2563.00,0.0344
2562.00,0.0344
2561.00,0.0343
2560.00,0.0342
2559.00,0.0342
2558.00,0.0341
2557.00,0.0342
2556.00,0.0342
2555.00,0.0342
2554.00,0.0343
2553.00,0.0344
2552.00,0.0344
2551.00,0.0344
2550.00,0.0343
2549.00,0.0343
2548.00,0.0343
2547.00,0.0342
2546.00,0.0342
2545.00,0.0342
2544.00,0.0341
2543.00,0.0341
2542.00,0.0341
2541.00,0.0341
2540.00,0.0341
2539.00,0.0342
2538.00,0.0342
2537.00,0.0341
2536.00,0.0341
2535.00,0.0340
2534.00,0.0340
2533.00,0.0340
2532.00,0.0341
2531.00,0.0341
2530.00,0.0341
2529.00,0.0341
2528.00,0.0340
2527.00,0.0340
2526.00,0.0340
2525.00,0.0340
2524.00,0.0340
2523.00,0.0341
2522.00,0.0341
2521.00,0.0341
2520.00,0.0340
2519.00,0.0340
2518.00,0.0339
2517.00,0.0338
2516.00,0.0338
2515.00,0.0338
2514.00,0.0338
2513.00,0.0339
2512.00,0.0339
2511.00,0.0339
2510.00,0.0339
2509.00,0.0338
2508.00,0.0338
2507.00,0.0338
2506.00,0.0338
2505.00,0.0339
2504.00,0.0339
2503.00,0.0338
2502.00,0.0338
2501.00,0.0338
2500.00,0.0338
2499.00,0.0338
2498.00,0.0338
2497.00,0.0338
2496.00,0.0338
2495.00,0.0338
2494.00,0.0338
2493.00,0.0337
2492.00,0.0337
2491.00,0.0337
2490.00,0.0337
2489.00,0.0337
2488.00,0.0337
2487.00,0.0337
2486.00,0.0337
2485.00,0.0336
2484.00,0.0336
2483.00,0.0336
2482.00,0.0336
2481.00,0.0336
2480.00,0.0336
2479.00,0.0336
2478.00,0.0336
2477.00,0.0336
2476.00,0.0336
2475.00,0.0336
2474.00,0.0336
2473.00,0.0335
2472.00,0.0335
2471.00,0.0334
2470.00,0.0334
2469.00,0.0334
2468.00,0.0334
2467.00,0.0334
2466.00,0.0334
2465.00,0.0334
2464.00,0.0334
2463.00,0.0334
2462.00,0.0334
2461.00,0.0334
2460.00,0.0334
2459.00,0.0334
2458.00,0.0334
2457.00,0.0334
2456.00,0.0334
2455.00,0.0334
2454.00,0.0334
2453.00,0.0334
2452.00,0.0334
2451.00,0.0333
2450.00,0.0333
2449.00,0.0332
2448.00,0.0332
2447.00,0.0332
2446.00,0.0332
2445.00,0.0332
2444.00,0.0332
2443.00,0.0332
2442.00,0.0332
2441.00,0.0332
2440.00,0.0331
2439.00,0.0331
2438.00,0.0330
2437.00,0.0330
2436.00,0.0329
2435.00,0.0329
2434.00,0.0329
2433.00,0.0329
2432.00,0.0329
2431.00,0.0329
2430.00,0.0329
2429.00,0.0329
2428.00,0.0328
2427.00,0.0328
2426.00,0.0328
2425.00,0.0328
2424.00,0.0328
2423.00,0.0328
2422.00,0.0328
2421.00,0.0328
2420.00,0.0328
2419.00,0.0327
2418.00,0.0327
2417.00,0.0327
2416.00,0.0326
2415.00,0.0326
2414.00,0.0326
2413.00,0.0326
2412.00,0.0326
2411.00,0.0326
2410.00,0.0325
2409.00,0.0325
2408.00,0.0324
2407.00,0.0324
2406.00,0.0324
2405.00,0.0323
2404.00,0.0323
2403.00,0.0323
2402.00,0.0323
2401.00,0.0323
2400.00,0.0322
2399.00,0.0322
2398.00,0.0321
2397.00,0.0321
2396.00,0.0321
2395.00,0.0321
2394.00,0.0321
2393.00,0.0320
2392.00,0.0320
2391.00,0.0320
2390.00,0.0321
2389.00,0.0321
2388.00,0.0320
2387.00,0.0320
2386.00,0.0320
2385.00,0.0320
2384.00,0.0321
2383.00,0.0321
2382.00,0.0321
2381.00,0.0320
2380.00,0.0318
2379.00,0.0317
2378.00,0.0315
2377.00,0.0313
2376.00,0.0312
2375.00,0.0312
2374.00,0.0312
2373.00,0.0312
2372.00,0.0313
2371.00,0.0315
2370.00,0.0316
2369.00,0.0316
2368.00,0.0315
2367.00,0.0314
2366.00,0.0314
2365.00,0.0314
2364.00,0.0313
2363.00,0.0313
2362.00,0.0313
2361.00,0.0314
2360.00,0.0315
2359.00,0.0315
2358.00,0.0315
2357.00,0.0314
2356.00,0.0313
2355.00,0.0312
2354.00,0.0310
2353.00,0.0309
2352.00,0.0309
2351.00,0.0309
2350.00,0.0311
2349.00,0.0311
2348.00,0.0311
2347.00,0.0311
2346.00,0.0311
2345.00,0.0311
2344.00,0.0311
2343.00,0.0312
2342.00,0.0312
2341.00,0.0312
2340.00,0.0310
2339.00,0.0309
2338.00,0.0308
2337.00,0.0308
2336.00,0.0308
2335.00,0.0308
2334.00,0.0308
2333.00,0.0309
2332.00,0.0309
2331.00,0.0308
2330.00,0.0308
2329.00,0.0309
2328.00,0.0310
2327.00,0.0312
2326.00,0.0314
2325.00,0.0314
2324.00,0.0313
2323.00,0.0312
2322.00,0.0311
2321.00,0.0310
2320.00,0.0309
2319.00,0.0309
2318.00,0.0309
2317.00,0.0310
2316.00,0.0310
2315.00,0.0310
2314.00,0.0310
2313.00,0.0310
2312.00,0.0310
2311.00,0.0310
2310.00,0.0310
2309.00,0.0310
2308.00,0.0310
2307.00,0.0310
2306.00,0.0310
2305.00,0.0310
2304.00,0.0310
2303.00,0.0310
2302.00,0.0309
2301.00,0.0309
2300.00,0.0308
2299.00,0.0308
2298.00,0.0309
2297.00,0.0310
2296.00,0.0310
2295.00,0.0310
2294.00,0.0310
2293.00,0.0310
2292.00,0.0310
2291.00,0.0310
2290.00,0.0310
2289.00,0.0311
2288.00,0.0311
2287.00,0.0312
2286.00,0.0311
2285.00,0.0311
2284.00,0.0311
2283.00,0.0310
2282.00,0.0310
2281.00,0.0310
2280.00,0.0309
2279.00,0.0309
2278.00,0.0309
2277.00,0.0308
2276.00,0.0308
2275.00,0.0307
2274.00,0.0307
2273.00,0.0307
2272.00,0.0307
2271.00,0.0307
2270.00,0.0307
2269.00,0.0307
2268.00,0.0307
2267.00,0.0306
2266.00,0.0306
2265.00,0.0306
2264.00,0.0307
2263.00,0.0307
2262.00,0.0307
2261.00,0.0308
2260.00,0.0308
2259.00,0.0307
2258.00,0.0307
2257.00,0.0306
2256.00,0.0305
2255.00,0.0304
2254.00,0.0304
2253.00,0.0304
2252.00,0.0304
2251.00,0.0304
2250.00,0.0304
2249.00,0.0304
2248.00,0.0304
2247.00,0.0304
2246.00,0.0304
2245.00,0.0303
2244.00,0.0303
2243.00,0.0302
2242.00,0.0301
2241.00,0.0301
2240.00,0.0301
2239.00,0.0301
2238.00,0.0301
2237.00,0.0301
2236.00,0.0301
2235.00,0.0301
2234.00,0.0302
2233.00,0.0303
2232.00,0.0303
2231.00,0.0303
2230.00,0.0302
2229.00,0.0302
2228.00,0.0301
2227.00,0.0301
2226.00,0.0301
2225.00,0.0302
2224.00,0.0302
2223.00,0.0302
2222.00,0.0302
2221.00,0.0302
2220.00,0.0302
2219.00,0.0301
2218.00,0.0301
2217.00,0.0301
2216.00,0.0300
2215.00,0.0301
2214.00,0.0301
2213.00,0.0301
2212.00,0.0301
2211.00,0.0299
2210.00,0.0298
2209.00,0.0298
2208.00,0.0298
2207.00,0.0298
2206.00,0.0297
2205.00,0.0297
2204.00,0.0297
2203.00,0.0297
2202.00,0.0298
2201.00,0.0299
2200.00,0.0300
2199.00,0.0300
2198.00,0.0300
2197.00,0.0299
2196.00,0.0298
2195.00,0.0298
2194.00,0.0298
2193.00,0.0298
2192.00,0.0298
2191.00,0.0297
2190.00,0.0297
2189.00,0.0298
2188.00,0.0300
2187.00,0.0302
2186.00,0.0302
2185.00,0.0301
2184.00,0.0299
2183.00,0.0297
2182.00,0.0296
2181.00,0.0296
2180.00,0.0296
2179.00,0.0295
2178.00,0.0294
2177.00,0.0293
2176.00,0.0293
2175.00,0.0294
2174.00,0.0296
2173.00,0.0297
2172.00,0.0298
2171.00,0.0300
2170.00,0.0301
2169.00,0.0302
2168.00,0.0302
2167.00,0.0301
2166.00,0.0300
2165.00,0.0301
2164.00,0.0304
2163.00,0.0305
2162.00,0.0304
2161.00,0.0299
2160.00,0.0292
2159.00,0.0286
2158.00,0.0283
2157.00,0.0282
2156.00,0.0283
2155.00,0.0282
2154.00,0.0282
2153.00,0.0281
2152.00,0.0281
2151.00,0.0281
2150.00,0.0280
2149.00,0.0280
2148.00,0.0280
2147.00,0.0280
2146.00,0.0281
2145.00,0.0282
2144.00,0.0282
2143.00,0.0282
2142.00,0.0281
2141.00,0.0280
2140.00,0.0279
2139.00,0.0278
2138.00,0.0277
2137.00,0.0276
2136.00,0.0274
2135.00,0.0272
2134.00,0.0272
2133.00,0.0272
2132.00,0.0272
2131.00,0.0272
2130.00,0.0272
2129.00,0.0272
2128.00,0.0273
2127.00,0.0273
2126.00,0.0273
2125.00,0.0273
2124.00,0.0273
2123.00,0.0272
2122.00,0.0272
2121.00,0.0272
2120.00,0.0273
2119.00,0.0274
2118.00,0.0275
2117.00,0.0276
2116.00,0.0276
2115.00,0.0275
2114.00,0.0275
2113.00,0.0275
2112.00,0.0276
2111.00,0.0276
2110.00,0.0276
2109.00,0.0276
2108.00,0.0275
2107.00,0.0273
2106.00,0.0272
2105.00,0.0271
2104.00,0.0271
2103.00,0.0271
2102.00,0.0271
2101.00,0.0272
2100.00,0.0271
2099.00,0.0270
2098.00,0.0269
2097.00,0.0268
2096.00,0.0268
2095.00,0.0268
2094.00,0.0268
2093.00,0.0269
2092.00,0.0269
2091.00,0.0270
2090.00,0.0269
2089.00,0.0268
2088.00,0.0267
2087.00,0.0267
2086.00,0.0267
2085.00,0.0267
2084.00,0.0267
2083.00,0.0267
2082.00,0.0266
2081.00,0.0266
2080.00,0.0265
2079.00,0.0265
2078.00,0.0265
2077.00,0.0266
2076.00,0.0266
2075.00,0.0265
2074.00,0.0265
2073.00,0.0265
2072.00,0.0265
2071.00,0.0265
2070.00,0.0265
2069.00,0.0265
2068.00,0.0265
2067.00,0.0265
2066.00,0.0264
2065.00,0.0264
2064.00,0.0263
2063.00,0.0262
2062.00,0.0262
2061.00,0.0263
2060.00,0.0263
2059.00,0.0263
2058.00,0.0263
2057.00,0.0264
2056.00,0.0264
2055.00,0.0264
2054.00,0.0265
2053.00,0.0266
2052.00,0.0266
2051.00,0.0266
2050.00,0.0266
2049.00,0.0265
2048.00,0.0264
2047.00,0.0263
2046.00,0.0262
2045.00,0.0262
2044.00,0.0262
2043.00,0.0262
2042.00,0.0262
2041.00,0.0263
2040.00,0.0264
2039.00,0.0265
2038.00,0.0268
2037.00,0.0270
2036.00,0.0270
2035.00,0.0270
2034.00,0.0268
2033.00,0.0267
2032.00,0.0265
2031.00,0.0263
2030.00,0.0263
2029.00,0.0262
2028.00,0.0262
2027.00,0.0260
2026.00,0.0259
2025.00,0.0258
2024.00,0.0258
2023.00,0.0259
2022.00,0.0259
2021.00,0.0259
2020.00,0.0259
2019.00,0.0258
2018.00,0.0257
2017.00,0.0256
2016.00,0.0255
2015.00,0.0254
2014.00,0.0255
2013.00,0.0258
2012.00,0.0259
2011.00,0.0260
2010.00,0.0259
2009.00,0.0256
2008.00,0.0254
2007.00,0.0252
2006.00,0.0250
2005.00,0.0250
2004.00,0.0251
2003.00,0.0251
2002.00,0.0252
2001.00,0.0253
2000.00,0.0253
1999.00,0.0253
1998.00,0.0253
1997.00,0.0254
1996.00,0.0254
1995.00,0.0253
1994.00,0.0253
1993.00,0.0252
1992.00,0.0252
1991.00,0.0251
1990.00,0.0251
1989.00,0.0250
1988.00,0.0247
1987.00,0.0245
1986.00,0.0245
1985.00,0.0247
1984.00,0.0250
1983.00,0.0253
1982.00,0.0255
1981.00,0.0257
1980.00,0.0257
1979.00,0.0255
1978.00,0.0252
1977.00,0.0250
1976.00,0.0248
1975.00,0.0247
1974.00,0.0245
1973.00,0.0244
1972.00,0.0244
1971.00,0.0244
1970.00,0.0244
1969.00,0.0244
1968.00,0.0243
1967.00,0.0242
1966.00,0.0242
1965.00,0.0243
1964.00,0.0243
1963.00,0.0242
1962.00,0.0241
1961.00,0.0239
1960.00,0.0237
1959.00,0.0236
1958.00,0.0234
1957.00,0.0233
1956.00,0.0233
1955.00,0.0233
1954.00,0.0233
1953.00,0.0232
1952.00,0.0231
1951.00,0.0231
1950.00,0.0231
1949.00,0.0232
1948.00,0.0232
1947.00,0.0233
1946.00,0.0232
1945.00,0.0232
1944.00,0.0231
1943.00,0.0229
1942.00,0.0228
1941.00,0.0228
1940.00,0.0227
1939.00,0.0227
1938.00,0.0226
1937.00,0.0226
1936.00,0.0226
1935.00,0.0226
1934.00,0.0227
1933.00,0.0227
1932.00,0.0226
1931.00,0.0225
1930.00,0.0224
1929.00,0.0223
1928.00,0.0222
1927.00,0.0221
1926.00,0.0221
1925.00,0.0222
1924.00,0.0223
1923.00,0.0222
1922.00,0.0222
1921.00,0.0221
1920.00,0.0221
1919.00,0.0220
1918.00,0.0218
1917.00,0.0216
1916.00,0.0215
1915.00,0.0216
1914.00,0.0217
1913.00,0.0218
1912.00,0.0217
1911.00,0.0216
1910.00,0.0215
1909.00,0.0214
1908.00,0.0213
1907.00,0.0213
1906.00,0.0213
1905.00,0.0213
1904.00,0.0212
1903.00,0.0211
1902.00,0.0210
1901.00,0.0210
1900.00,0.0209
1899.00,0.0210
1898.00,0.0210
1897.00,0.0210
1896.00,0.0208
1895.00,0.0207
1894.00,0.0206
1893.00,0.0206
1892.00,0.0207
1891.00,0.0206
1890.00,0.0205
1889.00,0.0203
1888.00,0.0202
1887.00,0.0203
1886.00,0.0204
1885.00,0.0204
1884.00,0.0203
1883.00,0.0202
1882.00,0.0201
1881.00,0.0201
1880.00,0.0200
1879.00,0.0199
1878.00,0.0199
1877.00,0.0198
1876.00,0.0198
1875.00,0.0198
1874.00,0.0198
1873.00,0.0199
1872.00,0.0199
1871.00,0.0199
1870.00,0.0198
1869.00,0.0196
1868.00,0.0192
1867.00,0.0190
1866.00,0.0190
1865.00,0.0191
1864.00,0.0192
1863.00,0.0192
1862.00,0.0192
1861.00,0.0191
1860.00,0.0191
1859.00,0.0190
1858.00,0.0190
1857.00,0.0189
1856.00,0.0189
1855.00,0.0188
1854.00,0.0187
1853.00,0.0186
1852.00,0.0186
1851.00,0.0186
1850.00,0.0187
1849.00,0.0188
1848.00,0.0188
1847.00,0.0188
1846.00,0.0187
1845.00,0.0185
1844.00,0.0182
1843.00,0.0179
1842.00,0.0179
1841.00,0.0180
1840.00,0.0181
1839.00,0.0181
1838.00,0.0180
1837.00,0.0179
1836.00,0.0178
1835.00,0.0178
1834.00,0.0179
1833.00,0.0179
1832.00,0.0180
1831.00,0.0178
1830.00,0.0173
1829.00,0.0170
1828.00,0.0169
1827.00,0.0170
1826.00,0.0171
1825.00,0.0170
1824.00,0.0170
1823.00,0.0170
1822.00,0.0170
1821.00,0.0170
1820.00,0.0170
1819.00,0.0169
1818.00,0.0168
1817.00,0.0167
1816.00,0.0167
1815.00,0.0166
1814.00,0.0167
1813.00,0.0167
1812.00,0.0166
1811.00,0.0164
1810.00,0.0163
1809.00,0.0163
1808.00,0.0163
1807.00,0.0164
1806.00,0.0164
1805.00,0.0165
1804.00,0.0166
1803.00,0.0167
1802.00,0.0167
1801.00,0.0165
1800.00,0.0164
1799.00,0.0163
1798.00,0.0165
1797.00,0.0167
1796.00,0.0170
1795.00,0.0171
1794.00,0.0172
1793.00,0.0171
1792.00,0.0168
1791.00,0.0166
1790.00,0.0167
1789.00,0.0169
1788.00,0.0173
1787.00,0.0176
1786.00,0.0178
1785.00,0.0180
1784.00,0.0181
1783.00,0.0182
1782.00,0.0183
1781.00,0.0184
1780.00,0.0185
1779.00,0.0186
1778.00,0.0189
1777.00,0.0193
1776.00,0.0196
1775.00,0.0199
1774.00,0.0201
1773.00,0.0201
1772.00,0.0199
1771.00,0.0199
1770.00,0.0202
1769.00,0.0207
1768.00,0.0211
1767.00,0.0213
1766.00,0.0215
1765.00,0.0218
1764.00,0.0221
1763.00,0.0223
1762.00,0.0224
1761.00,0.0225
1760.00,0.0227
1759.00,0.0230
1758.00,0.0233
1757.00,0.0235
1756.00,0.0236
1755.00,0.0239
1754.00,0.0244
1753.00,0.0249
1752.00,0.0255
1751.00,0.0258
1750.00,0.0259
1749.00,0.0259
1748.00,0.0259
1747.00,0.0262
1746.00,0.0266
1745.00,0.0271
1744.00,0.0275
1743.00,0.0278
1742.00,0.0281
1741.00,0.0284
1740.00,0.0288
1739.00,0.0291
1738.00,0.0295
1737.00,0.0301
1736.00,0.0307
1735.00,0.0314
1734.00,0.0318
1733.00,0.0320
1732.00,0.0321
1731.00,0.0324
1730.00,0.0326
1729.00,0.0330
1728.00,0.0335
1727.00,0.0340
1726.00,0.0344
1725.00,0.0348
1724.00,0.0352
1723.00,0.0355
1722.00,0.0357
1721.00,0.0359
1720.00,0.0360
1719.00,0.0362
1718.00,0.0365
1717.00,0.0368
1716.00,0.0368
1715.00,0.0369
1714.00,0.0370
1713.00,0.0373
1712.00,0.0375
1711.00,0.0377
1710.00,0.0379
1709.00,0.0380
1708.00,0.0381
1707.00,0.0381
1706.00,0.0380
1705.00,0.0381
1704.00,0.0382
1703.00,0.0383
1702.00,0.0384
1701.00,0.0385
1700.00,0.0386
1699.00,0.0387
1698.00,0.0389
1697.00,0.0390
1696.00,0.0390
1695.00,0.0389
1694.00,0.0390
1693.00,0.0390
1692.00,0.0391
1691.00,0.0391
1690.00,0.0392
1689.00,0.0393
1688.00,0.0393
1687.00,0.0394
1686.00,0.0394
1685.00,0.0393
1684.00,0.0391
1683.00,0.0389
1682.00,0.0393
1681.00,0.0397
1680.00,0.0400
1679.00,0.0403
1678.00,0.0405
1677.00,0.0406
1676.00,0.0409
1675.00,0.0411
1674.00,0.0413
1673.00,0.0414
1672.00,0.0416
1671.00,0.0418
1670.00,0.0420
1669.00,0.0422
1668.00,0.0426
1667.00,0.0430
1666.00,0.0434
1665.00,0.0436
1664.00,0.0439
1663.00,0.0442
1662.00,0.0446
1661.00,0.0450
1660.00,0.0454
1659.00,0.0458
1658.00,0.0461
1657.00,0.0462
1656.00,0.0462
1655.00,0.0463
1654.00,0.0468
1653.00,0.0473
1652.00,0.0478
1651.00,0.0483
1650.00,0.0484
1649.00,0.0485
1648.00,0.0489
1647.00,0.0494
1646.00,0.0500
1645.00,0.0505
1644.00,0.0510
1643.00,0.0514
1642.00,0.0517
1641.00,0.0520
1640.00,0.0522
1639.00,0.0523
1638.00,0.0524
1637.00,0.0528
1636.00,0.0533
1635.00,0.0538
1634.00,0.0544
1633.00,0.0550
1632.00,0.0554
1631.00,0.0557
1630.00,0.0560
1629.00,0.0564
1628.00,0.0567
1627.00,0.0571
1626.00,0.0574
1625.00,0.0578
1624.00,0.0583
1623.00,0.0589
1622.00,0.0594
1621.00,0.0597
1620.00,0.0600
1619.00,0.0602
1618.00,0.0607
1617.00,0.0613
1616.00,0.0618
1615.00,0.0622
1614.00,0.0625
1613.00,0.0627
1612.00,0.0631
1611.00,0.0634
1610.00,0.0638
1609.00,0.0641
1608.00,0.0644
1607.00,0.0648
1606.00,0.0651
1605.00,0.0653
1604.00,0.0656
1603.00,0.0659
1602.00,0.0662
1601.00,0.0664
1600.00,0.0667
1599.00,0.0670
1598.00,0.0672
1597.00,0.0674
1596.00,0.0677
1595.00,0.0680
1594.00,0.0683
1593.00,0.0685
1592.00,0.0687
1591.00,0.0689
1590.00,0.0692
1589.00,0.0693
1588.00,0.0695
1587.00,0.0697
1586.00,0.0698
1585.00,0.0699
1584.00,0.0701
1583.00,0.0703
1582.00,0.0705
1581.00,0.0705
1580.00,0.0705
1579.00,0.0704
1578.00,0.0704
1577.00,0.0707
1576.00,0.0711
1575.00,0.0713
1574.00,0.0712
1573.00,0.0710
1572.00,0.0707
1571.00,0.0706
1570.00,0.0708
1569.00,0.0709
1568.00,0.0710
1567.00,0.0710
1566.00,0.0709
1565.00,0.0708
1564.00,0.0706
1563.00,0.0703
1562.00,0.0697
1561.00,0.0689
1560.00,0.0687
1559.00,0.0693
1558.00,0.0695
1557.00,0.0696
1556.00,0.0697
1555.00,0.0697
1554.00,0.0696
1553.00,0.0694
1552.00,0.0691
1551.00,0.0689
1550.00,0.0686
1549.00,0.0683
1548.00,0.0680
1547.00,0.0677
1546.00,0.0674
1545.00,0.0671
1544.00,0.0667
1543.00,0.0661
1542.00,0.0655
1541.00,0.0650
1540.00,0.0645
1539.00,0.0642
1538.00,0.0643
1537.00,0.0642
1536.00,0.0638
1535.00,0.0634
1534.00,0.0630
1533.00,0.0627
1532.00,0.0624
1531.00,0.0622
1530.00,0.0619
1529.00,0.0616
1528.00,0.0613
1527.00,0.0610
1526.00,0.0607
1525.00,0.0603
1524.00,0.0598
1523.00,0.0594
1522.00,0.0591
1521.00,0.0588
1520.00,0.0584
1519.00,0.0580
1518.00,0.0575
1517.00,0.0571
1516.00,0.0570
1515.00,0.0569
1514.00,0.0568
1513.00,0.0567
1512.00,0.0565
1511.00,0.0562
1510.00,0.0559
1509.00,0.0555
1508.00,0.0553
1507.00,0.0547
1506.00,0.0540
1505.00,0.0539
1504.00,0.0541
1503.00,0.0540
1502.00,0.0538
1501.00,0.0535
1500.00,0.0532
1499.00,0.0529
1498.00,0.0527
1497.00,0.0527
1496.00,0.0528
1495.00,0.0528
1494.00,0.0527
1493.00,0.0526
1492.00,0.0526
1491.00,0.0526
1490.00,0.0525
1489.00,0.0523
1488.00,0.0521
1487.00,0.0520
1486.00,0.0520
1485.00,0.0521
1484.00,0.0522
1483.00,0.0523
1482.00,0.0523
1481.00,0.0524
1480.00,0.0524
1479.00,0.0524
1478.00,0.0523
1477.00,0.0524
1476.00,0.0526
1475.00,0.0528
1474.00,0.0531
1473.00,0.0533
1472.00,0.0534
1471.00,0.0533
1470.00,0.0534
1469.00,0.0534
1468.00,0.0535
1467.00,0.0535
1466.00,0.0536
1465.00,0.0538
1464.00,0.0540
1463.00,0.0541
1462.00,0.0542
1461.00,0.0541
1460.00,0.0541
1459.00,0.0542
1458.00,0.0546
1457.00,0.0551
1456.00,0.0554
1455.00,0.0556
1454.00,0.0556
1453.00,0.0556
1452.00,0.0558
1451.00,0.0560
1450.00,0.0562
1449.00,0.0564
1448.00,0.0567
1447.00,0.0568
1446.00,0.0570
1445.00,0.0571
1444.00,0.0572
1443.00,0.0573
1442.00,0.0575
1441.00,0.0576
1440.00,0.0578
1439.00,0.0579
1438.00,0.0582
1437.00,0.0586
1436.00,0.0590
1435.00,0.0591
1434.00,0.0592
1433.00,0.0592
1432.00,0.0593
1431.00,0.0595
1430.00,0.0596
1429.00,0.0598
1428.00,0.0600
1427.00,0.0602
1426.00,0.0603
1425.00,0.0604
1424.00,0.0606
1423.00,0.0607
1422.00,0.0608
1421.00,0.0609
1420.00,0.0612
1419.00,0.0616
1418.00,0.0618
1417.00,0.0620
1416.00,0.0621
1415.00,0.0622
1414.00,0.0623
1413.00,0.0624
1412.00,0.0626
1411.00,0.0627
1410.00,0.0628
1409.00,0.0629
1408.00,0.0630
1407.00,0.0631
1406.00,0.0633
1405.00,0.0635
1404.00,0.0637
1403.00,0.0639
1402.00,0.0639
1401.00,0.0640
1400.00,0.0642
1399.00,0.0645
1398.00,0.0647
1397.00,0.0649
1396.00,0.0652
1395.00,0.0654
1394.00,0.0655
1393.00,0.0656
1392.00,0.0657
1391.00,0.0658
1390.00,0.0659
1389.00,0.0661
1388.00,0.0664
1387.00,0.0667
1386.00,0.0668
1385.00,0.0668
1384.00,0.0669
1383.00,0.0670
1382.00,0.0671
1381.00,0.0672
1380.00,0.0673
1379.00,0.0674
1378.00,0.0675
1377.00,0.0674
1376.00,0.0674
1375.00,0.0675
1374.00,0.0676
1373.00,0.0677
1372.00,0.0678
1371.00,0.0679
1370.00,0.0679
1369.00,0.0679
1368.00,0.0679
1367.00,0.0679
1366.00,0.0678
1365.00,0.0678
1364.00,0.0678
1363.00,0.0679
1362.00,0.0679
1361.00,0.0678
1360.00,0.0677
1359.00,0.0677
1358.00,0.0676
1357.00,0.0675
1356.00,0.0674
1355.00,0.0674
1354.00,0.0673
1353.00,0.0672
1352.00,0.0671
1351.00,0.0670
1350.00,0.0669
1349.00,0.0668
1348.00,0.0667
1347.00,0.0665
1346.00,0.0664
1345.00,0.0663
1344.00,0.0662
1343.00,0.0661
1342.00,0.0660
1341.00,0.0660
1340.00,0.0660
1339.00,0.0660
1338.00,0.0658
1337.00,0.0657
1336.00,0.0655
1335.00,0.0653
1334.00,0.0651
1333.00,0.0650
1332.00,0.0649
1331.00,0.0648
1330.00,0.0647
1329.00,0.0646
1328.00,0.0645
1327.00,0.0644
1326.00,0.0643
1325.00,0.0642
1324.00,0.0642
1323.00,0.0641
1322.00,0.0641
1321.00,0.0641
1320.00,0.0640
1319.00,0.0640
1318.00,0.0640
1317.00,0.0639
1316.00,0.0640
1315.00,0.0639
1314.00,0.0639
1313.00,0.0639
1312.00,0.0638
1311.00,0.0638
1310.00,0.0637
1309.00,0.0637
1308.00,0.0636
1307.00,0.0636
1306.00,0.0636
1305.00,0.0636
1304.00,0.0636
1303.00,0.0637
1302.00,0.0637
1301.00,0.0637
1300.00,0.0637
1299.00,0.0638
1298.00,0.0638
1297.00,0.0639
1296.00,0.0639
1295.00,0.0639
1294.00,0.0639
1293.00,0.0640
1292.00,0.0641
1291.00,0.0641
1290.00,0.0642
1289.00,0.0643
1288.00,0.0644
1287.00,0.0644
1286.00,0.0645
1285.00,0.0645
1284.00,0.0646
1283.00,0.0647
1282.00,0.0648
1281.00,0.0649
1280.00,0.0650
1279.00,0.0651
1278.00,0.0651
1277.00,0.0651
1276.00,0.0652
1275.00,0.0653
1274.00,0.0654
1273.00,0.0654
1272.00,0.0655
1271.00,0.0655
1270.00,0.0656
1269.00,0.0656
1268.00,0.0657
1267.00,0.0657
1266.00,0.0658
1265.00,0.0659
1264.00,0.0659
1263.00,0.0660
1262.00,0.0661
1261.00,0.0661
1260.00,0.0662
1259.00,0.0662
1258.00,0.0662
1257.00,0.0663
1256.00,0.0663
1255.00,0.0664
1254.00,0.0665
1253.00,0.0665
1252.00,0.0665
1251.00,0.0665
1250.00,0.0665
1249.00,0.0665
1248.00,0.0666
1247.00,0.0666
1246.00,0.0667
1245.00,0.0666
1244.00,0.0666
1243.00,0.0666
1242.00,0.0666
1241.00,0.0666
1240.00,0.0667
1239.00,0.0667
1238.00,0.0666
1237.00,0.0666
1236.00,0.0666
1235.00,0.0666
1234.00,0.0666
1233.00,0.0665
1232.00,0.0665
1231.00,0.0665
1230.00,0.0664
1229.00,0.0664
1228.00,0.0663
1227.00,0.0662
1226.00,0.0662
1225.00,0.0661
1224.00,0.0660
1223.00,0.0659
1222.00,0.0658
1221.00,0.0658
1220.00,0.0657
1219.00,0.0656
1218.00,0.0655
1217.00,0.0654
1216.00,0.0653
1215.00,0.0653
1214.00,0.0653
1213.00,0.0653
1212.00,0.0653
1211.00,0.0652
1210.00,0.0651
1209.00,0.0650
1208.00,0.0650
1207.00,0.0649
1206.00,0.0649
1205.00,0.0649
1204.00,0.0649
1203.00,0.0649
1202.00,0.0648
1201.00,0.0647
1200.00,0.0647
1199.00,0.0646
1198.00,0.0645
1197.00,0.0644
1196.00,0.0644
1195.00,0.0644
1194.00,0.0643
1193.00,0.0643
1192.00,0.0643
1191.00,0.0643
1190.00,0.0643
1189.00,0.0643
1188.00,0.0642
1187.00,0.0642
1186.00,0.0641
1185.00,0.0641
1184.00,0.0641
1183.00,0.0641
1182.00,0.0641
1181.00,0.0640
1180.00,0.0640
1179.00,0.0641
1178.00,0.0641
1177.00,0.0641
1176.00,0.0641
1175.00,0.0641
1174.00,0.0640
1173.00,0.0639
1172.00,0.0638
1171.00,0.0637
1170.00,0.0637
1169.00,0.0636
1168.00,0.0636
1167.00,0.0636
1166.00,0.0636
1165.00,0.0636
1164.00,0.0636
1163.00,0.0636
1162.00,0.0636
1161.00,0.0635
1160.00,0.0634
1159.00,0.0634
1158.00,0.0633
1157.00,0.0633
1156.00,0.0632
1155.00,0.0632
1154.00,0.0632
1153.00,0.0632
1152.00,0.0631
1151.00,0.0631
1150.00,0.0631
1149.00,0.0631
1148.00,0.0631
1147.00,0.0631
1146.00,0.0631
1145.00,0.0631
1144.00,0.0632
1143.00,0.0632
1142.00,0.0632
1141.00,0.0631
1140.00,0.0631
1139.00,0.0632
1138.00,0.0632
1137.00,0.0633
1136.00,0.0635
1135.00,0.0636
1134.00,0.0638
1133.00,0.0639
1132.00,0.0640
1131.00,0.0641
1130.00,0.0642
1129.00,0.0643
1128.00,0.0645
1127.00,0.0646
1126.00,0.0648
1125.00,0.0650
1124.00,0.0652
1123.00,0.0655
1122.00,0.0658
1121.00,0.0662
1120.00,0.0666
1119.00,0.0670
1118.00,0.0673
1117.00,0.0675
1116.00,0.0677
1115.00,0.0678
1114.00,0.0678
1113.00,0.0678
1112.00,0.0679
1111.00,0.0680
1110.00,0.0682
1109.00,0.0684
1108.00,0.0686
1107.00,0.0688
1106.00,0.0690
1105.00,0.0692
1104.00,0.0694
1103.00,0.0696
1102.00,0.0697
1101.00,0.0699
1100.00,0.0700
1099.00,0.0701
1098.00,0.0701
1097.00,0.0702
1096.00,0.0703
1095.00,0.0703
1094.00,0.0703
1093.00,0.0704
1092.00,0.0705
1091.00,0.0706
1090.00,0.0707
1089.00,0.0708
1088.00,0.0708
1087.00,0.0708
1086.00,0.0708
1085.00,0.0707
1084.00,0.0708
1083.00,0.0708
1082.00,0.0708
1081.00,0.0708
1080.00,0.0709
1079.00,0.0710
1078.00,0.0710
1077.00,0.0710
1076.00,0.0711
1075.00,0.0712
1074.00,0.0712
1073.00,0.0713
1072.00,0.0714
1071.00,0.0715
1070.00,0.0717
1069.00,0.0719
1068.00,0.0721
1067.00,0.0722
1066.00,0.0723
1065.00,0.0724
1064.00,0.0725
1063.00,0.0726
1062.00,0.0728
1061.00,0.0729
1060.00,0.0731
1059.00,0.0733
1058.00,0.0734
1057.00,0.0735
1056.00,0.0736
1055.00,0.0738
1054.00,0.0739
1053.00,0.0741
1052.00,0.0744
1051.00,0.0747
1050.00,0.0749
1049.00,0.0751
1048.00,0.0754
1047.00,0.0757
1046.00,0.0760
1045.00,0.0763
1044.00,0.0766
1043.00,0.0768
1042.00,0.0771
1041.00,0.0773
1040.00,0.0777
1039.00,0.0780
1038.00,0.0784
1037.00,0.0787
1036.00,0.0790
1035.00,0.0793
1034.00,0.0794
1033.00,0.0793
1032.00,0.0792
1031.00,0.0791
1030.00,0.0788
1029.00,0.0785
1028.00,0.0781
1027.00,0.0776
1026.00,0.0771
1025.00,0.0765
1024.00,0.0761
1023.00,0.0757
1022.00,0.0754
1021.00,0.0751
1020.00,0.0749
1019.00,0.0748
1018.00,0.0747
1017.00,0.0748
1016.00,0.0750
1015.00,0.0752
1014.00,0.0754
1013.00,0.0755
1012.00,0.0757
1011.00,0.0759
1010.00,0.0760
1009.00,0.0761
1008.00,0.0762
1007.00,0.0761
1006.00,0.0761
1005.00,0.0760
1004.00,0.0759
1003.00,0.0758
1002.00,0.0756
1001.00,0.0752
1000.00,0.0748
999.00,0.0743
998.00,0.0738
997.00,0.0733
996.00,0.0728
995.00,0.0721
994.00,0.0715
993.00,0.0709
992.00,0.0704
991.00,0.0700
990.00,0.0696
989.00,0.0693
988.00,0.0689
987.00,0.0686
986.00,0.0683
985.00,0.0681
984.00,0.0679
983.00,0.0677
982.00,0.0675
981.00,0.0673
980.00,0.0670
979.00,0.0668
978.00,0.0665
977.00,0.0663
976.00,0.0661
975.00,0.0659
974.00,0.0657
973.00,0.0655
972.00,0.0654
971.00,0.0652
970.00,0.0651
969.00,0.0651
968.00,0.0650
967.00,0.0650
966.00,0.0649
965.00,0.0647
964.00,0.0646
963.00,0.0644
962.00,0.0643
961.00,0.0642
960.00,0.0642
959.00,0.0642
958.00,0.0642
957.00,0.0642
956.00,0.0642
955.00,0.0642
954.00,0.0642
953.00,0.0642
952.00,0.0642
951.00,0.0642
950.00,0.0642
949.00,0.0642
948.00,0.0643
947.00,0.0644
946.00,0.0645
945.00,0.0646
944.00,0.0648
943.00,0.0650
942.00,0.0652
941.00,0.0654
940.00,0.0655
939.00,0.0656
938.00,0.0657
937.00,0.0658
936.00,0.0660
935.00,0.0661
934.00,0.0661
933.00,0.0661
932.00,0.0660
931.00,0.0658
930.00,0.0657
929.00,0.0657
928.00,0.0658
927.00,0.0660
926.00,0.0662
925.00,0.0664
924.00,0.0667
923.00,0.0668
922.00,0.0670
921.00,0.0672
920.00,0.0676
919.00,0.0680
918.00,0.0684
917.00,0.0689
916.00,0.0692
915.00,0.0694
914.00,0.0694
913.00,0.0694
912.00,0.0694
911.00,0.0694
910.00,0.0695
909.00,0.0694
908.00,0.0692
907.00,0.0690
906.00,0.0687
905.00,0.0685
904.00,0.0684
903.00,0.0683
902.00,0.0683
901.00,0.0682
900.00,0.0680
899.00,0.0679
898.00,0.0677
897.00,0.0676
896.00,0.0674
895.00,0.0673
894.00,0.0671
893.00,0.0670
892.00,0.0669
891.00,0.0669
890.00,0.0668
889.00,0.0666
888.00,0.0665
887.00,0.0665
886.00,0.0664
885.00,0.0664
884.00,0.0663
883.00,0.0662
882.00,0.0662
881.00,0.0662
880.00,0.0663
879.00,0.0663
878.00,0.0663
877.00,0.0663
876.00,0.0662
875.00,0.0662
874.00,0.0661
873.00,0.0661
872.00,0.0661
871.00,0.0662
870.00,0.0661
869.00,0.0660
868.00,0.0659
867.00,0.0657
866.00,0.0656
865.00,0.0655
864.00,0.0655
863.00,0.0655
862.00,0.0655
861.00,0.0655
860.00,0.0656
859.00,0.0657
858.00,0.0658
857.00,0.0659
856.00,0.0659
855.00,0.0659
854.00,0.0660
853.00,0.0661
852.00,0.0663
851.00,0.0664
850.00,0.0665
849.00,0.0666
848.00,0.0667
847.00,0.0668
846.00,0.0669
845.00,0.0671
844.00,0.0674
843.00,0.0677
842.00,0.0679
841.00,0.0680
840.00,0.0683
839.00,0.0686
838.00,0.0689
837.00,0.0690
836.00,0.0690
835.00,0.0689
834.00,0.0689
833.00,0.0690
832.00,0.0692
831.00,0.0696
830.00,0.0699
829.00,0.0702
828.00,0.0705
827.00,0.0705
826.00,0.0706
825.00,0.0707
824.00,0.0709
823.00,0.0712
822.00,0.0714
821.00,0.0716
820.00,0.0718
819.00,0.0720
818.00,0.0721
817.00,0.0723
816.00,0.0725
815.00,0.0725
814.00,0.0726
813.00,0.0728
812.00,0.0730
811.00,0.0733
810.00,0.0734
809.00,0.0735
808.00,0.0736
807.00,0.0738
806.00,0.0741
805.00,0.0746
804.00,0.0750
803.00,0.0755
802.00,0.0757
801.00,0.0759
800.00,0.0761
799.00,0.0763
798.00,0.0766
797.00,0.0767
796.00,0.0767
795.00,0.0766
794.00,0.0765
793.00,0.0764
792.00,0.0764
791.00,0.0765
790.00,0.0767
789.00,0.0769
788.00,0.0770
787.00,0.0771
786.00,0.0773
785.00,0.0774
784.00,0.0775
783.00,0.0777
782.00,0.0779
781.00,0.0782
780.00,0.0785
779.00,0.0787
778.00,0.0788
777.00,0.0788
776.00,0.0788
775.00,0.0788
774.00,0.0790
773.00,0.0791
772.00,0.0791
771.00,0.0790
770.00,0.0789
769.00,0.0789
768.00,0.0790
767.00,0.0792
766.00,0.0794
765.00,0.0796
764.00,0.0796
763.00,0.0796
762.00,0.0796
761.00,0.0797
760.00,0.0800
759.00,0.0804
758.00,0.0808
757.00,0.0811
756.00,0.0812
755.00,0.0812
754.00,0.0810
753.00,0.0809
752.00,0.0809
751.00,0.0811
750.00,0.0813
749.00,0.0815
748.00,0.0817
747.00,0.0818
746.00,0.0818
745.00,0.0818
744.00,0.0817
743.00,0.0816
742.00,0.0816
741.00,0.0817
740.00,0.0819
739.00,0.0820
738.00,0.0821
737.00,0.0821
736.00,0.0821
735.00,0.0822
734.00,0.0823
733.00,0.0824
732.00,0.0825
731.00,0.0826
730.00,0.0827
729.00,0.0829
728.00,0.0830
727.00,0.0832
726.00,0.0832
725.00,0.0833
724.00,0.0834
723.00,0.0836
722.00,0.0839
721.00,0.0841
720.00,0.0843
719.00,0.0845
718.00,0.0848
717.00,0.0852
716.00,0.0856
715.00,0.0859
714.00,0.0861
713.00,0.0862
712.00,0.0864
711.00,0.0866
710.00,0.0868
709.00,0.0871
708.00,0.0876
707.00,0.0881
706.00,0.0884
705.00,0.0887
704.00,0.0891
703.00,0.0896
702.00,0.0901
701.00,0.0907
700.00,0.0912
699.00,0.0915
698.00,0.0917
697.00,0.0919
696.00,0.0922
695.00,0.0926
694.00,0.0929
693.00,0.0932
692.00,0.0934
691.00,0.0934
690.00,0.0933
689.00,0.0934
688.00,0.0936
687.00,0.0940
686.00,0.0945
685.00,0.0950
684.00,0.0952
683.00,0.0952
682.00,0.0949
681.00,0.0948
680.00,0.0949
679.00,0.0952
678.00,0.0954
677.00,0.0956
676.00,0.0957
675.00,0.0958
674.00,0.0959
673.00,0.0962
672.00,0.0963
671.00,0.0960
670.00,0.0952
669.00,0.0946
668.00,0.0948
667.00,0.0958
666.00,0.0970
665.00,0.0977
664.00,0.0982
663.00,0.0986
662.00,0.0988
661.00,0.0989
660.00,0.0991
659.00,0.0994
658.00,0.0995
657.00,0.1007
656.00,0.1012
655.00,0.1015
654.00,0.1020
653.00,0.1025
652.00,0.1028
651.00,0.1027
650.00,0.1023
