Created as New Dataset,
cm-1,A
4000.00,0.0215
3999.00,0.0214
3998.00,0.0214
3997.00,0.0213
3996.00,0.0213
3995.00,0.0216
3994.00,0.0216
3993.00,0.0216
3992.00,0.0216
3991.00,0.0216
3990.00,0.0215
3989.00,0.0215
3988.00,0.0215
3987.00,0.0215
3986.00,0.0215
3985.00,0.0215
3984.00,0.0216
3983.00,0.0216
3982.00,0.0216
3981.00,0.0216
3980.00,0.0216
3979.00,0.0216
3978.00,0.0215
3977.00,0.0215
3976.00,0.0215
3975.00,0.0216
3974.00,0.0216
3973.00,0.0216
3972.00,0.0216
3971.00,0.0216
3970.00,0.0215
3969.00,0.0214
3968.00,0.0214
3967.00,0.0214
3966.00,0.0214
3965.00,0.0214
3964.00,0.0215
3963.00,0.0215
3962.00,0.0215
3961.00,0.0215
3960.00,0.0216
3959.00,0.0216
3958.00,0.0216
3957.00,0.0216
3956.00,0.0216
3955.00,0.0215
3954.00,0.0216
3953.00,0.0216
3952.00,0.0216
3951.00,0.0217
3950.00,0.0217
3949.00,0.0217
3948.00,0.0217
3947.00,0.0218
3946.00,0.0218
3945.00,0.0219
3944.00,0.0219
3943.00,0.0218
3942.00,0.0217
3941.00,0.0217
3940.00,0.0217
3939.00,0.0216
3938.00,0.0215
3937.00,0.0214
3936.00,0.0214
3935.00,0.0215
3934.00,0.0216
3933.00,0.0216
3932.00,0.0217
3931.00,0.0217
3930.00,0.0217
3929.00,0.0218
3928.00,0.0218
3927.00,0.0218
3926.00,0.0218
3925.00,0.0217
3924.00,0.0216
3923.00,0.0217
3922.00,0.0217
3921.00,0.0217
3920.00,0.0216
3919.00,0.0216
3918.00,0.0216
3917.00,0.0216
3916.00,0.0216
3915.00,0.0215
3914.00,0.0214
3913.00,0.0213
3912.00,0.0212
3911.00,0.0211
3910.00,0.0211
3909.00,0.0212
3908.00,0.0214
3907.00,0.0216
3906.00,0.0217
3905.00,0.0217
3904.00,0.0218
3903.00,0.0220
3902.00,0.0223
3901.00,0.0225
3900.00,0.0224
3899.00,0.0221
3898.00,0.0218
3897.00,0.0217
3896.00,0.0216
3895.00,0.0215
3894.00,0.0215
3893.00,0.0215
3892.00,0.0214
3891.00,0.0213
3890.00,0.0213
3889.00,0.0216
3888.00,0.0218
3887.00,0.0218
3886.00,0.0216
3885.00,0.0215
3884.00,0.0218
3883.00,0.0221
3882.00,0.0223
3881.00,0.0220
3880.00,0.0217
3879.00,0.0215
3878.00,0.0215
3877.00,0.0217
3876.00,0.0217
3875.00,0.0215
3874.00,0.0213
3873.00,0.0215
3872.00,0.0218
3871.00,0.0219
3870.00,0.0216
3869.00,0.0215
3868.00,0.0216
3867.00,0.0219
3866.00,0.0218
3865.00,0.0215
3864.00,0.0213
3863.00,0.0214
3862.00,0.0215
3861.00,0.0214
3860.00,0.0212
3859.00,0.0211
3858.00,0.0211
3857.00,0.0213
3856.00,0.0215
3855.00,0.0215
3854.00,0.0213
3853.00,0.0213
3852.00,0.0215
3851.00,0.0216
3850.00,0.0216
3849.00,0.0213
3848.00,0.0210
3847.00,0.0209
3846.00,0.0209
3845.00,0.0209
3844.00,0.0208
3843.00,0.0209
3842.00,0.0210
3841.00,0.0212
3840.00,0.0213
3839.00,0.0213
3838.00,0.0213
3837.00,0.0213
3836.00,0.0213
3835.00,0.0213
3834.00,0.0212
3833.00,0.0211
3832.00,0.0210
3831.00,0.0209
3830.00,0.0209
3829.00,0.0210
3828.00,0.0210
3827.00,0.0208
3826.00,0.0206
3825.00,0.0207
3824.00,0.0209
3823.00,0.0211
3822.00,0.0209
3821.00,0.0206
3820.00,0.0207
3819.00,0.0211
3818.00,0.0213
3817.00,0.0211
3816.00,0.0207
3815.00,0.0205
3814.00,0.0206
3813.00,0.0206
3812.00,0.0205
3811.00,0.0203
3810.00,0.0202
3809.00,0.0202
3808.00,0.0201
3807.00,0.0200
3806.00,0.0200
3805.00,0.0204
3804.00,0.0208
3803.00,0.0209
3802.00,0.0207
3801.00,0.0205
3800.00,0.0207
3799.00,0.0210
3798.00,0.0210
3797.00,0.0208
3796.00,0.0205
3795.00,0.0203
3794.00,0.0204
3793.00,0.0204
3792.00,0.0203
3791.00,0.0202
3790.00,0.0202
3789.00,0.0202
3788.00,0.0202
3787.00,0.0202
3786.00,0.0202
3785.00,0.0201
3784.00,0.0201
3783.00,0.0203
3782.00,0.0204
3781.00,0.0204
3780.00,0.0203
3779.00,0.0201
3778.00,0.0201
3777.00,0.0202
3776.00,0.0202
3775.00,0.0200
3774.00,0.0199
3773.00,0.0199
3772.00,0.0199
3771.00,0.0199
3770.00,0.0199
3769.00,0.0200
3768.00,0.0203
3767.00,0.0204
3766.00,0.0203
3765.00,0.0201
3764.00,0.0201
3763.00,0.0202
3762.00,0.0204
3761.00,0.0203
3760.00,0.0202
3759.00,0.0201
3758.00,0.0201
3757.00,0.0201
3756.00,0.0201
3755.00,0.0202
3754.00,0.0201
3753.00,0.0199
3752.00,0.0196
3751.00,0.0197
3750.00,0.0200
3749.00,0.0202
3748.00,0.0205
3747.00,0.0210
3746.00,0.0212
3745.00,0.0209
3744.00,0.0205
3743.00,0.0203
3742.00,0.0204
3741.00,0.0204
3740.00,0.0202
3739.00,0.0200
3738.00,0.0201
3737.00,0.0202
3736.00,0.0202
3735.00,0.0204
3734.00,0.0206
3733.00,0.0205
3732.00,0.0203
3731.00,0.0200
3730.00,0.0199
3729.00,0.0199
3728.00,0.0200
3727.00,0.0199
3726.00,0.0199
3725.00,0.0201
3724.00,0.0204
3723.00,0.0204
3722.00,0.0204
3721.00,0.0203
3720.00,0.0203
3719.00,0.0202
3718.00,0.0201
3717.00,0.0200
3716.00,0.0200
3715.00,0.0201
3714.00,0.0202
3713.00,0.0201
3712.00,0.0202
3711.00,0.0204
3710.00,0.0208
3709.00,0.0209
3708.00,0.0208
3707.00,0.0206
3706.00,0.0205
3705.00,0.0206
3704.00,0.0207
3703.00,0.0208
3702.00,0.0210
3701.00,0.0211
3700.00,0.0212
3699.00,0.0212
3698.00,0.0212
3697.00,0.0211
3696.00,0.0211
3695.00,0.0211
3694.00,0.0212
3693.00,0.0213
3692.00,0.0213
3691.00,0.0213
3690.00,0.0215
3689.00,0.0216
3688.00,0.0215
3687.00,0.0215
3686.00,0.0214
3685.00,0.0214
3684.00,0.0212
3683.00,0.0210
3682.00,0.0210
3681.00,0.0209
3680.00,0.0209
3679.00,0.0210
3678.00,0.0213
3677.00,0.0217
3676.00,0.0219
3675.00,0.0220
3674.00,0.0222
3673.00,0.0225
3672.00,0.0226
3671.00,0.0224
3670.00,0.0222
3669.00,0.0223
3668.00,0.0225
3667.00,0.0226
3666.00,0.0225
3665.00,0.0224
3664.00,0.0223
3663.00,0.0222
3662.00,0.0223
3661.00,0.0223
3660.00,0.0225
3659.00,0.0227
3658.00,0.0229
3657.00,0.0232
3656.00,0.0234
3655.00,0.0237
3654.00,0.0241
3653.00,0.0244
3652.00,0.0244
3651.00,0.0243
3650.00,0.0245
3649.00,0.0255
3648.00,0.0263
3647.00,0.0265
3646.00,0.0263
3645.00,0.0260
3644.00,0.0258
3643.00,0.0256
3642.00,0.0255
3641.00,0.0255
3640.00,0.0255
3639.00,0.0256
3638.00,0.0257
3637.00,0.0259
3636.00,0.0261
3635.00,0.0262
3634.00,0.0262
3633.00,0.0263
3632.00,0.0266
3631.00,0.0270
3630.00,0.0274
3629.00,0.0278
3628.00,0.0283
3627.00,0.0286
3626.00,0.0286
3625.00,0.0284
3624.00,0.0282
3623.00,0.0282
3622.00,0.0284
3621.00,0.0288
3620.00,0.0293
3619.00,0.0297
3618.00,0.0299
3617.00,0.0301
3616.00,0.0300
3615.00,0.0299
3614.00,0.0297
3613.00,0.0296
3612.00,0.0297
3611.00,0.0299
3610.00,0.0300
3609.00,0.0302
3608.00,0.0303
3607.00,0.0305
3606.00,0.0306
3605.00,0.0305
3604.00,0.0304
3603.00,0.0303
3602.00,0.0303
3601.00,0.0304
3600.00,0.0306
3599.00,0.0308
3598.00,0.0310
3597.00,0.0312
3596.00,0.0314
3595.00,0.0316
3594.00,0.0317
3593.00,0.0317
3592.00,0.0317
3591.00,0.0318
3590.00,0.0320
3589.00,0.0323
3588.00,0.0327
3587.00,0.0331
3586.00,0.0333
3585.00,0.0334
3584.00,0.0332
3583.00,0.0330
3582.00,0.0329
3581.00,0.0329
3580.00,0.0329
3579.00,0.0330
3578.00,0.0331
3577.00,0.0331
3576.00,0.0331
3575.00,0.0331
3574.00,0.0332
3573.00,0.0332
3572.00,0.0333
3571.00,0.0334
3570.00,0.0337
3569.00,0.0340
3568.00,0.0345
3567.00,0.0350
3566.00,0.0354
3565.00,0.0355
3564.00,0.0354
3563.00,0.0352
3562.00,0.0350
3561.00,0.0349
3560.00,0.0348
3559.00,0.0348
3558.00,0.0347
3557.00,0.0347
3556.00,0.0347
3555.00,0.0348
3554.00,0.0350
3553.00,0.0352
3552.00,0.0353
3551.00,0.0355
3550.00,0.0356
3549.00,0.0357
3548.00,0.0358
3547.00,0.0360
3546.00,0.0362
3545.00,0.0364
3544.00,0.0365
3543.00,0.0365
3542.00,0.0364
3541.00,0.0363
3540.00,0.0363
3539.00,0.0363
3538.00,0.0364
3537.00,0.0366
3536.00,0.0367
3535.00,0.0367
3534.00,0.0368
3533.00,0.0367
3532.00,0.0367
3531.00,0.0367
3530.00,0.0368
3529.00,0.0370
3528.00,0.0372
3527.00,0.0374
3526.00,0.0376
3525.00,0.0377
3524.00,0.0378
3523.00,0.0379
3522.00,0.0379
3521.00,0.0380
3520.00,0.0379
3519.00,0.0379
3518.00,0.0379
3517.00,0.0380
3516.00,0.0380
3515.00,0.0380
3514.00,0.0381
3513.00,0.0381
3512.00,0.0382
3511.00,0.0384
3510.00,0.0386
3509.00,0.0387
3508.00,0.0388
3507.00,0.0388
3506.00,0.0389
3505.00,0.0389
3504.00,0.0390
3503.00,0.0392
3502.00,0.0394
3501.00,0.0395
3500.00,0.0395
3499.00,0.0395
3498.00,0.0395
3497.00,0.0395
3496.00,0.0395
3495.00,0.0396
3494.00,0.0396
3493.00,0.0397
3492.00,0.0396
3491.00,0.0396
3490.00,0.0396
3489.00,0.0397
3488.00,0.0398
3487.00,0.0400
3486.00,0.0401
3485.00,0.0402
3484.00,0.0403
3483.00,0.0404
3482.00,0.0405
3481.00,0.0406
3480.00,0.0407
3479.00,0.0407
3478.00,0.0408
3477.00,0.0408
3476.00,0.0408
3475.00,0.0408
3474.00,0.0409
3473.00,0.0410
3472.00,0.0411
3471.00,0.0412
3470.00,0.0412
3469.00,0.0413
3468.00,0.0414
3467.00,0.0414
3466.00,0.0415
3465.00,0.0415
3464.00,0.0416
3463.00,0.0417
3462.00,0.0418
3461.00,0.0419
3460.00,0.0419
3459.00,0.0419
3458.00,0.0420
3457.00,0.0420
3456.00,0.0420
3455.00,0.0421
3454.00,0.0422
3453.00,0.0423
3452.00,0.0424
3451.00,0.0424
3450.00,0.0424
3449.00,0.0425
3448.00,0.0426
3447.00,0.0427
3446.00,0.0428
3445.00,0.0429
3444.00,0.0429
3443.00,0.0429
3442.00,0.0429
3441.00,0.0429
3440.00,0.0429
3439.00,0.0430
3438.00,0.0430
3437.00,0.0430
3436.00,0.0430
3435.00,0.0431
3434.00,0.0432
3433.00,0.0433
3432.00,0.0434
3431.00,0.0434
3430.00,0.0435
3429.00,0.0435
3428.00,0.0436
3427.00,0.0436
3426.00,0.0437
3425.00,0.0437
3424.00,0.0437
3423.00,0.0437
3422.00,0.0438
3421.00,0.0439
3420.00,0.0440
3419.00,0.0441
3418.00,0.0441
3417.00,0.0441
3416.00,0.0441
3415.00,0.0441
3414.00,0.0442
3413.00,0.0443
3412.00,0.0444
3411.00,0.0444
3410.00,0.0444
3409.00,0.0445
3408.00,0.0445
3407.00,0.0446
3406.00,0.0447
3405.00,0.0447
3404.00,0.0448
3403.00,0.0448
3402.00,0.0449
3401.00,0.0449
3400.00,0.0448
3399.00,0.0448
3398.00,0.0448
3397.00,0.0449
3396.00,0.0449
3395.00,0.0450
3394.00,0.0451
3393.00,0.0452
3392.00,0.0453
3391.00,0.0453
3390.00,0.0453
3389.00,0.0453
3388.00,0.0453
3387.00,0.0453
3386.00,0.0454
3385.00,0.0455
3384.00,0.0455
3383.00,0.0455
3382.00,0.0454
3381.00,0.0454
3380.00,0.0454
3379.00,0.0454
3378.00,0.0455
3377.00,0.0456
3376.00,0.0457
3375.00,0.0457
3374.00,0.0458
3373.00,0.0458
3372.00,0.0459
3371.00,0.0459
3370.00,0.0459
3369.00,0.0459
3368.00,0.0459
3367.00,0.0460
3366.00,0.0460
3365.00,0.0461
3364.00,0.0461
3363.00,0.0462
3362.00,0.0463
3361.00,0.0463
3360.00,0.0463
3359.00,0.0463
3358.00,0.0463
3357.00,0.0464
3356.00,0.0464
3355.00,0.0464
3354.00,0.0464
3353.00,0.0464
3352.00,0.0463
3351.00,0.0464
3350.00,0.0464
3349.00,0.0464
3348.00,0.0464
3347.00,0.0464
3346.00,0.0464
3345.00,0.0464
3344.00,0.0465
3343.00,0.0465
3342.00,0.0465
3341.00,0.0466
3340.00,0.0466
3339.00,0.0466
3338.00,0.0467
3337.00,0.0467
3336.00,0.0468
3335.00,0.0468
3334.00,0.0467
3333.00,0.0467
3332.00,0.0467
3331.00,0.0467
3330.00,0.0468
3329.00,0.0468
3328.00,0.0468
3327.00,0.0469
3326.00,0.0469
3325.00,0.0470
3324.00,0.0470
3323.00,0.0470
3322.00,0.0470
3321.00,0.0470
3320.00,0.0469
3319.00,0.0469
3318.00,0.0469
3317.00,0.0469
3316.00,0.0469
3315.00,0.0469
3314.00,0.0469
3313.00,0.0468
3312.00,0.0469
3311.00,0.0469
3310.00,0.0470
3309.00,0.0471
3308.00,0.0471
3307.00,0.0472
3306.00,0.0472
3305.00,0.0473
3304.00,0.0473
3303.00,0.0473
3302.00,0.0473
3301.00,0.0472
3300.00,0.0472
3299.00,0.0472
3298.00,0.0472
3297.00,0.0472
3296.00,0.0472
3295.00,0.0472
3294.00,0.0472
3293.00,0.0472
3292.00,0.0472
3291.00,0.0473
3290.00,0.0473
3289.00,0.0473
3288.00,0.0473
3287.00,0.0473
3286.00,0.0473
3285.00,0.0474
3284.00,0.0474
3283.00,0.0474
3282.00,0.0473
3281.00,0.0473
3280.00,0.0473
3279.00,0.0473
3278.00,0.0473
3277.00,0.0473
3276.00,0.0474
3275.00,0.0474
3274.00,0.0475
3273.00,0.0476
3272.00,0.0476
3271.00,0.0476
3270.00,0.0475
3269.00,0.0475
3268.00,0.0475
3267.00,0.0475
3266.00,0.0475
3265.00,0.0475
3264.00,0.0476
3263.00,0.0476
3262.00,0.0476
3261.00,0.0476
3260.00,0.0476
3259.00,0.0476
3258.00,0.0477
3257.00,0.0477
3256.00,0.0477
3255.00,0.0477
3254.00,0.0477
3253.00,0.0477
3252.00,0.0476
3251.00,0.0476
3250.00,0.0476
3249.00,0.0477
3248.00,0.0477
3247.00,0.0478
3246.00,0.0479
3245.00,0.0480
3244.00,0.0480
3243.00,0.0479
3242.00,0.0479
3241.00,0.0479
3240.00,0.0479
3239.00,0.0479
3238.00,0.0479
3237.00,0.0479
3236.00,0.0479
3235.00,0.0480
3234.00,0.0480
3233.00,0.0480
3232.00,0.0481
3231.00,0.0481
3230.00,0.0481
3229.00,0.0481
3228.00,0.0481
3227.00,0.0481
3226.00,0.0481
3225.00,0.0481
3224.00,0.0481
3223.00,0.0481
3222.00,0.0481
3221.00,0.0481
3220.00,0.0481
3219.00,0.0481
3218.00,0.0481
3217.00,0.0481
3216.00,0.0481
3215.00,0.0481
3214.00,0.0481
3213.00,0.0481
3212.00,0.0482
3211.00,0.0482
3210.00,0.0482
3209.00,0.0482
3208.00,0.0482
3207.00,0.0482
3206.00,0.0482
3205.00,0.0482
3204.00,0.0482
3203.00,0.0482
3202.00,0.0482
3201.00,0.0482
3200.00,0.0482
3199.00,0.0482
3198.00,0.0482
3197.00,0.0482
3196.00,0.0482
3195.00,0.0482
3194.00,0.0482
3193.00,0.0481
3192.00,0.0481
3191.00,0.0480
3190.00,0.0480
3189.00,0.0481
3188.00,0.0481
3187.00,0.0481
3186.00,0.0481
3185.00,0.0481
3184.00,0.0481
3183.00,0.0482
3182.00,0.0481
3181.00,0.0481
3180.00,0.0481
3179.00,0.0480
3178.00,0.0480
3177.00,0.0480
3176.00,0.0480
3175.00,0.0480
3174.00,0.0480
3173.00,0.0480
3172.00,0.0481
3171.00,0.0480
3170.00,0.0480
3169.00,0.0479
3168.00,0.0479
3167.00,0.0479
3166.00,0.0479
3165.00,0.0479
3164.00,0.0479
3163.00,0.0479
3162.00,0.0478
3161.00,0.0478
3160.00,0.0478
3159.00,0.0478
3158.00,0.0478
3157.00,0.0478
3156.00,0.0477
3155.00,0.0477
3154.00,0.0476
3153.00,0.0476
3152.00,0.0476
3151.00,0.0476
3150.00,0.0476
3149.00,0.0476
3148.00,0.0476
3147.00,0.0475
3146.00,0.0476
3145.00,0.0476
3144.00,0.0476
3143.00,0.0475
3142.00,0.0475
3141.00,0.0475
3140.00,0.0475
3139.00,0.0474
3138.00,0.0474
3137.00,0.0473
3136.00,0.0473
3135.00,0.0473
3134.00,0.0473
3133.00,0.0473
3132.00,0.0473
3131.00,0.0473
3130.00,0.0473
3129.00,0.0473
3128.00,0.0473
3127.00,0.0473
3126.00,0.0473
3125.00,0.0472
3124.00,0.0471
3123.00,0.0471
3122.00,0.0471
3121.00,0.0471
3120.00,0.0471
3119.00,0.0471
3118.00,0.0471
3117.00,0.0471
3116.00,0.0471
3115.00,0.0472
3114.00,0.0472
3113.00,0.0471
3112.00,0.0471
3111.00,0.0470
3110.00,0.0470
3109.00,0.0469
3108.00,0.0469
3107.00,0.0469
3106.00,0.0469
3105.00,0.0469
3104.00,0.0469
3103.00,0.0469
3102.00,0.0469
3101.00,0.0469
3100.00,0.0469
3099.00,0.0469
3098.00,0.0469
3097.00,0.0469
3096.00,0.0469
3095.00,0.0469
3094.00,0.0469
3093.00,0.0469
3092.00,0.0468
3091.00,0.0468
3090.00,0.0467
3089.00,0.0467
3088.00,0.0467
3087.00,0.0467
3086.00,0.0467
3085.00,0.0467
3084.00,0.0467
3083.00,0.0467
3082.00,0.0467
3081.00,0.0467
3080.00,0.0467
3079.00,0.0467
3078.00,0.0466
3077.00,0.0466
3076.00,0.0466
3075.00,0.0466
3074.00,0.0466
3073.00,0.0466
3072.00,0.0466
3071.00,0.0466
3070.00,0.0466
3069.00,0.0465
3068.00,0.0465
3067.00,0.0465
3066.00,0.0465
3065.00,0.0465
3064.00,0.0465
3063.00,0.0465
3062.00,0.0465
3061.00,0.0464
3060.00,0.0463
3059.00,0.0463
3058.00,0.0463
3057.00,0.0463
3056.00,0.0463
3055.00,0.0463
3054.00,0.0463
3053.00,0.0463
3052.00,0.0462
3051.00,0.0462
3050.00,0.0461
3049.00,0.0461
3048.00,0.0460
3047.00,0.0460
3046.00,0.0459
3045.00,0.0459
3044.00,0.0459
3043.00,0.0459
3042.00,0.0459
3041.00,0.0458
3040.00,0.0458
3039.00,0.0458
3038.00,0.0457
3037.00,0.0457
3036.00,0.0457
3035.00,0.0457
3034.00,0.0457
3033.00,0.0456
3032.00,0.0456
3031.00,0.0456
3030.00,0.0456
3029.00,0.0455
3028.00,0.0454
3027.00,0.0454
3026.00,0.0453
3025.00,0.0452
3024.00,0.0452
3023.00,0.0452
3022.00,0.0452
3021.00,0.0452
3020.00,0.0451
3019.00,0.0451
3018.00,0.0450
3017.00,0.0449
3016.00,0.0449
3015.00,0.0449
3014.00,0.0449
3013.00,0.0449
3012.00,0.0449
3011.00,0.0449
3010.00,0.0448
3009.00,0.0447
3008.00,0.0447
3007.00,0.0446
3006.00,0.0445
3005.00,0.0445
3004.00,0.0444
3003.00,0.0444
3002.00,0.0443
3001.00,0.0442
3000.00,0.0441
2999.00,0.0440
2998.00,0.0440
2997.00,0.0439
2996.00,0.0439
2995.00,0.0439
2994.00,0.0438
2993.00,0.0438
2992.00,0.0437
2991.00,0.0435
2990.00,0.0435
2989.00,0.0434
2988.00,0.0434
2987.00,0.0434
2986.00,0.0434
2985.00,0.0433
2984.00,0.0432
2983.00,0.0430
2982.00,0.0429
2981.00,0.0428
2980.00,0.0428
2979.00,0.0428
2978.00,0.0429
2977.00,0.0429
2976.00,0.0428
2975.00,0.0428
2974.00,0.0428
2973.00,0.0427
2972.00,0.0426
2971.00,0.0426
2970.00,0.0425
2969.00,0.0425
2968.00,0.0424
2967.00,0.0424
2966.00,0.0424
2965.00,0.0423
2964.00,0.0423
2963.00,0.0422
2962.00,0.0422
2961.00,0.0421
2960.00,0.0421
2959.00,0.0421
2958.00,0.0421
2957.00,0.0421
2956.00,0.0420
2955.00,0.0420
2954.00,0.0420
2953.00,0.0420
2952.00,0.0421
2951.00,0.0421
2950.00,0.0420
2949.00,0.0420
2948.00,0.0420
2947.00,0.0420
2946.00,0.0420
2945.00,0.0420
2944.00,0.0420
2943.00,0.0420
2942.00,0.0419
2941.00,0.0418
2940.00,0.0417
2939.00,0.0416
2938.00,0.0415
2937.00,0.0414
2936.00,0.0413
2935.00,0.0412
2934.00,0.0411
2933.00,0.0410
2932.00,0.0409
2931.00,0.0407
2930.00,0.0406
2929.00,0.0405
2928.00,0.0403
2927.00,0.0402
2926.00,0.0401
2925.00,0.0400
2924.00,0.0400
2923.00,0.0400
2922.00,0.0401
2921.00,0.0401
2920.00,0.0400
2919.00,0.0399
2918.00,0.0398
2917.00,0.0398
2916.00,0.0399
2915.00,0.0400
2914.00,0.0402
2913.00,0.0404
2912.00,0.0405
2911.00,0.0406
2910.00,0.0407
2909.00,0.0408
2908.00,0.0408
2907.00,0.0408
2906.00,0.0408
2905.00,0.0408
2904.00,0.0408
2903.00,0.0408
2902.00,0.0408
2901.00,0.0408
2900.00,0.0409
2899.00,0.0408
2898.00,0.0408
2897.00,0.0407
2896.00,0.0407
2895.00,0.0407
2894.00,0.0407
2893.00,0.0407
2892.00,0.0407
2891.00,0.0407
2890.00,0.0407
2889.00,0.0407
2888.00,0.0407
2887.00,0.0407
2886.00,0.0407
2885.00,0.0407
2884.00,0.0408
2883.00,0.0408
2882.00,0.0408
2881.00,0.0408
2880.00,0.0407
2879.00,0.0407
2878.00,0.0406
2877.00,0.0406
2876.00,0.0405
2875.00,0.0404
2874.00,0.0403
2873.00,0.0402
2872.00,0.0402
2871.00,0.0402
2870.00,0.0402
2869.00,0.0401
2868.00,0.0401
2867.00,0.0401
2866.00,0.0400
2865.00,0.0399
2864.00,0.0398
2863.00,0.0398
2862.00,0.0397
2861.00,0.0397
2860.00,0.0396
2859.00,0.0396
2858.00,0.0395
2857.00,0.0394
2856.00,0.0393
2855.00,0.0393
2854.00,0.0393
2853.00,0.0392
2852.00,0.0392
2851.00,0.0392
2850.00,0.0391
2849.00,0.0391
2848.00,0.0392
2847.00,0.0393
2846.00,0.0394
2845.00,0.0395
2844.00,0.0396
2843.00,0.0397
2842.00,0.0398
2841.00,0.0398
2840.00,0.0398
2839.00,0.0399
2838.00,0.0399
2837.00,0.0399
2836.00,0.0399
2835.00,0.0398
2834.00,0.0398
2833.00,0.0398
2832.00,0.0398
2831.00,0.0398
2830.00,0.0398
2829.00,0.0398
2828.00,0.0397
2827.00,0.0397
2826.00,0.0397
2825.00,0.0397
2824.00,0.0397
2823.00,0.0396
2822.00,0.0396
2821.00,0.0395
2820.00,0.0395
2819.00,0.0395
2818.00,0.0395
2817.00,0.0394
2816.00,0.0394
2815.00,0.0394
2814.00,0.0393
2813.00,0.0393
2812.00,0.0393
2811.00,0.0392
2810.00,0.0392
2809.00,0.0392
2808.00,0.0392
2807.00,0.0392
2806.00,0.0391
2805.00,0.0391
2804.00,0.0391
2803.00,0.0391
2802.00,0.0390
2801.00,0.0390
2800.00,0.0390
2799.00,0.0390
2798.00,0.0390
2797.00,0.0390
2796.00,0.0389
2795.00,0.0388
2794.00,0.0388
2793.00,0.0387
2792.00,0.0387
2791.00,0.0387
2790.00,0.0387
2789.00,0.0387
2788.00,0.0387
2787.00,0.0387
2786.00,0.0386
2785.00,0.0386
2784.00,0.0386
2783.00,0.0386
2782.00,0.0385
2781.00,0.0385
2780.00,0.0384
2779.00,0.0384
2778.00,0.0384
2777.00,0.0384
2776.00,0.0384
2775.00,0.0384
2774.00,0.0384
2773.00,0.0383
2772.00,0.0383
2771.00,0.0382
2770.00,0.0382
2769.00,0.0382
2768.00,0.0382
2767.00,0.0381
2766.00,0.0381
2765.00,0.0381
2764.00,0.0381
2763.00,0.0381
2762.00,0.0381
2761.00,0.0380
2760.00,0.0380
2759.00,0.0379
2758.00,0.0379
2757.00,0.0379
2756.00,0.0378
2755.00,0.0378
2754.00,0.0378
2753.00,0.0378
2752.00,0.0377
2751.00,0.0377
2750.00,0.0377
2749.00,0.0377
2748.00,0.0377
2747.00,0.0377
2746.00,0.0376
2745.00,0.0376
2744.00,0.0375
2743.00,0.0375
2742.00,0.0375
2741.00,0.0375
2740.00,0.0374
2739.00,0.0374
2738.00,0.0374
2737.00,0.0373
2736.00,0.0373
2735.00,0.0373
2734.00,0.0372
2733.00,0.0372
2732.00,0.0371
2731.00,0.0371
2730.00,0.0371
2729.00,0.0371
2728.00,0.0371
2727.00,0.0371
2726.00,0.0370
2725.00,0.0370
2724.00,0.0370
2723.00,0.0370
2722.00,0.0370
2721.00,0.0369
2720.00,0.0369
2719.00,0.0369
2718.00,0.0368
2717.00,0.0368
2716.00,0.0368
2715.00,0.0368
2714.00,0.0367
2713.00,0.0367
2712.00,0.0367
2711.00,0.0367
2710.00,0.0367
2709.00,0.0367
2708.00,0.0366
2707.00,0.0366
2706.00,0.0366
2705.00,0.0365
2704.00,0.0365
2703.00,0.0365
2702.00,0.0365
2701.00,0.0365
2700.00,0.0364
2699.00,0.0364
2698.00,0.0363
2697.00,0.0363
2696.00,0.0363
2695.00,0.0363
2694.00,0.0363
2693.00,0.0362
2692.00,0.0362
2691.00,0.0362
2690.00,0.0361
2689.00,0.0361
2688.00,0.0361
2687.00,0.0361
2686.00,0.0360
2685.00,0.0360
2684.00,0.0360
2683.00,0.0359
2682.00,0.0359
2681.00,0.0359
2680.00,0.0359
2679.00,0.0360
2678.00,0.0359
2677.00,0.0359
2676.00,0.0359
2675.00,0.0358
2674.00,0.0358
2673.00,0.0358
2672.00,0.0357
2671.00,0.0357
2670.00,0.0356
2669.00,0.0356
2668.00,0.0356
2667.00,0.0356
2666.00,0.0356
2665.00,0.0356
2664.00,0.0356
2663.00,0.0356
2662.00,0.0356
2661.00,0.0356
2660.00,0.0356
2659.00,0.0356
2658.00,0.0356
2657.00,0.0356
2656.00,0.0356
2655.00,0.0355
2654.00,0.0355
2653.00,0.0355
2652.00,0.0356
2651.00,0.0356
2650.00,0.0355
2649.00,0.0355
2648.00,0.0355
2647.00,0.0355
2646.00,0.0355
2645.00,0.0355
2644.00,0.0355
2643.00,0.0355
2642.00,0.0356
2641.00,0.0356
2640.00,0.0355
2639.00,0.0355
2638.00,0.0354
2637.00,0.0354
2636.00,0.0354
2635.00,0.0354
2634.00,0.0354
2633.00,0.0354
2632.00,0.0354
2631.00,0.0354
2630.00,0.0354
2629.00,0.0354
2628.00,0.0354
2627.00,0.0354
2626.00,0.0354
2625.00,0.0354
2624.00,0.0354
2623.00,0.0353
2622.00,0.0353
2621.00,0.0353
2620.00,0.0353
2619.00,0.0353
2618.00,0.0353
2617.00,0.0354
2616.00,0.0354
2615.00,0.0354
2614.00,0.0354
2613.00,0.0354
2612.00,0.0354
2611.00,0.0354
2610.00,0.0353
2609.00,0.0353
2608.00,0.0354
2607.00,0.0354
2606.00,0.0353
2605.00,0.0353
2604.00,0.0353
2603.00,0.0353
2602.00,0.0353
2601.00,0.0353
2600.00,0.0353
2599.00,0.0353
2598.00,0.0353
2597.00,0.0353
2596.00,0.0352
2595.00,0.0352
2594.00,0.0352
2593.00,0.0353
2592.00,0.0353
2591.00,0.0353
2590.00,0.0353
2589.00,0.0353
2588.00,0.0352
2587.00,0.0352
2586.00,0.0351
2585.00,0.0351
2584.00,0.0351
2583.00,0.0351
2582.00,0.0351
2581.00,0.0351
2580.00,0.0350
2579.00,0.0350
2578.00,0.0350
2577.00,0.0351
2576.00,0.0351
2575.00,0.0351
2574.00,0.0351
2573.00,0.0350
2572.00,0.0350
2571.00,0.0349
2570.00,0.0349
2569.00,0.0349
2568.00,0.0349
2567.00,0.0350
2566.00,0.0350
2565.00,0.0351
2564.00,0.0351
2563.00,0.0351
2562.00,0.0351
2561.00,0.0350
2560.00,0.0350
2559.00,0.0350
2558.00,0.0349
2557.00,0.0349
2556.00,0.0349
2555.00,0.0349
2554.00,0.0349
2553.00,0.0350
2552.00,0.0350
2551.00,0.0350
2550.00,0.0350
2549.00,0.0350
2548.00,0.0349
2547.00,0.0349
2546.00,0.0348
2545.00,0.0348
2544.00,0.0347
2543.00,0.0347
2542.00,0.0347
2541.00,0.0348
2540.00,0.0348
2539.00,0.0349
2538.00,0.0349
2537.00,0.0349
2536.00,0.0348
2535.00,0.0348
2534.00,0.0348
2533.00,0.0348
2532.00,0.0347
2531.00,0.0347
2530.00,0.0347
2529.00,0.0347
2528.00,0.0347
2527.00,0.0348
2526.00,0.0347
2525.00,0.0347
2524.00,0.0347
2523.00,0.0347
2522.00,0.0347
2521.00,0.0346
2520.00,0.0346
2519.00,0.0346
2518.00,0.0345
2517.00,0.0345
2516.00,0.0345
2515.00,0.0344
2514.00,0.0344
2513.00,0.0345
2512.00,0.0345
2511.00,0.0345
2510.00,0.0344
2509.00,0.0344
2508.00,0.0343
2507.00,0.0343
2506.00,0.0343
2505.00,0.0344
2504.00,0.0344
2503.00,0.0344
2502.00,0.0344
2501.00,0.0344
2500.00,0.0344
2499.00,0.0344
2498.00,0.0344
2497.00,0.0343
2496.00,0.0343
2495.00,0.0343
2494.00,0.0343
2493.00,0.0343
2492.00,0.0343
2491.00,0.0343
2490.00,0.0343
2489.00,0.0343
2488.00,0.0343
2487.00,0.0342
2486.00,0.0342
2485.00,0.0341
2484.00,0.0341
2483.00,0.0342
2482.00,0.0342
2481.00,0.0342
2480.00,0.0342
2479.00,0.0341
2478.00,0.0341
2477.00,0.0340
2476.00,0.0340
2475.00,0.0339
2474.00,0.0340
2473.00,0.0340
2472.00,0.0340
2471.00,0.0339
2470.00,0.0339
2469.00,0.0339
2468.00,0.0338
2467.00,0.0338
2466.00,0.0338
2465.00,0.0337
2464.00,0.0337
2463.00,0.0337
2462.00,0.0337
2461.00,0.0337
2460.00,0.0337
2459.00,0.0337
2458.00,0.0338
2457.00,0.0338
2456.00,0.0337
2455.00,0.0337
2454.00,0.0337
2453.00,0.0337
2452.00,0.0337
2451.00,0.0337
2450.00,0.0337
2449.00,0.0337
2448.00,0.0337
2447.00,0.0336
2446.00,0.0335
2445.00,0.0335
2444.00,0.0334
2443.00,0.0334
2442.00,0.0334
2441.00,0.0334
2440.00,0.0333
2439.00,0.0333
2438.00,0.0332
2437.00,0.0332
2436.00,0.0332
2435.00,0.0332
2434.00,0.0332
2433.00,0.0331
2432.00,0.0331
2431.00,0.0331
2430.00,0.0332
2429.00,0.0332
2428.00,0.0332
2427.00,0.0331
2426.00,0.0331
2425.00,0.0331
2424.00,0.0330
2423.00,0.0330
2422.00,0.0329
2421.00,0.0329
2420.00,0.0328
2419.00,0.0328
2418.00,0.0328
2417.00,0.0328
2416.00,0.0329
2415.00,0.0329
2414.00,0.0329
2413.00,0.0329
2412.00,0.0328
2411.00,0.0328
2410.00,0.0327
2409.00,0.0327
2408.00,0.0326
2407.00,0.0326
2406.00,0.0326
2405.00,0.0326
2404.00,0.0326
2403.00,0.0326
2402.00,0.0325
2401.00,0.0325
2400.00,0.0324
2399.00,0.0323
2398.00,0.0323
2397.00,0.0323
2396.00,0.0323
2395.00,0.0323
2394.00,0.0323
2393.00,0.0323
2392.00,0.0323
2391.00,0.0322
2390.00,0.0321
2389.00,0.0321
2388.00,0.0320
2387.00,0.0319
2386.00,0.0318
2385.00,0.0317
2384.00,0.0315
2383.00,0.0314
2382.00,0.0312
2381.00,0.0311
2380.00,0.0310
2379.00,0.0310
2378.00,0.0310
2377.00,0.0311
2376.00,0.0312
2375.00,0.0313
2374.00,0.0314
2373.00,0.0315
2372.00,0.0314
2371.00,0.0313
2370.00,0.0312
2369.00,0.0311
2368.00,0.0310
2367.00,0.0311
2366.00,0.0312
2365.00,0.0312
2364.00,0.0311
2363.00,0.0310
2362.00,0.0311
2361.00,0.0313
2360.00,0.0315
2359.00,0.0317
2358.00,0.0318
2357.00,0.0318
2356.00,0.0318
2355.00,0.0318
2354.00,0.0318
2353.00,0.0318
2352.00,0.0317
2351.00,0.0314
2350.00,0.0310
2349.00,0.0305
2348.00,0.0299
2347.00,0.0294
2346.00,0.0295
2345.00,0.0299
2344.00,0.0304
2343.00,0.0308
2342.00,0.0310
2341.00,0.0312
2340.00,0.0313
2339.00,0.0313
2338.00,0.0312
2337.00,0.0312
2336.00,0.0311
2335.00,0.0311
2334.00,0.0310
2333.00,0.0311
2332.00,0.0312
2331.00,0.0313
2330.00,0.0315
2329.00,0.0317
2328.00,0.0319
2327.00,0.0320
2326.00,0.0320
2325.00,0.0320
2324.00,0.0319
2323.00,0.0319
2322.00,0.0319
2321.00,0.0319
2320.00,0.0318
2319.00,0.0317
2318.00,0.0317
2317.00,0.0316
2316.00,0.0315
2315.00,0.0313
2314.00,0.0312
2313.00,0.0311
2312.00,0.0311
2311.00,0.0310
2310.00,0.0310
2309.00,0.0309
2308.00,0.0308
2307.00,0.0308
2306.00,0.0308
2305.00,0.0308
2304.00,0.0307
2303.00,0.0307
2302.00,0.0306
2301.00,0.0306
2300.00,0.0306
2299.00,0.0305
2298.00,0.0305
2297.00,0.0304
2296.00,0.0304
2295.00,0.0304
2294.00,0.0304
2293.00,0.0304
2292.00,0.0304
2291.00,0.0304
2290.00,0.0304
2289.00,0.0304
2288.00,0.0304
2287.00,0.0304
2286.00,0.0303
2285.00,0.0303
2284.00,0.0303
2283.00,0.0302
2282.00,0.0302
2281.00,0.0302
2280.00,0.0302
2279.00,0.0302
2278.00,0.0302
2277.00,0.0302
2276.00,0.0302
2275.00,0.0302
2274.00,0.0303
2273.00,0.0303
2272.00,0.0303
2271.00,0.0302
2270.00,0.0300
2269.00,0.0300
2268.00,0.0300
2267.00,0.0300
2266.00,0.0299
2265.00,0.0299
2264.00,0.0299
2263.00,0.0299
2262.00,0.0300
2261.00,0.0300
2260.00,0.0300
2259.00,0.0300
2258.00,0.0300
2257.00,0.0300
2256.00,0.0300
2255.00,0.0300
2254.00,0.0300
2253.00,0.0300
2252.00,0.0299
2251.00,0.0299
2250.00,0.0299
2249.00,0.0299
2248.00,0.0299
2247.00,0.0298
2246.00,0.0298
2245.00,0.0297
2244.00,0.0298
2243.00,0.0299
2242.00,0.0300
2241.00,0.0300
2240.00,0.0299
2239.00,0.0298
2238.00,0.0297
2237.00,0.0297
2236.00,0.0297
2235.00,0.0298
2234.00,0.0298
2233.00,0.0299
2232.00,0.0299
2231.00,0.0299
2230.00,0.0299
2229.00,0.0300
2228.00,0.0301
2227.00,0.0301
2226.00,0.0302
2225.00,0.0302
2224.00,0.0302
2223.00,0.0301
2222.00,0.0300
2221.00,0.0300
2220.00,0.0300
2219.00,0.0299
2218.00,0.0299
2217.00,0.0299
2216.00,0.0300
2215.00,0.0301
2214.00,0.0301
2213.00,0.0301
2212.00,0.0301
2211.00,0.0300
2210.00,0.0298
2209.00,0.0297
2208.00,0.0296
2207.00,0.0295
2206.00,0.0295
2205.00,0.0297
2204.00,0.0298
2203.00,0.0299
2202.00,0.0299
2201.00,0.0298
2200.00,0.0297
2199.00,0.0296
2198.00,0.0296
2197.00,0.0297
2196.00,0.0298
2195.00,0.0298
2194.00,0.0297
2193.00,0.0295
2192.00,0.0295
2191.00,0.0295
2190.00,0.0296
2189.00,0.0296
2188.00,0.0295
2187.00,0.0293
2186.00,0.0292
2185.00,0.0291
2184.00,0.0292
2183.00,0.0293
2182.00,0.0294
2181.00,0.0295
2180.00,0.0295
2179.00,0.0295
2178.00,0.0294
2177.00,0.0293
2176.00,0.0291
2175.00,0.0291
2174.00,0.0293
2173.00,0.0295
2172.00,0.0295
2171.00,0.0294
2170.00,0.0292
2169.00,0.0290
2168.00,0.0289
2167.00,0.0290
2166.00,0.0291
2165.00,0.0293
2164.00,0.0294
2163.00,0.0295
2162.00,0.0294
2161.00,0.0291
2160.00,0.0287
2159.00,0.0284
2158.00,0.0283
2157.00,0.0283
2156.00,0.0285
2155.00,0.0287
2154.00,0.0289
2153.00,0.0290
2152.00,0.0289
2151.00,0.0287
2150.00,0.0284
2149.00,0.0281
2148.00,0.0280
2147.00,0.0279
2146.00,0.0279
2145.00,0.0279
2144.00,0.0280
2143.00,0.0281
2142.00,0.0281
2141.00,0.0280
2140.00,0.0279
2139.00,0.0278
2138.00,0.0277
2137.00,0.0277
2136.00,0.0276
2135.00,0.0276
2134.00,0.0276
2133.00,0.0277
2132.00,0.0276
2131.00,0.0275
2130.00,0.0274
2129.00,0.0273
2128.00,0.0273
2127.00,0.0272
2126.00,0.0271
2125.00,0.0271
2124.00,0.0271
2123.00,0.0271
2122.00,0.0272
2121.00,0.0273
2120.00,0.0274
2119.00,0.0275
2118.00,0.0275
2117.00,0.0275
2116.00,0.0275
2115.00,0.0274
2114.00,0.0273
2113.00,0.0272
2112.00,0.0271
2111.00,0.0270
2110.00,0.0270
2109.00,0.0270
2108.00,0.0270
2107.00,0.0270
2106.00,0.0270
2105.00,0.0270
2104.00,0.0270
2103.00,0.0269
2102.00,0.0269
2101.00,0.0268
2100.00,0.0268
2099.00,0.0268
2098.00,0.0268
2097.00,0.0268
2096.00,0.0268
2095.00,0.0267
2094.00,0.0267
2093.00,0.0268
2092.00,0.0269
2091.00,0.0269
2090.00,0.0269
2089.00,0.0268
2088.00,0.0267
2087.00,0.0266
2086.00,0.0266
2085.00,0.0266
2084.00,0.0267
2083.00,0.0266
2082.00,0.0266
2081.00,0.0265
2080.00,0.0264
2079.00,0.0264
2078.00,0.0264
2077.00,0.0264
2076.00,0.0264
2075.00,0.0264
2074.00,0.0263
2073.00,0.0263
2072.00,0.0263
2071.00,0.0263
2070.00,0.0263
2069.00,0.0264
2068.00,0.0265
2067.00,0.0265
2066.00,0.0265
2065.00,0.0265
2064.00,0.0264
2063.00,0.0263
2062.00,0.0263
2061.00,0.0263
2060.00,0.0263
2059.00,0.0261
2058.00,0.0261
2057.00,0.0261
2056.00,0.0261
2055.00,0.0262
2054.00,0.0262
2053.00,0.0263
2052.00,0.0263
2051.00,0.0263
2050.00,0.0263
2049.00,0.0263
2048.00,0.0264
2047.00,0.0264
2046.00,0.0264
2045.00,0.0265
2044.00,0.0265
2043.00,0.0264
2042.00,0.0264
2041.00,0.0263
2040.00,0.0263
2039.00,0.0263
2038.00,0.0263
2037.00,0.0262
2036.00,0.0261
2035.00,0.0260
2034.00,0.0259
2033.00,0.0259
2032.00,0.0259
2031.00,0.0259
2030.00,0.0259
2029.00,0.0259
2028.00,0.0258
2027.00,0.0256
2026.00,0.0255
2025.00,0.0255
2024.00,0.0255
2023.00,0.0255
2022.00,0.0254
2021.00,0.0255
2020.00,0.0256
2019.00,0.0256
2018.00,0.0255
2017.00,0.0254
2016.00,0.0254
2015.00,0.0254
2014.00,0.0255
2013.00,0.0254
2012.00,0.0252
2011.00,0.0250
2010.00,0.0249
2009.00,0.0249
2008.00,0.0249
2007.00,0.0248
2006.00,0.0248
2005.00,0.0248
2004.00,0.0249
2003.00,0.0250
2002.00,0.0250
2001.00,0.0250
2000.00,0.0250
1999.00,0.0250
1998.00,0.0250
1997.00,0.0250
1996.00,0.0250
1995.00,0.0250
1994.00,0.0251
1993.00,0.0251
1992.00,0.0250
1991.00,0.0249
1990.00,0.0248
1989.00,0.0247
1988.00,0.0246
1987.00,0.0245
1986.00,0.0244
1985.00,0.0244
1984.00,0.0244
1983.00,0.0244
1982.00,0.0245
1981.00,0.0246
1980.00,0.0246
1979.00,0.0245
1978.00,0.0245
1977.00,0.0247
1976.00,0.0249
1975.00,0.0250
1974.00,0.0248
1973.00,0.0245
1972.00,0.0244
1971.00,0.0244
1970.00,0.0246
1969.00,0.0247
1968.00,0.0247
1967.00,0.0245
1966.00,0.0241
1965.00,0.0238
1964.00,0.0237
1963.00,0.0237
1962.00,0.0238
1961.00,0.0239
1960.00,0.0239
1959.00,0.0238
1958.00,0.0237
1957.00,0.0235
1956.00,0.0232
1955.00,0.0229
1954.00,0.0227
1953.00,0.0227
1952.00,0.0228
1951.00,0.0228
1950.00,0.0227
1949.00,0.0226
1948.00,0.0226
1947.00,0.0226
1946.00,0.0228
1945.00,0.0229
1944.00,0.0229
1943.00,0.0228
1942.00,0.0226
1941.00,0.0225
1940.00,0.0225
1939.00,0.0225
1938.00,0.0225
1937.00,0.0224
1936.00,0.0224
1935.00,0.0224
1934.00,0.0223
1933.00,0.0223
1932.00,0.0223
1931.00,0.0222
1930.00,0.0222
1929.00,0.0221
1928.00,0.0220
1927.00,0.0220
1926.00,0.0221
1925.00,0.0223
1924.00,0.0223
1923.00,0.0221
1922.00,0.0219
1921.00,0.0218
1920.00,0.0218
1919.00,0.0217
1918.00,0.0214
1917.00,0.0212
1916.00,0.0211
1915.00,0.0211
1914.00,0.0211
1913.00,0.0211
1912.00,0.0212
1911.00,0.0211
1910.00,0.0210
1909.00,0.0208
1908.00,0.0207
1907.00,0.0206
1906.00,0.0206
1905.00,0.0206
1904.00,0.0206
1903.00,0.0205
1902.00,0.0204
1901.00,0.0203
1900.00,0.0203
1899.00,0.0202
1898.00,0.0202
1897.00,0.0203
1896.00,0.0202
1895.00,0.0201
1894.00,0.0200
1893.00,0.0200
1892.00,0.0201
1891.00,0.0201
1890.00,0.0199
1889.00,0.0196
1888.00,0.0195
1887.00,0.0195
1886.00,0.0195
1885.00,0.0195
1884.00,0.0194
1883.00,0.0193
1882.00,0.0192
1881.00,0.0192
1880.00,0.0191
1879.00,0.0191
1878.00,0.0190
1877.00,0.0189
1876.00,0.0189
1875.00,0.0188
1874.00,0.0188
1873.00,0.0189
1872.00,0.0191
1871.00,0.0192
1870.00,0.0189
1869.00,0.0185
1868.00,0.0181
1867.00,0.0179
1866.00,0.0180
1865.00,0.0181
1864.00,0.0182
1863.00,0.0181
1862.00,0.0180
1861.00,0.0179
1860.00,0.0179
1859.00,0.0178
1858.00,0.0178
1857.00,0.0178
1856.00,0.0178
1855.00,0.0177
1854.00,0.0176
1853.00,0.0175
1852.00,0.0174
1851.00,0.0174
1850.00,0.0174
1849.00,0.0174
1848.00,0.0175
1847.00,0.0176
1846.00,0.0175
1845.00,0.0171
1844.00,0.0165
1843.00,0.0162
1842.00,0.0162
1841.00,0.0164
1840.00,0.0166
1839.00,0.0167
1838.00,0.0166
1837.00,0.0165
1836.00,0.0164
1835.00,0.0163
1834.00,0.0163
1833.00,0.0166
1832.00,0.0168
1831.00,0.0167
1830.00,0.0163
1829.00,0.0159
1828.00,0.0159
1827.00,0.0161
1826.00,0.0161
1825.00,0.0158
1824.00,0.0155
1823.00,0.0154
1822.00,0.0153
1821.00,0.0153
1820.00,0.0153
1819.00,0.0153
1818.00,0.0152
1817.00,0.0151
1816.00,0.0151
1815.00,0.0151
1814.00,0.0151
1813.00,0.0151
1812.00,0.0151
1811.00,0.0149
1810.00,0.0146
1809.00,0.0146
1808.00,0.0146
1807.00,0.0146
1806.00,0.0146
1805.00,0.0148
1804.00,0.0150
1803.00,0.0152
1802.00,0.0151
1801.00,0.0149
1800.00,0.0147
1799.00,0.0146
1798.00,0.0145
1797.00,0.0147
1796.00,0.0150
1795.00,0.0152
1794.00,0.0152
1793.00,0.0150
1792.00,0.0147
1791.00,0.0146
1790.00,0.0147
1789.00,0.0150
1788.00,0.0153
1787.00,0.0155
1786.00,0.0155
1785.00,0.0156
1784.00,0.0157
1783.00,0.0160
1782.00,0.0164
1781.00,0.0165
1780.00,0.0166
1779.00,0.0167
1778.00,0.0170
1777.00,0.0173
1776.00,0.0177
1775.00,0.0182
1774.00,0.0185
1773.00,0.0182
1772.00,0.0179
1771.00,0.0179
1770.00,0.0182
1769.00,0.0187
1768.00,0.0189
1767.00,0.0191
1766.00,0.0194
1765.00,0.0199
1764.00,0.0204
1763.00,0.0206
1762.00,0.0206
1761.00,0.0206
1760.00,0.0208
1759.00,0.0213
1758.00,0.0216
1757.00,0.0216
1756.00,0.0217
1755.00,0.0220
1754.00,0.0224
1753.00,0.0229
1752.00,0.0231
1751.00,0.0232
1750.00,0.0234
1749.00,0.0237
1748.00,0.0240
1747.00,0.0245
1746.00,0.0249
1745.00,0.0254
1744.00,0.0258
1743.00,0.0262
1742.00,0.0265
1741.00,0.0268
1740.00,0.0270
1739.00,0.0272
1738.00,0.0277
1737.00,0.0285
1736.00,0.0292
1735.00,0.0294
1734.00,0.0294
1733.00,0.0297
1732.00,0.0304
1731.00,0.0312
1730.00,0.0318
1729.00,0.0323
1728.00,0.0326
1727.00,0.0331
1726.00,0.0335
1725.00,0.0340
1724.00,0.0344
1723.00,0.0347
1722.00,0.0351
1721.00,0.0357
1720.00,0.0362
1719.00,0.0364
1718.00,0.0362
1717.00,0.0362
1716.00,0.0365
1715.00,0.0368
1714.00,0.0371
1713.00,0.0375
1712.00,0.0378
1711.00,0.0380
1710.00,0.0382
1709.00,0.0385
1708.00,0.0389
1707.00,0.0391
1706.00,0.0392
1705.00,0.0393
1704.00,0.0395
1703.00,0.0399
1702.00,0.0402
1701.00,0.0400
1700.00,0.0395
1699.00,0.0394
1698.00,0.0398
1697.00,0.0403
1696.00,0.0405
1695.00,0.0402
1694.00,0.0401
1693.00,0.0404
1692.00,0.0408
1691.00,0.0410
1690.00,0.0411
1689.00,0.0412
1688.00,0.0416
1687.00,0.0420
1686.00,0.0422
1685.00,0.0421
1684.00,0.0422
1683.00,0.0423
1682.00,0.0426
1681.00,0.0429
1680.00,0.0432
1679.00,0.0433
1678.00,0.0435
1677.00,0.0436
1676.00,0.0437
1675.00,0.0438
1674.00,0.0441
1673.00,0.0445
1672.00,0.0449
1671.00,0.0452
1670.00,0.0455
1669.00,0.0458
1668.00,0.0461
1667.00,0.0464
1666.00,0.0466
1665.00,0.0468
1664.00,0.0470
1663.00,0.0472
1662.00,0.0475
1661.00,0.0478
1660.00,0.0481
1659.00,0.0483
1658.00,0.0486
1657.00,0.0488
1656.00,0.0494
1655.00,0.0499
1654.00,0.0500
1653.00,0.0504
1652.00,0.0505
1651.00,0.0504
1650.00,0.0507
1649.00,0.0511
1648.00,0.0514
1647.00,0.0517
1646.00,0.0521
1645.00,0.0525
1644.00,0.0527
1643.00,0.0530
1642.00,0.0533
1641.00,0.0535
1640.00,0.0538
1639.00,0.0540
1638.00,0.0543
1637.00,0.0546
1636.00,0.0551
1635.00,0.0557
1634.00,0.0561
1633.00,0.0563
1632.00,0.0566
1631.00,0.0570
1630.00,0.0573
1629.00,0.0577
1628.00,0.0582
1627.00,0.0585
1626.00,0.0588
1625.00,0.0592
1624.00,0.0596
1623.00,0.0600
1622.00,0.0604
1621.00,0.0606
1620.00,0.0608
1619.00,0.0610
1618.00,0.0613
1617.00,0.0617
1616.00,0.0621
1615.00,0.0625
1614.00,0.0627
1613.00,0.0630
1612.00,0.0631
1611.00,0.0634
1610.00,0.0637
1609.00,0.0641
1608.00,0.0644
1607.00,0.0648
1606.00,0.0650
1605.00,0.0652
1604.00,0.0654
1603.00,0.0656
1602.00,0.0659
1601.00,0.0661
1600.00,0.0663
1599.00,0.0665
1598.00,0.0667
1597.00,0.0669
1596.00,0.0671
1595.00,0.0673
1594.00,0.0675
1593.00,0.0676
1592.00,0.0677
1591.00,0.0679
1590.00,0.0681
1589.00,0.0683
1588.00,0.0685
1587.00,0.0686
1586.00,0.0687
1585.00,0.0688
1584.00,0.0688
1583.00,0.0689
1582.00,0.0690
1581.00,0.0691
1580.00,0.0691
1579.00,0.0691
1578.00,0.0692
1577.00,0.0693
1576.00,0.0694
1575.00,0.0695
1574.00,0.0695
1573.00,0.0694
1572.00,0.0692
1571.00,0.0692
1570.00,0.0693
1569.00,0.0695
1568.00,0.0695
1567.00,0.0694
1566.00,0.0693
1565.00,0.0692
1564.00,0.0691
1563.00,0.0689
1562.00,0.0689
1561.00,0.0687
1560.00,0.0684
1559.00,0.0689
1558.00,0.0694
1557.00,0.0689
1556.00,0.0684
1555.00,0.0681
1554.00,0.0679
1553.00,0.0677
1552.00,0.0676
1551.00,0.0676
1550.00,0.0674
1549.00,0.0671
1548.00,0.0667
1547.00,0.0663
1546.00,0.0659
1545.00,0.0656
1544.00,0.0653
1543.00,0.0649
1542.00,0.0643
1541.00,0.0639
1540.00,0.0643
1539.00,0.0646
1538.00,0.0643
1537.00,0.0639
1536.00,0.0637
1535.00,0.0635
1534.00,0.0634
1533.00,0.0634
1532.00,0.0632
1531.00,0.0628
1530.00,0.0624
1529.00,0.0621
1528.00,0.0619
1527.00,0.0617
1526.00,0.0614
1525.00,0.0610
1524.00,0.0608
1523.00,0.0605
1522.00,0.0603
1521.00,0.0602
1520.00,0.0602
1519.00,0.0602
1518.00,0.0600
1517.00,0.0599
1516.00,0.0597
1515.00,0.0593
1514.00,0.0589
1513.00,0.0586
1512.00,0.0585
1511.00,0.0585
1510.00,0.0586
1509.00,0.0587
1508.00,0.0586
1507.00,0.0585
1506.00,0.0581
1505.00,0.0573
1504.00,0.0568
1503.00,0.0566
1502.00,0.0564
1501.00,0.0562
1500.00,0.0559
1499.00,0.0557
1498.00,0.0554
1497.00,0.0553
1496.00,0.0555
1495.00,0.0556
1494.00,0.0557
1493.00,0.0558
1492.00,0.0559
1491.00,0.0560
1490.00,0.0561
1489.00,0.0563
1488.00,0.0564
1487.00,0.0562
1486.00,0.0560
1485.00,0.0558
1484.00,0.0557
1483.00,0.0556
1482.00,0.0555
1481.00,0.0555
1480.00,0.0555
1479.00,0.0555
1478.00,0.0554
1477.00,0.0554
1476.00,0.0554
1475.00,0.0553
1474.00,0.0551
1473.00,0.0550
1472.00,0.0552
1471.00,0.0553
1470.00,0.0553
1469.00,0.0553
1468.00,0.0554
1467.00,0.0554
1466.00,0.0553
1465.00,0.0553
1464.00,0.0553
1463.00,0.0554
1462.00,0.0553
1461.00,0.0554
1460.00,0.0555
1459.00,0.0555
1458.00,0.0554
1457.00,0.0555
1456.00,0.0558
1455.00,0.0559
1454.00,0.0560
1453.00,0.0561
1452.00,0.0562
1451.00,0.0564
1450.00,0.0565
1449.00,0.0567
1448.00,0.0570
1447.00,0.0572
1446.00,0.0572
1445.00,0.0571
1444.00,0.0572
1443.00,0.0573
1442.00,0.0573
1441.00,0.0573
1440.00,0.0574
1439.00,0.0575
1438.00,0.0575
1437.00,0.0577
1436.00,0.0579
1435.00,0.0581
1434.00,0.0582
1433.00,0.0583
1432.00,0.0584
1431.00,0.0586
1430.00,0.0587
1429.00,0.0588
1428.00,0.0589
1427.00,0.0589
1426.00,0.0590
1425.00,0.0591
1424.00,0.0592
1423.00,0.0593
1422.00,0.0593
1421.00,0.0593
1420.00,0.0594
1419.00,0.0597
1418.00,0.0599
1417.00,0.0600
1416.00,0.0600
1415.00,0.0600
1414.00,0.0600
1413.00,0.0600
1412.00,0.0601
1411.00,0.0602
1410.00,0.0603
1409.00,0.0603
1408.00,0.0604
1407.00,0.0605
1406.00,0.0606
1405.00,0.0607
1404.00,0.0609
1403.00,0.0610
1402.00,0.0611
1401.00,0.0612
1400.00,0.0614
1399.00,0.0616
1398.00,0.0618
1397.00,0.0619
1396.00,0.0621
1395.00,0.0623
1394.00,0.0624
1393.00,0.0623
1392.00,0.0623
1391.00,0.0623
1390.00,0.0624
1389.00,0.0626
1388.00,0.0628
1387.00,0.0631
1386.00,0.0633
1385.00,0.0634
1384.00,0.0635
1383.00,0.0635
1382.00,0.0636
1381.00,0.0636
1380.00,0.0637
1379.00,0.0638
1378.00,0.0639
1377.00,0.0640
1376.00,0.0642
1375.00,0.0645
1374.00,0.0647
1373.00,0.0648
1372.00,0.0647
1371.00,0.0646
1370.00,0.0647
1369.00,0.0648
1368.00,0.0648
1367.00,0.0648
1366.00,0.0648
1365.00,0.0648
1364.00,0.0650
1363.00,0.0651
1362.00,0.0652
1361.00,0.0652
1360.00,0.0651
1359.00,0.0650
1358.00,0.0649
1357.00,0.0649
1356.00,0.0648
1355.00,0.0648
1354.00,0.0647
1353.00,0.0647
1352.00,0.0646
1351.00,0.0644
1350.00,0.0643
1349.00,0.0643
1348.00,0.0643
1347.00,0.0643
1346.00,0.0642
1345.00,0.0642
1344.00,0.0641
1343.00,0.0641
1342.00,0.0641
1341.00,0.0642
1340.00,0.0643
1339.00,0.0644
1338.00,0.0643
1337.00,0.0642
1336.00,0.0640
1335.00,0.0638
1334.00,0.0637
1333.00,0.0635
1332.00,0.0635
1331.00,0.0634
1330.00,0.0634
1329.00,0.0633
1328.00,0.0632
1327.00,0.0631
1326.00,0.0630
1325.00,0.0630
1324.00,0.0629
1323.00,0.0629
1322.00,0.0628
1321.00,0.0628
1320.00,0.0628
1319.00,0.0628
1318.00,0.0629
1317.00,0.0629
1316.00,0.0629
1315.00,0.0629
1314.00,0.0629
1313.00,0.0629
1312.00,0.0628
1311.00,0.0627
1310.00,0.0627
1309.00,0.0626
1308.00,0.0626
1307.00,0.0627
1306.00,0.0627
1305.00,0.0627
1304.00,0.0627
1303.00,0.0627
1302.00,0.0627
1301.00,0.0627
1300.00,0.0627
1299.00,0.0628
1298.00,0.0628
1297.00,0.0628
1296.00,0.0628
1295.00,0.0628
1294.00,0.0629
1293.00,0.0629
1292.00,0.0630
1291.00,0.0631
1290.00,0.0632
1289.00,0.0633
1288.00,0.0634
1287.00,0.0635
1286.00,0.0636
1285.00,0.0636
1284.00,0.0636
1283.00,0.0636
1282.00,0.0636
1281.00,0.0637
1280.00,0.0638
1279.00,0.0639
1278.00,0.0640
1277.00,0.0640
1276.00,0.0641
1275.00,0.0641
1274.00,0.0642
1273.00,0.0642
1272.00,0.0642
1271.00,0.0643
1270.00,0.0643
1269.00,0.0643
1268.00,0.0643
1267.00,0.0643
1266.00,0.0643
1265.00,0.0642
1264.00,0.0641
1263.00,0.0641
1262.00,0.0642
1261.00,0.0643
1260.00,0.0644
1259.00,0.0644
1258.00,0.0644
1257.00,0.0645
1256.00,0.0645
1255.00,0.0646
1254.00,0.0647
1253.00,0.0648
1252.00,0.0649
1251.00,0.0649
1250.00,0.0649
1249.00,0.0650
1248.00,0.0650
1247.00,0.0650
1246.00,0.0650
1245.00,0.0650
1244.00,0.0650
1243.00,0.0650
1242.00,0.0650
1241.00,0.0649
1240.00,0.0649
1239.00,0.0649
1238.00,0.0649
1237.00,0.0649
1236.00,0.0649
1235.00,0.0648
1234.00,0.0648
1233.00,0.0647
1232.00,0.0647
1231.00,0.0647
1230.00,0.0646
1229.00,0.0646
1228.00,0.0645
1227.00,0.0645
1226.00,0.0645
1225.00,0.0644
1224.00,0.0644
1223.00,0.0644
1222.00,0.0643
1221.00,0.0642
1220.00,0.0641
1219.00,0.0640
1218.00,0.0640
1217.00,0.0639
1216.00,0.0638
1215.00,0.0637
1214.00,0.0636
1213.00,0.0635
1212.00,0.0634
1211.00,0.0634
1210.00,0.0633
1209.00,0.0632
1208.00,0.0631
1207.00,0.0631
1206.00,0.0630
1205.00,0.0628
1204.00,0.0627
1203.00,0.0626
1202.00,0.0625
1201.00,0.0625
1200.00,0.0624
1199.00,0.0624
1198.00,0.0623
1197.00,0.0622
1196.00,0.0622
1195.00,0.0622
1194.00,0.0622
1193.00,0.0621
1192.00,0.0621
1191.00,0.0620
1190.00,0.0620
1189.00,0.0619
1188.00,0.0619
1187.00,0.0619
1186.00,0.0618
1185.00,0.0617
1184.00,0.0617
1183.00,0.0615
1182.00,0.0614
1181.00,0.0613
1180.00,0.0613
1179.00,0.0613
1178.00,0.0613
1177.00,0.0612
1176.00,0.0611
1175.00,0.0610
1174.00,0.0609
1173.00,0.0607
1172.00,0.0606
1171.00,0.0605
1170.00,0.0604
1169.00,0.0603
1168.00,0.0604
1167.00,0.0604
1166.00,0.0604
1165.00,0.0604
1164.00,0.0603
1163.00,0.0603
1162.00,0.0601
1161.00,0.0600
1160.00,0.0599
1159.00,0.0599
1158.00,0.0598
1157.00,0.0597
1156.00,0.0596
1155.00,0.0596
1154.00,0.0596
1153.00,0.0596
1152.00,0.0595
1151.00,0.0595
1150.00,0.0594
1149.00,0.0594
1148.00,0.0595
1147.00,0.0595
1146.00,0.0596
1145.00,0.0596
1144.00,0.0595
1143.00,0.0594
1142.00,0.0592
1141.00,0.0591
1140.00,0.0590
1139.00,0.0590
1138.00,0.0590
1137.00,0.0590
1136.00,0.0590
1135.00,0.0590
1134.00,0.0591
1133.00,0.0591
1132.00,0.0592
1131.00,0.0592
1130.00,0.0592
1129.00,0.0592
1128.00,0.0593
1127.00,0.0594
1126.00,0.0595
1125.00,0.0596
1124.00,0.0597
1123.00,0.0597
1122.00,0.0598
1121.00,0.0599
1120.00,0.0600
1119.00,0.0603
1118.00,0.0604
1117.00,0.0605
1116.00,0.0605
1115.00,0.0605
1114.00,0.0605
1113.00,0.0605
1112.00,0.0605
1111.00,0.0605
1110.00,0.0605
1109.00,0.0607
1108.00,0.0609
1107.00,0.0610
1106.00,0.0611
1105.00,0.0612
1104.00,0.0613
1103.00,0.0614
1102.00,0.0614
1101.00,0.0614
1100.00,0.0613
1099.00,0.0613
1098.00,0.0613
1097.00,0.0613
1096.00,0.0612
1095.00,0.0612
1094.00,0.0612
1093.00,0.0613
1092.00,0.0614
1091.00,0.0615
1090.00,0.0615
1089.00,0.0616
1088.00,0.0616
1087.00,0.0616
1086.00,0.0615
1085.00,0.0613
1084.00,0.0612
1083.00,0.0613
1082.00,0.0614
1081.00,0.0614
1080.00,0.0614
1079.00,0.0614
1078.00,0.0615
1077.00,0.0616
1076.00,0.0617
1075.00,0.0618
1074.00,0.0618
1073.00,0.0619
1072.00,0.0620
1071.00,0.0621
1070.00,0.0621
1069.00,0.0621
1068.00,0.0621
1067.00,0.0622
1066.00,0.0622
1065.00,0.0623
1064.00,0.0623
1063.00,0.0623
1062.00,0.0623
1061.00,0.0624
1060.00,0.0625
1059.00,0.0626
1058.00,0.0626
1057.00,0.0626
1056.00,0.0627
1055.00,0.0627
1054.00,0.0628
1053.00,0.0629
1052.00,0.0631
1051.00,0.0633
1050.00,0.0635
1049.00,0.0636
1048.00,0.0637
1047.00,0.0638
1046.00,0.0639
1045.00,0.0640
1044.00,0.0640
1043.00,0.0640
1042.00,0.0641
1041.00,0.0642
1040.00,0.0644
1039.00,0.0645
1038.00,0.0645
1037.00,0.0646
1036.00,0.0646
1035.00,0.0646
1034.00,0.0645
1033.00,0.0645
1032.00,0.0645
1031.00,0.0644
1030.00,0.0641
1029.00,0.0639
1028.00,0.0635
1027.00,0.0632
1026.00,0.0630
1025.00,0.0629
1024.00,0.0628
1023.00,0.0628
1022.00,0.0627
1021.00,0.0626
1020.00,0.0625
1019.00,0.0625
1018.00,0.0624
1017.00,0.0623
1016.00,0.0623
1015.00,0.0623
1014.00,0.0624
1013.00,0.0624
1012.00,0.0624
1011.00,0.0625
1010.00,0.0625
1009.00,0.0625
1008.00,0.0626
1007.00,0.0625
1006.00,0.0625
1005.00,0.0624
1004.00,0.0623
1003.00,0.0622
1002.00,0.0621
1001.00,0.0620
1000.00,0.0618
999.00,0.0616
998.00,0.0614
997.00,0.0611
996.00,0.0608
995.00,0.0606
994.00,0.0603
993.00,0.0602
992.00,0.0600
991.00,0.0598
990.00,0.0596
989.00,0.0594
988.00,0.0593
987.00,0.0593
986.00,0.0592
985.00,0.0591
984.00,0.0590
983.00,0.0589
982.00,0.0587
981.00,0.0586
980.00,0.0585
979.00,0.0584
978.00,0.0582
977.00,0.0581
976.00,0.0580
975.00,0.0578
974.00,0.0577
973.00,0.0576
972.00,0.0576
971.00,0.0576
970.00,0.0576
969.00,0.0576
968.00,0.0575
967.00,0.0574
966.00,0.0573
965.00,0.0573
964.00,0.0573
963.00,0.0573
962.00,0.0572
961.00,0.0572
960.00,0.0571
959.00,0.0570
958.00,0.0569
957.00,0.0568
956.00,0.0568
955.00,0.0570
954.00,0.0572
953.00,0.0574
952.00,0.0573
951.00,0.0572
950.00,0.0572
949.00,0.0572
948.00,0.0573
947.00,0.0574
946.00,0.0576
945.00,0.0577
944.00,0.0578
943.00,0.0578
942.00,0.0579
941.00,0.0580
940.00,0.0581
939.00,0.0581
938.00,0.0580
937.00,0.0581
936.00,0.0582
935.00,0.0584
934.00,0.0585
933.00,0.0585
932.00,0.0585
931.00,0.0584
930.00,0.0584
929.00,0.0584
928.00,0.0586
927.00,0.0588
926.00,0.0591
925.00,0.0594
924.00,0.0595
923.00,0.0596
922.00,0.0596
921.00,0.0597
920.00,0.0598
919.00,0.0599
918.00,0.0601
917.00,0.0603
916.00,0.0604
915.00,0.0606
914.00,0.0606
913.00,0.0607
912.00,0.0607
911.00,0.0607
910.00,0.0607
909.00,0.0607
908.00,0.0608
907.00,0.0608
906.00,0.0608
905.00,0.0606
904.00,0.0605
903.00,0.0603
902.00,0.0603
901.00,0.0604
900.00,0.0604
899.00,0.0604
898.00,0.0604
897.00,0.0602
896.00,0.0602
895.00,0.0602
894.00,0.0602
893.00,0.0603
892.00,0.0604
891.00,0.0603
890.00,0.0602
889.00,0.0601
888.00,0.0601
887.00,0.0601
886.00,0.0602
885.00,0.0601
884.00,0.0601
883.00,0.0602
882.00,0.0603
881.00,0.0604
880.00,0.0605
879.00,0.0605
878.00,0.0605
877.00,0.0603
876.00,0.0602
875.00,0.0603
874.00,0.0603
873.00,0.0604
872.00,0.0604
871.00,0.0603
870.00,0.0603
869.00,0.0603
868.00,0.0603
867.00,0.0603
866.00,0.0602
865.00,0.0601
864.00,0.0601
863.00,0.0602
862.00,0.0603
861.00,0.0604
860.00,0.0606
859.00,0.0606
858.00,0.0607
857.00,0.0607
856.00,0.0608
855.00,0.0609
854.00,0.0609
853.00,0.0608
852.00,0.0608
851.00,0.0609
850.00,0.0611
849.00,0.0613
848.00,0.0616
847.00,0.0620
846.00,0.0623
845.00,0.0626
844.00,0.0627
843.00,0.0628
842.00,0.0627
841.00,0.0628
840.00,0.0630
839.00,0.0633
838.00,0.0637
837.00,0.0639
836.00,0.0640
835.00,0.0641
834.00,0.0642
833.00,0.0644
832.00,0.0646
831.00,0.0648
830.00,0.0649
829.00,0.0648
828.00,0.0647
827.00,0.0647
826.00,0.0648
825.00,0.0649
824.00,0.0650
823.00,0.0652
822.00,0.0653
821.00,0.0654
820.00,0.0656
819.00,0.0657
818.00,0.0658
817.00,0.0659
816.00,0.0659
815.00,0.0658
814.00,0.0657
813.00,0.0657
812.00,0.0658
811.00,0.0661
810.00,0.0664
809.00,0.0667
808.00,0.0668
807.00,0.0668
806.00,0.0668
805.00,0.0668
804.00,0.0669
803.00,0.0670
802.00,0.0673
801.00,0.0676
800.00,0.0677
799.00,0.0677
798.00,0.0676
797.00,0.0677
796.00,0.0679
795.00,0.0682
794.00,0.0684
793.00,0.0684
792.00,0.0684
791.00,0.0685
790.00,0.0686
789.00,0.0688
788.00,0.0690
787.00,0.0692
786.00,0.0694
785.00,0.0697
784.00,0.0699
783.00,0.0701
782.00,0.0702
781.00,0.0702
780.00,0.0703
779.00,0.0704
778.00,0.0705
777.00,0.0705
776.00,0.0706
775.00,0.0708
774.00,0.0709
773.00,0.0710
772.00,0.0711
771.00,0.0712
770.00,0.0713
769.00,0.0713
768.00,0.0713
767.00,0.0713
766.00,0.0712
765.00,0.0712
764.00,0.0712
763.00,0.0714
762.00,0.0716
761.00,0.0718
760.00,0.0720
759.00,0.0722
758.00,0.0723
757.00,0.0725
756.00,0.0726
755.00,0.0727
754.00,0.0728
753.00,0.0729
752.00,0.0730
751.00,0.0732
750.00,0.0733
749.00,0.0733
748.00,0.0732
747.00,0.0731
746.00,0.0731
745.00,0.0733
744.00,0.0734
743.00,0.0735
742.00,0.0735
741.00,0.0733
740.00,0.0732
739.00,0.0732
738.00,0.0732
737.00,0.0732
736.00,0.0733
735.00,0.0734
734.00,0.0734
733.00,0.0735
732.00,0.0737
731.00,0.0739
730.00,0.0740
729.00,0.0740
728.00,0.0738
727.00,0.0737
726.00,0.0738
725.00,0.0740
724.00,0.0742
723.00,0.0743
722.00,0.0743
721.00,0.0743
720.00,0.0745
719.00,0.0747
718.00,0.0748
717.00,0.0749
716.00,0.0750
715.00,0.0753
714.00,0.0757
713.00,0.0762
712.00,0.0765
711.00,0.0765
710.00,0.0764
709.00,0.0763
708.00,0.0763
707.00,0.0765
706.00,0.0769
705.00,0.0773
704.00,0.0777
703.00,0.0780
702.00,0.0781
701.00,0.0781
700.00,0.0782
699.00,0.0783
698.00,0.0784
697.00,0.0785
696.00,0.0783
695.00,0.0781
694.00,0.0779
693.00,0.0780
692.00,0.0785
691.00,0.0791
690.00,0.0795
689.00,0.0796
688.00,0.0794
687.00,0.0792
686.00,0.0790
685.00,0.0788
684.00,0.0788
683.00,0.0789
682.00,0.0792
681.00,0.0799
680.00,0.0804
679.00,0.0807
678.00,0.0809
677.00,0.0811
676.00,0.0815
675.00,0.0819
674.00,0.0819
673.00,0.0815
672.00,0.0810
671.00,0.0807
670.00,0.0808
669.00,0.0820
668.00,0.0843
667.00,0.0854
666.00,0.0845
665.00,0.0832
664.00,0.0822
663.00,0.0818
662.00,0.0817
661.00,0.0822
660.00,0.0830
659.00,0.0837
658.00,0.0839
657.00,0.0837
656.00,0.0833
655.00,0.0832
654.00,0.0834
653.00,0.0837
652.00,0.0841
651.00,0.0844
650.00,0.0847
