Created as New Dataset,Monday, April 03 2023
cm-1,A
4000.00,0.0192
3999.00,0.0192
3998.00,0.0192
3997.00,0.0192
3996.00,0.0192
3995.00,0.0192
3994.00,0.0192
3993.00,0.0192
3992.00,0.0192
3991.00,0.0192
3990.00,0.0191
3989.00,0.0191
3988.00,0.0191
3987.00,0.0191
3986.00,0.0191
3985.00,0.0191
3984.00,0.0191
3983.00,0.0191
3982.00,0.0191
3981.00,0.0191
3980.00,0.0191
3979.00,0.0191
3978.00,0.0191
3977.00,0.0190
3976.00,0.0190
3975.00,0.0190
3974.00,0.0190
3973.00,0.0190
3972.00,0.0190
3971.00,0.0190
3970.00,0.0190
3969.00,0.0190
3968.00,0.0190
3967.00,0.0190
3966.00,0.0190
3965.00,0.0190
3964.00,0.0190
3963.00,0.0190
3962.00,0.0190
3961.00,0.0190
3960.00,0.0190
3959.00,0.0190
3958.00,0.0190
3957.00,0.0190
3956.00,0.0190
3955.00,0.0189
3954.00,0.0189
3953.00,0.0189
3952.00,0.0189
3951.00,0.0189
3950.00,0.0189
3949.00,0.0189
3948.00,0.0188
3947.00,0.0188
3946.00,0.0187
3945.00,0.0188
3944.00,0.0188
3943.00,0.0188
3942.00,0.0188
3941.00,0.0188
3940.00,0.0188
3939.00,0.0188
3938.00,0.0189
3937.00,0.0188
3936.00,0.0188
3935.00,0.0188
3934.00,0.0189
3933.00,0.0189
3932.00,0.0189
3931.00,0.0188
3930.00,0.0188
3929.00,0.0187
3928.00,0.0187
3927.00,0.0187
3926.00,0.0188
3925.00,0.0187
3924.00,0.0187
3923.00,0.0186
3922.00,0.0186
3921.00,0.0187
3920.00,0.0186
3919.00,0.0186
3918.00,0.0186
3917.00,0.0186
3916.00,0.0186
3915.00,0.0186
3914.00,0.0187
3913.00,0.0187
3912.00,0.0188
3911.00,0.0188
3910.00,0.0187
3909.00,0.0187
3908.00,0.0186
3907.00,0.0185
3906.00,0.0183
3905.00,0.0182
3904.00,0.0181
3903.00,0.0180
3902.00,0.0180
3901.00,0.0182
3900.00,0.0183
3899.00,0.0183
3898.00,0.0183
3897.00,0.0184
3896.00,0.0184
3895.00,0.0185
3894.00,0.0185
3893.00,0.0185
3892.00,0.0185
3891.00,0.0184
3890.00,0.0183
3889.00,0.0182
3888.00,0.0184
3887.00,0.0185
3886.00,0.0185
3885.00,0.0184
3884.00,0.0182
3883.00,0.0182
3882.00,0.0183
3881.00,0.0184
3880.00,0.0183
3879.00,0.0182
3878.00,0.0182
3877.00,0.0183
3876.00,0.0184
3875.00,0.0183
3874.00,0.0182
3873.00,0.0180
3872.00,0.0180
3871.00,0.0181
3870.00,0.0181
3869.00,0.0179
3868.00,0.0179
3867.00,0.0180
3866.00,0.0181
3865.00,0.0181
3864.00,0.0181
3863.00,0.0181
3862.00,0.0181
3861.00,0.0182
3860.00,0.0183
3859.00,0.0182
3858.00,0.0180
3857.00,0.0177
3856.00,0.0174
3855.00,0.0174
3854.00,0.0177
3853.00,0.0178
3852.00,0.0175
3851.00,0.0176
3850.00,0.0179
3849.00,0.0182
3848.00,0.0183
3847.00,0.0183
3846.00,0.0183
3845.00,0.0182
3844.00,0.0181
3843.00,0.0180
3842.00,0.0178
3841.00,0.0177
3840.00,0.0176
3839.00,0.0176
3838.00,0.0177
3837.00,0.0177
3836.00,0.0177
3835.00,0.0177
3834.00,0.0179
3833.00,0.0180
3832.00,0.0181
3831.00,0.0181
3830.00,0.0182
3829.00,0.0182
3828.00,0.0183
3827.00,0.0182
3826.00,0.0181
3825.00,0.0178
3824.00,0.0177
3823.00,0.0177
3822.00,0.0178
3821.00,0.0178
3820.00,0.0176
3819.00,0.0175
3818.00,0.0178
3817.00,0.0180
3816.00,0.0181
3815.00,0.0180
3814.00,0.0180
3813.00,0.0182
3812.00,0.0183
3811.00,0.0182
3810.00,0.0180
3809.00,0.0180
3808.00,0.0180
3807.00,0.0180
3806.00,0.0178
3805.00,0.0176
3804.00,0.0176
3803.00,0.0178
3802.00,0.0179
3801.00,0.0178
3800.00,0.0176
3799.00,0.0176
3798.00,0.0178
3797.00,0.0180
3796.00,0.0180
3795.00,0.0180
3794.00,0.0180
3793.00,0.0182
3792.00,0.0182
3791.00,0.0182
3790.00,0.0182
3789.00,0.0182
3788.00,0.0182
3787.00,0.0182
3786.00,0.0182
3785.00,0.0181
3784.00,0.0180
3783.00,0.0180
3782.00,0.0180
3781.00,0.0180
3780.00,0.0180
3779.00,0.0180
3778.00,0.0179
3777.00,0.0180
3776.00,0.0180
3775.00,0.0181
3774.00,0.0180
3773.00,0.0179
3772.00,0.0179
3771.00,0.0179
3770.00,0.0178
3769.00,0.0177
3768.00,0.0177
3767.00,0.0178
3766.00,0.0179
3765.00,0.0178
3764.00,0.0177
3763.00,0.0177
3762.00,0.0177
3761.00,0.0177
3760.00,0.0177
3759.00,0.0177
3758.00,0.0176
3757.00,0.0174
3756.00,0.0172
3755.00,0.0171
3754.00,0.0169
3753.00,0.0168
3752.00,0.0167
3751.00,0.0168
3750.00,0.0168
3749.00,0.0167
3748.00,0.0166
3747.00,0.0167
3746.00,0.0169
3745.00,0.0172
3744.00,0.0171
3743.00,0.0169
3742.00,0.0169
3741.00,0.0172
3740.00,0.0172
3739.00,0.0171
3738.00,0.0170
3737.00,0.0169
3736.00,0.0169
3735.00,0.0169
3734.00,0.0168
3733.00,0.0169
3732.00,0.0170
3731.00,0.0172
3730.00,0.0174
3729.00,0.0175
3728.00,0.0176
3727.00,0.0175
3726.00,0.0174
3725.00,0.0173
3724.00,0.0173
3723.00,0.0174
3722.00,0.0175
3721.00,0.0176
3720.00,0.0177
3719.00,0.0178
3718.00,0.0179
3717.00,0.0179
3716.00,0.0178
3715.00,0.0178
3714.00,0.0177
3713.00,0.0178
3712.00,0.0179
3711.00,0.0182
3710.00,0.0184
3709.00,0.0186
3708.00,0.0188
3707.00,0.0191
3706.00,0.0192
3705.00,0.0193
3704.00,0.0195
3703.00,0.0197
3702.00,0.0200
3701.00,0.0202
3700.00,0.0204
3699.00,0.0206
3698.00,0.0207
3697.00,0.0208
3696.00,0.0207
3695.00,0.0206
3694.00,0.0204
3693.00,0.0201
3692.00,0.0199
3691.00,0.0198
3690.00,0.0200
3689.00,0.0202
3688.00,0.0202
3687.00,0.0201
3686.00,0.0202
3685.00,0.0203
3684.00,0.0203
3683.00,0.0202
3682.00,0.0200
3681.00,0.0198
3680.00,0.0195
3679.00,0.0192
3678.00,0.0189
3677.00,0.0190
3676.00,0.0193
3675.00,0.0194
3674.00,0.0192
3673.00,0.0193
3672.00,0.0195
3671.00,0.0197
3670.00,0.0198
3669.00,0.0198
3668.00,0.0199
3667.00,0.0201
3666.00,0.0204
3665.00,0.0206
3664.00,0.0207
3663.00,0.0208
3662.00,0.0209
3661.00,0.0209
3660.00,0.0209
3659.00,0.0209
3658.00,0.0211
3657.00,0.0214
3656.00,0.0216
3655.00,0.0215
3654.00,0.0213
3653.00,0.0212
3652.00,0.0209
3651.00,0.0210
3650.00,0.0213
3649.00,0.0218
3648.00,0.0219
3647.00,0.0219
3646.00,0.0220
3645.00,0.0222
3644.00,0.0224
3643.00,0.0226
3642.00,0.0226
3641.00,0.0227
3640.00,0.0228
3639.00,0.0228
3638.00,0.0228
3637.00,0.0227
3636.00,0.0227
3635.00,0.0227
3634.00,0.0227
3633.00,0.0224
3632.00,0.0222
3631.00,0.0221
3630.00,0.0225
3629.00,0.0230
3628.00,0.0234
3627.00,0.0236
3626.00,0.0239
3625.00,0.0243
3624.00,0.0245
3623.00,0.0246
3622.00,0.0246
3621.00,0.0248
3620.00,0.0250
3619.00,0.0250
3618.00,0.0249
3617.00,0.0247
3616.00,0.0245
3615.00,0.0244
3614.00,0.0244
3613.00,0.0243
3612.00,0.0242
3611.00,0.0242
3610.00,0.0243
3609.00,0.0245
3608.00,0.0247
3607.00,0.0247
3606.00,0.0248
3605.00,0.0248
3604.00,0.0247
3603.00,0.0247
3602.00,0.0247
3601.00,0.0247
3600.00,0.0247
3599.00,0.0247
3598.00,0.0247
3597.00,0.0247
3596.00,0.0248
3595.00,0.0250
3594.00,0.0251
3593.00,0.0251
3592.00,0.0251
3591.00,0.0249
3590.00,0.0248
3589.00,0.0248
3588.00,0.0250
3587.00,0.0251
3586.00,0.0252
3585.00,0.0253
3584.00,0.0254
3583.00,0.0256
3582.00,0.0257
3581.00,0.0258
3580.00,0.0258
3579.00,0.0258
3578.00,0.0259
3577.00,0.0259
3576.00,0.0260
3575.00,0.0260
3574.00,0.0261
3573.00,0.0261
3572.00,0.0260
3571.00,0.0259
3570.00,0.0258
3569.00,0.0258
3568.00,0.0260
3567.00,0.0262
3566.00,0.0263
3565.00,0.0263
3564.00,0.0263
3563.00,0.0264
3562.00,0.0265
3561.00,0.0265
3560.00,0.0266
3559.00,0.0266
3558.00,0.0267
3557.00,0.0267
3556.00,0.0268
3555.00,0.0268
3554.00,0.0269
3553.00,0.0270
3552.00,0.0271
3551.00,0.0271
3550.00,0.0271
3549.00,0.0271
3548.00,0.0272
3547.00,0.0273
3546.00,0.0275
3545.00,0.0275
3544.00,0.0276
3543.00,0.0276
3542.00,0.0276
3541.00,0.0276
3540.00,0.0277
3539.00,0.0277
3538.00,0.0278
3537.00,0.0279
3536.00,0.0280
3535.00,0.0280
3534.00,0.0280
3533.00,0.0280
3532.00,0.0280
3531.00,0.0279
3530.00,0.0280
3529.00,0.0280
3528.00,0.0281
3527.00,0.0282
3526.00,0.0282
3525.00,0.0283
3524.00,0.0283
3523.00,0.0284
3522.00,0.0284
3521.00,0.0285
3520.00,0.0286
3519.00,0.0287
3518.00,0.0287
3517.00,0.0288
3516.00,0.0288
3515.00,0.0289
3514.00,0.0289
3513.00,0.0288
3512.00,0.0288
3511.00,0.0289
3510.00,0.0290
3509.00,0.0290
3508.00,0.0291
3507.00,0.0291
3506.00,0.0291
3505.00,0.0292
3504.00,0.0292
3503.00,0.0293
3502.00,0.0294
3501.00,0.0295
3500.00,0.0295
3499.00,0.0295
3498.00,0.0296
3497.00,0.0297
3496.00,0.0298
3495.00,0.0298
3494.00,0.0299
3493.00,0.0299
3492.00,0.0299
3491.00,0.0299
3490.00,0.0300
3489.00,0.0300
3488.00,0.0301
3487.00,0.0301
3486.00,0.0301
3485.00,0.0301
3484.00,0.0302
3483.00,0.0302
3482.00,0.0303
3481.00,0.0304
3480.00,0.0305
3479.00,0.0305
3478.00,0.0306
3477.00,0.0307
3476.00,0.0307
3475.00,0.0307
3474.00,0.0308
3473.00,0.0308
3472.00,0.0308
3471.00,0.0308
3470.00,0.0308
3469.00,0.0309
3468.00,0.0309
3467.00,0.0310
3466.00,0.0310
3465.00,0.0311
3464.00,0.0311
3463.00,0.0312
3462.00,0.0312
3461.00,0.0313
3460.00,0.0313
3459.00,0.0313
3458.00,0.0313
3457.00,0.0314
3456.00,0.0314
3455.00,0.0315
3454.00,0.0315
3453.00,0.0316
3452.00,0.0316
3451.00,0.0316
3450.00,0.0316
3449.00,0.0316
3448.00,0.0317
3447.00,0.0317
3446.00,0.0318
3445.00,0.0318
3444.00,0.0319
3443.00,0.0319
3442.00,0.0320
3441.00,0.0320
3440.00,0.0320
3439.00,0.0321
3438.00,0.0321
3437.00,0.0322
3436.00,0.0323
3435.00,0.0323
3434.00,0.0323
3433.00,0.0323
3432.00,0.0323
3431.00,0.0324
3430.00,0.0324
3429.00,0.0324
3428.00,0.0325
3427.00,0.0325
3426.00,0.0325
3425.00,0.0326
3424.00,0.0326
3423.00,0.0326
3422.00,0.0326
3421.00,0.0326
3420.00,0.0327
3419.00,0.0327
3418.00,0.0327
3417.00,0.0327
3416.00,0.0327
3415.00,0.0328
3414.00,0.0328
3413.00,0.0328
3412.00,0.0329
3411.00,0.0329
3410.00,0.0329
3409.00,0.0329
3408.00,0.0330
3407.00,0.0330
3406.00,0.0330
3405.00,0.0331
3404.00,0.0331
3403.00,0.0332
3402.00,0.0333
3401.00,0.0333
3400.00,0.0333
3399.00,0.0333
3398.00,0.0332
3397.00,0.0333
3396.00,0.0333
3395.00,0.0334
3394.00,0.0334
3393.00,0.0334
3392.00,0.0334
3391.00,0.0334
3390.00,0.0334
3389.00,0.0334
3388.00,0.0335
3387.00,0.0335
3386.00,0.0336
3385.00,0.0336
3384.00,0.0336
3383.00,0.0336
3382.00,0.0336
3381.00,0.0336
3380.00,0.0336
3379.00,0.0337
3378.00,0.0337
3377.00,0.0338
3376.00,0.0339
3375.00,0.0339
3374.00,0.0339
3373.00,0.0339
3372.00,0.0339
3371.00,0.0339
3370.00,0.0338
3369.00,0.0338
3368.00,0.0338
3367.00,0.0339
3366.00,0.0339
3365.00,0.0340
3364.00,0.0340
3363.00,0.0341
3362.00,0.0341
3361.00,0.0341
3360.00,0.0341
3359.00,0.0341
3358.00,0.0341
3357.00,0.0341
3356.00,0.0341
3355.00,0.0341
3354.00,0.0341
3353.00,0.0341
3352.00,0.0341
3351.00,0.0341
3350.00,0.0342
3349.00,0.0342
3348.00,0.0342
3347.00,0.0342
3346.00,0.0342
3345.00,0.0342
3344.00,0.0342
3343.00,0.0342
3342.00,0.0343
3341.00,0.0343
3340.00,0.0343
3339.00,0.0343
3338.00,0.0343
3337.00,0.0343
3336.00,0.0343
3335.00,0.0343
3334.00,0.0343
3333.00,0.0343
3332.00,0.0343
3331.00,0.0343
3330.00,0.0343
3329.00,0.0343
3328.00,0.0343
3327.00,0.0343
3326.00,0.0343
3325.00,0.0344
3324.00,0.0343
3323.00,0.0343
3322.00,0.0343
3321.00,0.0343
3320.00,0.0343
3319.00,0.0344
3318.00,0.0344
3317.00,0.0344
3316.00,0.0344
3315.00,0.0344
3314.00,0.0344
3313.00,0.0344
3312.00,0.0345
3311.00,0.0345
3310.00,0.0345
3309.00,0.0344
3308.00,0.0344
3307.00,0.0344
3306.00,0.0344
3305.00,0.0344
3304.00,0.0344
3303.00,0.0344
3302.00,0.0345
3301.00,0.0345
3300.00,0.0345
3299.00,0.0345
3298.00,0.0344
3297.00,0.0344
3296.00,0.0344
3295.00,0.0344
3294.00,0.0344
3293.00,0.0345
3292.00,0.0345
3291.00,0.0346
3290.00,0.0345
3289.00,0.0345
3288.00,0.0345
3287.00,0.0345
3286.00,0.0345
3285.00,0.0345
3284.00,0.0345
3283.00,0.0345
3282.00,0.0345
3281.00,0.0345
3280.00,0.0345
3279.00,0.0345
3278.00,0.0345
3277.00,0.0345
3276.00,0.0345
3275.00,0.0345
3274.00,0.0345
3273.00,0.0345
3272.00,0.0346
3271.00,0.0346
3270.00,0.0346
3269.00,0.0346
3268.00,0.0346
3267.00,0.0346
3266.00,0.0346
3265.00,0.0346
3264.00,0.0345
3263.00,0.0345
3262.00,0.0345
3261.00,0.0345
3260.00,0.0346
3259.00,0.0346
3258.00,0.0346
3257.00,0.0346
3256.00,0.0345
3255.00,0.0345
3254.00,0.0345
3253.00,0.0345
3252.00,0.0346
3251.00,0.0346
3250.00,0.0346
3249.00,0.0346
3248.00,0.0346
3247.00,0.0346
3246.00,0.0346
3245.00,0.0347
3244.00,0.0347
3243.00,0.0347
3242.00,0.0347
3241.00,0.0347
3240.00,0.0347
3239.00,0.0347
3238.00,0.0347
3237.00,0.0347
3236.00,0.0347
3235.00,0.0347
3234.00,0.0347
3233.00,0.0347
3232.00,0.0347
3231.00,0.0347
3230.00,0.0347
3229.00,0.0347
3228.00,0.0347
3227.00,0.0347
3226.00,0.0347
3225.00,0.0346
3224.00,0.0346
3223.00,0.0346
3222.00,0.0346
3221.00,0.0347
3220.00,0.0347
3219.00,0.0348
3218.00,0.0348
3217.00,0.0347
3216.00,0.0347
3215.00,0.0346
3214.00,0.0346
3213.00,0.0346
3212.00,0.0346
3211.00,0.0346
3210.00,0.0346
3209.00,0.0347
3208.00,0.0347
3207.00,0.0347
3206.00,0.0347
3205.00,0.0347
3204.00,0.0346
3203.00,0.0347
3202.00,0.0347
3201.00,0.0347
3200.00,0.0347
3199.00,0.0347
3198.00,0.0346
3197.00,0.0346
3196.00,0.0346
3195.00,0.0345
3194.00,0.0345
3193.00,0.0345
3192.00,0.0345
3191.00,0.0345
3190.00,0.0345
3189.00,0.0345
3188.00,0.0345
3187.00,0.0346
3186.00,0.0346
3185.00,0.0346
3184.00,0.0346
3183.00,0.0345
3182.00,0.0345
3181.00,0.0344
3180.00,0.0344
3179.00,0.0344
3178.00,0.0343
3177.00,0.0343
3176.00,0.0342
3175.00,0.0342
3174.00,0.0342
3173.00,0.0343
3172.00,0.0343
3171.00,0.0343
3170.00,0.0344
3169.00,0.0344
3168.00,0.0343
3167.00,0.0343
3166.00,0.0343
3165.00,0.0343
3164.00,0.0343
3163.00,0.0343
3162.00,0.0342
3161.00,0.0342
3160.00,0.0342
3159.00,0.0341
3158.00,0.0341
3157.00,0.0341
3156.00,0.0341
3155.00,0.0340
3154.00,0.0340
3153.00,0.0339
3152.00,0.0339
3151.00,0.0339
3150.00,0.0339
3149.00,0.0339
3148.00,0.0339
3147.00,0.0339
3146.00,0.0339
3145.00,0.0339
3144.00,0.0338
3143.00,0.0338
3142.00,0.0337
3141.00,0.0337
3140.00,0.0337
3139.00,0.0338
3138.00,0.0338
3137.00,0.0338
3136.00,0.0338
3135.00,0.0337
3134.00,0.0336
3133.00,0.0336
3132.00,0.0336
3131.00,0.0336
3130.00,0.0335
3129.00,0.0335
3128.00,0.0335
3127.00,0.0334
3126.00,0.0334
3125.00,0.0334
3124.00,0.0334
3123.00,0.0334
3122.00,0.0333
3121.00,0.0333
3120.00,0.0333
3119.00,0.0334
3118.00,0.0334
3117.00,0.0334
3116.00,0.0333
3115.00,0.0333
3114.00,0.0333
3113.00,0.0333
3112.00,0.0332
3111.00,0.0332
3110.00,0.0331
3109.00,0.0331
3108.00,0.0331
3107.00,0.0331
3106.00,0.0331
3105.00,0.0331
3104.00,0.0331
3103.00,0.0331
3102.00,0.0331
3101.00,0.0331
3100.00,0.0331
3099.00,0.0330
3098.00,0.0330
3097.00,0.0330
3096.00,0.0330
3095.00,0.0330
3094.00,0.0330
3093.00,0.0330
3092.00,0.0330
3091.00,0.0330
3090.00,0.0330
3089.00,0.0330
3088.00,0.0330
3087.00,0.0330
3086.00,0.0330
3085.00,0.0329
3084.00,0.0329
3083.00,0.0328
3082.00,0.0328
3081.00,0.0328
3080.00,0.0328
3079.00,0.0328
3078.00,0.0328
3077.00,0.0328
3076.00,0.0328
3075.00,0.0327
3074.00,0.0327
3073.00,0.0327
3072.00,0.0327
3071.00,0.0326
3070.00,0.0326
3069.00,0.0326
3068.00,0.0325
3067.00,0.0325
3066.00,0.0325
3065.00,0.0325
3064.00,0.0325
3063.00,0.0325
3062.00,0.0325
3061.00,0.0325
3060.00,0.0325
3059.00,0.0324
3058.00,0.0324
3057.00,0.0324
3056.00,0.0324
3055.00,0.0324
3054.00,0.0323
3053.00,0.0323
3052.00,0.0322
3051.00,0.0322
3050.00,0.0322
3049.00,0.0321
3048.00,0.0321
3047.00,0.0321
3046.00,0.0321
3045.00,0.0321
3044.00,0.0321
3043.00,0.0321
3042.00,0.0320
3041.00,0.0320
3040.00,0.0319
3039.00,0.0319
3038.00,0.0319
3037.00,0.0318
3036.00,0.0318
3035.00,0.0318
3034.00,0.0318
3033.00,0.0317
3032.00,0.0316
3031.00,0.0316
3030.00,0.0316
3029.00,0.0315
3028.00,0.0315
3027.00,0.0315
3026.00,0.0315
3025.00,0.0315
3024.00,0.0314
3023.00,0.0314
3022.00,0.0314
3021.00,0.0313
3020.00,0.0313
3019.00,0.0312
3018.00,0.0312
3017.00,0.0312
3016.00,0.0312
3015.00,0.0312
3014.00,0.0311
3013.00,0.0311
3012.00,0.0311
3011.00,0.0310
3010.00,0.0310
3009.00,0.0309
3008.00,0.0309
3007.00,0.0308
3006.00,0.0308
3005.00,0.0308
3004.00,0.0308
3003.00,0.0308
3002.00,0.0307
3001.00,0.0307
3000.00,0.0307
2999.00,0.0306
2998.00,0.0306
2997.00,0.0305
2996.00,0.0305
2995.00,0.0305
2994.00,0.0305
2993.00,0.0305
2992.00,0.0305
2991.00,0.0304
2990.00,0.0303
2989.00,0.0303
2988.00,0.0303
2987.00,0.0302
2986.00,0.0302
2985.00,0.0302
2984.00,0.0301
2983.00,0.0300
2982.00,0.0300
2981.00,0.0299
2980.00,0.0299
2979.00,0.0299
2978.00,0.0299
2977.00,0.0299
2976.00,0.0299
2975.00,0.0299
2974.00,0.0298
2973.00,0.0298
2972.00,0.0297
2971.00,0.0297
2970.00,0.0296
2969.00,0.0296
2968.00,0.0295
2967.00,0.0295
2966.00,0.0294
2965.00,0.0294
2964.00,0.0293
2963.00,0.0292
2962.00,0.0292
2961.00,0.0291
2960.00,0.0290
2959.00,0.0290
2958.00,0.0290
2957.00,0.0290
2956.00,0.0290
2955.00,0.0290
2954.00,0.0290
2953.00,0.0290
2952.00,0.0290
2951.00,0.0290
2950.00,0.0289
2949.00,0.0289
2948.00,0.0289
2947.00,0.0289
2946.00,0.0288
2945.00,0.0288
2944.00,0.0288
2943.00,0.0287
2942.00,0.0286
2941.00,0.0285
2940.00,0.0285
2939.00,0.0284
2938.00,0.0283
2937.00,0.0283
2936.00,0.0282
2935.00,0.0280
2934.00,0.0279
2933.00,0.0278
2932.00,0.0276
2931.00,0.0275
2930.00,0.0274
2929.00,0.0272
2928.00,0.0271
2927.00,0.0270
2926.00,0.0269
2925.00,0.0269
2924.00,0.0268
2923.00,0.0268
2922.00,0.0268
2921.00,0.0267
2920.00,0.0267
2919.00,0.0267
2918.00,0.0266
2917.00,0.0266
2916.00,0.0267
2915.00,0.0268
2914.00,0.0270
2913.00,0.0272
2912.00,0.0274
2911.00,0.0275
2910.00,0.0275
2909.00,0.0276
2908.00,0.0276
2907.00,0.0276
2906.00,0.0277
2905.00,0.0277
2904.00,0.0277
2903.00,0.0277
2902.00,0.0278
2901.00,0.0278
2900.00,0.0278
2899.00,0.0278
2898.00,0.0278
2897.00,0.0278
2896.00,0.0278
2895.00,0.0278
2894.00,0.0278
2893.00,0.0277
2892.00,0.0277
2891.00,0.0277
2890.00,0.0277
2889.00,0.0277
2888.00,0.0277
2887.00,0.0278
2886.00,0.0277
2885.00,0.0277
2884.00,0.0277
2883.00,0.0277
2882.00,0.0277
2881.00,0.0277
2880.00,0.0276
2879.00,0.0276
2878.00,0.0276
2877.00,0.0276
2876.00,0.0275
2875.00,0.0275
2874.00,0.0275
2873.00,0.0274
2872.00,0.0274
2871.00,0.0273
2870.00,0.0273
2869.00,0.0272
2868.00,0.0272
2867.00,0.0271
2866.00,0.0271
2865.00,0.0270
2864.00,0.0270
2863.00,0.0269
2862.00,0.0269
2861.00,0.0268
2860.00,0.0268
2859.00,0.0267
2858.00,0.0265
2857.00,0.0264
2856.00,0.0263
2855.00,0.0262
2854.00,0.0262
2853.00,0.0262
2852.00,0.0262
2851.00,0.0262
2850.00,0.0262
2849.00,0.0263
2848.00,0.0263
2847.00,0.0264
2846.00,0.0265
2845.00,0.0266
2844.00,0.0267
2843.00,0.0268
2842.00,0.0268
2841.00,0.0268
2840.00,0.0269
2839.00,0.0269
2838.00,0.0269
2837.00,0.0269
2836.00,0.0269
2835.00,0.0268
2834.00,0.0268
2833.00,0.0268
2832.00,0.0268
2831.00,0.0268
2830.00,0.0268
2829.00,0.0267
2828.00,0.0268
2827.00,0.0268
2826.00,0.0268
2825.00,0.0268
2824.00,0.0268
2823.00,0.0268
2822.00,0.0268
2821.00,0.0267
2820.00,0.0267
2819.00,0.0267
2818.00,0.0267
2817.00,0.0267
2816.00,0.0267
2815.00,0.0266
2814.00,0.0266
2813.00,0.0266
2812.00,0.0266
2811.00,0.0265
2810.00,0.0265
2809.00,0.0265
2808.00,0.0265
2807.00,0.0264
2806.00,0.0264
2805.00,0.0264
2804.00,0.0263
2803.00,0.0263
2802.00,0.0263
2801.00,0.0263
2800.00,0.0263
2799.00,0.0262
2798.00,0.0262
2797.00,0.0262
2796.00,0.0262
2795.00,0.0262
2794.00,0.0262
2793.00,0.0261
2792.00,0.0261
2791.00,0.0261
2790.00,0.0261
2789.00,0.0261
2788.00,0.0261
2787.00,0.0260
2786.00,0.0260
2785.00,0.0260
2784.00,0.0260
2783.00,0.0259
2782.00,0.0259
2781.00,0.0259
2780.00,0.0259
2779.00,0.0259
2778.00,0.0259
2777.00,0.0259
2776.00,0.0259
2775.00,0.0259
2774.00,0.0258
2773.00,0.0258
2772.00,0.0258
2771.00,0.0258
2770.00,0.0258
2769.00,0.0257
2768.00,0.0257
2767.00,0.0257
2766.00,0.0256
2765.00,0.0256
2764.00,0.0256
2763.00,0.0255
2762.00,0.0255
2761.00,0.0255
2760.00,0.0255
2759.00,0.0255
2758.00,0.0255
2757.00,0.0255
2756.00,0.0254
2755.00,0.0254
2754.00,0.0254
2753.00,0.0254
2752.00,0.0254
2751.00,0.0254
2750.00,0.0254
2749.00,0.0253
2748.00,0.0253
2747.00,0.0253
2746.00,0.0253
2745.00,0.0253
2744.00,0.0253
2743.00,0.0252
2742.00,0.0252
2741.00,0.0252
2740.00,0.0252
2739.00,0.0252
2738.00,0.0252
2737.00,0.0252
2736.00,0.0251
2735.00,0.0251
2734.00,0.0251
2733.00,0.0250
2732.00,0.0250
2731.00,0.0250
2730.00,0.0250
2729.00,0.0250
2728.00,0.0249
2727.00,0.0249
2726.00,0.0249
2725.00,0.0249
2724.00,0.0248
2723.00,0.0248
2722.00,0.0248
2721.00,0.0248
2720.00,0.0248
2719.00,0.0248
2718.00,0.0249
2717.00,0.0249
2716.00,0.0248
2715.00,0.0248
2714.00,0.0247
2713.00,0.0247
2712.00,0.0247
2711.00,0.0247
2710.00,0.0247
2709.00,0.0246
2708.00,0.0246
2707.00,0.0246
2706.00,0.0246
2705.00,0.0246
2704.00,0.0245
2703.00,0.0245
2702.00,0.0245
2701.00,0.0245
2700.00,0.0245
2699.00,0.0245
2698.00,0.0245
2697.00,0.0244
2696.00,0.0244
2695.00,0.0244
2694.00,0.0244
2693.00,0.0244
2692.00,0.0243
2691.00,0.0243
2690.00,0.0243
2689.00,0.0243
2688.00,0.0243
2687.00,0.0243
2686.00,0.0243
2685.00,0.0243
2684.00,0.0242
2683.00,0.0242
2682.00,0.0242
2681.00,0.0242
2680.00,0.0242
2679.00,0.0242
2678.00,0.0241
2677.00,0.0241
2676.00,0.0241
2675.00,0.0241
2674.00,0.0241
2673.00,0.0241
2672.00,0.0241
2671.00,0.0241
2670.00,0.0241
2669.00,0.0241
2668.00,0.0240
2667.00,0.0240
2666.00,0.0240
2665.00,0.0241
2664.00,0.0241
2663.00,0.0241
2662.00,0.0241
2661.00,0.0241
2660.00,0.0241
2659.00,0.0240
2658.00,0.0240
2657.00,0.0240
2656.00,0.0241
2655.00,0.0241
2654.00,0.0241
2653.00,0.0242
2652.00,0.0241
2651.00,0.0241
2650.00,0.0241
2649.00,0.0240
2648.00,0.0240
2647.00,0.0240
2646.00,0.0240
2645.00,0.0240
2644.00,0.0240
2643.00,0.0240
2642.00,0.0240
2641.00,0.0240
2640.00,0.0240
2639.00,0.0240
2638.00,0.0240
2637.00,0.0240
2636.00,0.0240
2635.00,0.0240
2634.00,0.0240
2633.00,0.0240
2632.00,0.0240
2631.00,0.0240
2630.00,0.0240
2629.00,0.0240
2628.00,0.0241
2627.00,0.0241
2626.00,0.0240
2625.00,0.0240
2624.00,0.0239
2623.00,0.0239
2622.00,0.0239
2621.00,0.0239
2620.00,0.0239
2619.00,0.0239
2618.00,0.0239
2617.00,0.0239
2616.00,0.0239
2615.00,0.0239
2614.00,0.0239
2613.00,0.0239
2612.00,0.0239
2611.00,0.0239
2610.00,0.0240
2609.00,0.0240
2608.00,0.0239
2607.00,0.0239
2606.00,0.0239
2605.00,0.0239
2604.00,0.0239
2603.00,0.0238
2602.00,0.0238
2601.00,0.0238
2600.00,0.0238
2599.00,0.0238
2598.00,0.0238
2597.00,0.0238
2596.00,0.0238
2595.00,0.0238
2594.00,0.0238
2593.00,0.0238
2592.00,0.0238
2591.00,0.0238
2590.00,0.0238
2589.00,0.0238
2588.00,0.0237
2587.00,0.0237
2586.00,0.0237
2585.00,0.0237
2584.00,0.0237
2583.00,0.0237
2582.00,0.0237
2581.00,0.0238
2580.00,0.0238
2579.00,0.0238
2578.00,0.0238
2577.00,0.0237
2576.00,0.0237
2575.00,0.0237
2574.00,0.0237
2573.00,0.0237
2572.00,0.0237
2571.00,0.0237
2570.00,0.0236
2569.00,0.0236
2568.00,0.0236
2567.00,0.0236
2566.00,0.0237
2565.00,0.0237
2564.00,0.0237
2563.00,0.0237
2562.00,0.0236
2561.00,0.0236
2560.00,0.0235
2559.00,0.0235
2558.00,0.0235
2557.00,0.0235
2556.00,0.0235
2555.00,0.0235
2554.00,0.0235
2553.00,0.0235
2552.00,0.0236
2551.00,0.0236
2550.00,0.0236
2549.00,0.0235
2548.00,0.0235
2547.00,0.0234
2546.00,0.0234
2545.00,0.0234
2544.00,0.0234
2543.00,0.0234
2542.00,0.0233
2541.00,0.0233
2540.00,0.0233
2539.00,0.0233
2538.00,0.0234
2537.00,0.0234
2536.00,0.0234
2535.00,0.0233
2534.00,0.0233
2533.00,0.0233
2532.00,0.0232
2531.00,0.0232
2530.00,0.0232
2529.00,0.0232
2528.00,0.0233
2527.00,0.0233
2526.00,0.0233
2525.00,0.0233
2524.00,0.0233
2523.00,0.0233
2522.00,0.0233
2521.00,0.0233
2520.00,0.0232
2519.00,0.0232
2518.00,0.0232
2517.00,0.0232
2516.00,0.0231
2515.00,0.0231
2514.00,0.0231
2513.00,0.0231
2512.00,0.0231
2511.00,0.0231
2510.00,0.0231
2509.00,0.0230
2508.00,0.0230
2507.00,0.0230
2506.00,0.0230
2505.00,0.0230
2504.00,0.0230
2503.00,0.0229
2502.00,0.0229
2501.00,0.0229
2500.00,0.0229
2499.00,0.0229
2498.00,0.0229
2497.00,0.0230
2496.00,0.0230
2495.00,0.0230
2494.00,0.0230
2493.00,0.0230
2492.00,0.0230
2491.00,0.0229
2490.00,0.0229
2489.00,0.0229
2488.00,0.0228
2487.00,0.0228
2486.00,0.0228
2485.00,0.0228
2484.00,0.0227
2483.00,0.0227
2482.00,0.0227
2481.00,0.0227
2480.00,0.0227
2479.00,0.0228
2478.00,0.0227
2477.00,0.0227
2476.00,0.0227
2475.00,0.0227
2474.00,0.0227
2473.00,0.0227
2472.00,0.0227
2471.00,0.0226
2470.00,0.0226
2469.00,0.0226
2468.00,0.0226
2467.00,0.0226
2466.00,0.0226
2465.00,0.0226
2464.00,0.0226
2463.00,0.0226
2462.00,0.0226
2461.00,0.0226
2460.00,0.0226
2459.00,0.0226
2458.00,0.0225
2457.00,0.0225
2456.00,0.0224
2455.00,0.0224
2454.00,0.0224
2453.00,0.0225
2452.00,0.0225
2451.00,0.0226
2450.00,0.0225
2449.00,0.0225
2448.00,0.0224
2447.00,0.0224
2446.00,0.0224
2445.00,0.0224
2444.00,0.0224
2443.00,0.0223
2442.00,0.0222
2441.00,0.0222
2440.00,0.0221
2439.00,0.0222
2438.00,0.0222
2437.00,0.0222
2436.00,0.0221
2435.00,0.0221
2434.00,0.0221
2433.00,0.0221
2432.00,0.0220
2431.00,0.0220
2430.00,0.0220
2429.00,0.0220
2428.00,0.0220
2427.00,0.0220
2426.00,0.0221
2425.00,0.0221
2424.00,0.0220
2423.00,0.0219
2422.00,0.0219
2421.00,0.0218
2420.00,0.0218
2419.00,0.0218
2418.00,0.0218
2417.00,0.0218
2416.00,0.0218
2415.00,0.0217
2414.00,0.0218
2413.00,0.0218
2412.00,0.0218
2411.00,0.0217
2410.00,0.0217
2409.00,0.0216
2408.00,0.0216
2407.00,0.0216
2406.00,0.0216
2405.00,0.0215
2404.00,0.0215
2403.00,0.0216
2402.00,0.0216
2401.00,0.0215
2400.00,0.0215
2399.00,0.0214
2398.00,0.0213
2397.00,0.0213
2396.00,0.0214
2395.00,0.0214
2394.00,0.0213
2393.00,0.0213
2392.00,0.0212
2391.00,0.0212
2390.00,0.0212
2389.00,0.0212
2388.00,0.0211
2387.00,0.0211
2386.00,0.0211
2385.00,0.0211
2384.00,0.0211
2383.00,0.0211
2382.00,0.0211
2381.00,0.0211
2380.00,0.0210
2379.00,0.0208
2378.00,0.0207
2377.00,0.0206
2376.00,0.0206
2375.00,0.0206
2374.00,0.0205
2373.00,0.0205
2372.00,0.0205
2371.00,0.0205
2370.00,0.0205
2369.00,0.0205
2368.00,0.0205
2367.00,0.0205
2366.00,0.0203
2365.00,0.0202
2364.00,0.0200
2363.00,0.0199
2362.00,0.0199
2361.00,0.0199
2360.00,0.0200
2359.00,0.0201
2358.00,0.0202
2357.00,0.0202
2356.00,0.0203
2355.00,0.0204
2354.00,0.0205
2353.00,0.0206
2352.00,0.0207
2351.00,0.0206
2350.00,0.0203
2349.00,0.0200
2348.00,0.0200
2347.00,0.0201
2346.00,0.0202
2345.00,0.0201
2344.00,0.0197
2343.00,0.0194
2342.00,0.0193
2341.00,0.0194
2340.00,0.0195
2339.00,0.0195
2338.00,0.0196
2337.00,0.0196
2336.00,0.0197
2335.00,0.0198
2334.00,0.0199
2333.00,0.0200
2332.00,0.0201
2331.00,0.0202
2330.00,0.0203
2329.00,0.0203
2328.00,0.0204
2327.00,0.0206
2326.00,0.0207
2325.00,0.0207
2324.00,0.0208
2323.00,0.0208
2322.00,0.0208
2321.00,0.0208
2320.00,0.0208
2319.00,0.0208
2318.00,0.0209
2317.00,0.0209
2316.00,0.0209
2315.00,0.0209
2314.00,0.0209
2313.00,0.0208
2312.00,0.0207
2311.00,0.0207
2310.00,0.0206
2309.00,0.0206
2308.00,0.0205
2307.00,0.0204
2306.00,0.0204
2305.00,0.0203
2304.00,0.0203
2303.00,0.0203
2302.00,0.0202
2301.00,0.0202
2300.00,0.0202
2299.00,0.0201
2298.00,0.0201
2297.00,0.0200
2296.00,0.0201
2295.00,0.0201
2294.00,0.0201
2293.00,0.0202
2292.00,0.0202
2291.00,0.0202
2290.00,0.0203
2289.00,0.0203
2288.00,0.0203
2287.00,0.0203
2286.00,0.0202
2285.00,0.0201
2284.00,0.0200
2283.00,0.0200
2282.00,0.0200
2281.00,0.0200
2280.00,0.0200
2279.00,0.0199
2278.00,0.0198
2277.00,0.0197
2276.00,0.0197
2275.00,0.0197
2274.00,0.0197
2273.00,0.0196
2272.00,0.0196
2271.00,0.0197
2270.00,0.0197
2269.00,0.0197
2268.00,0.0197
2267.00,0.0197
2266.00,0.0197
2265.00,0.0197
2264.00,0.0197
2263.00,0.0197
2262.00,0.0198
2261.00,0.0198
2260.00,0.0199
2259.00,0.0199
2258.00,0.0198
2257.00,0.0197
2256.00,0.0196
2255.00,0.0195
2254.00,0.0195
2253.00,0.0195
2252.00,0.0195
2251.00,0.0195
2250.00,0.0195
2249.00,0.0195
2248.00,0.0196
2247.00,0.0196
2246.00,0.0196
2245.00,0.0196
2244.00,0.0197
2243.00,0.0197
2242.00,0.0198
2241.00,0.0198
2240.00,0.0198
2239.00,0.0199
2238.00,0.0200
2237.00,0.0200
2236.00,0.0200
2235.00,0.0200
2234.00,0.0200
2233.00,0.0200
2232.00,0.0201
2231.00,0.0201
2230.00,0.0201
2229.00,0.0201
2228.00,0.0200
2227.00,0.0199
2226.00,0.0198
2225.00,0.0198
2224.00,0.0198
2223.00,0.0197
2222.00,0.0197
2221.00,0.0197
2220.00,0.0198
2219.00,0.0198
2218.00,0.0197
2217.00,0.0196
2216.00,0.0196
2215.00,0.0196
2214.00,0.0197
2213.00,0.0197
2212.00,0.0197
2211.00,0.0197
2210.00,0.0197
2209.00,0.0197
2208.00,0.0197
2207.00,0.0196
2206.00,0.0195
2205.00,0.0194
2204.00,0.0194
2203.00,0.0194
2202.00,0.0195
2201.00,0.0196
2200.00,0.0197
2199.00,0.0197
2198.00,0.0197
2197.00,0.0196
2196.00,0.0195
2195.00,0.0194
2194.00,0.0195
2193.00,0.0195
2192.00,0.0194
2191.00,0.0192
2190.00,0.0191
2189.00,0.0192
2188.00,0.0193
2187.00,0.0195
2186.00,0.0195
2185.00,0.0195
2184.00,0.0194
2183.00,0.0193
2182.00,0.0192
2181.00,0.0193
2180.00,0.0194
2179.00,0.0195
2178.00,0.0193
2177.00,0.0191
2176.00,0.0190
2175.00,0.0189
2174.00,0.0191
2173.00,0.0193
2172.00,0.0195
2171.00,0.0197
2170.00,0.0198
2169.00,0.0199
2168.00,0.0198
2167.00,0.0196
2166.00,0.0194
2165.00,0.0194
2164.00,0.0194
2163.00,0.0193
2162.00,0.0192
2161.00,0.0189
2160.00,0.0186
2159.00,0.0184
2158.00,0.0183
2157.00,0.0184
2156.00,0.0185
2155.00,0.0184
2154.00,0.0183
2153.00,0.0183
2152.00,0.0183
2151.00,0.0183
2150.00,0.0182
2149.00,0.0182
2148.00,0.0181
2147.00,0.0181
2146.00,0.0181
2145.00,0.0181
2144.00,0.0181
2143.00,0.0181
2142.00,0.0181
2141.00,0.0181
2140.00,0.0181
2139.00,0.0180
2138.00,0.0180
2137.00,0.0179
2136.00,0.0177
2135.00,0.0175
2134.00,0.0173
2133.00,0.0174
2132.00,0.0175
2131.00,0.0176
2130.00,0.0177
2129.00,0.0177
2128.00,0.0178
2127.00,0.0178
2126.00,0.0178
2125.00,0.0178
2124.00,0.0178
2123.00,0.0177
2122.00,0.0177
2121.00,0.0177
2120.00,0.0178
2119.00,0.0178
2118.00,0.0179
2117.00,0.0180
2116.00,0.0180
2115.00,0.0179
2114.00,0.0178
2113.00,0.0178
2112.00,0.0178
2111.00,0.0178
2110.00,0.0178
2109.00,0.0178
2108.00,0.0178
2107.00,0.0177
2106.00,0.0176
2105.00,0.0175
2104.00,0.0175
2103.00,0.0176
2102.00,0.0177
2101.00,0.0178
2100.00,0.0177
2099.00,0.0177
2098.00,0.0176
2097.00,0.0176
2096.00,0.0176
2095.00,0.0175
2094.00,0.0175
2093.00,0.0174
2092.00,0.0174
2091.00,0.0174
2090.00,0.0174
2089.00,0.0174
2088.00,0.0174
2087.00,0.0174
2086.00,0.0174
2085.00,0.0173
2084.00,0.0172
2083.00,0.0171
2082.00,0.0170
2081.00,0.0170
2080.00,0.0170
2079.00,0.0171
2078.00,0.0172
2077.00,0.0173
2076.00,0.0173
2075.00,0.0172
2074.00,0.0171
2073.00,0.0171
2072.00,0.0170
2071.00,0.0169
2070.00,0.0169
2069.00,0.0170
2068.00,0.0170
2067.00,0.0170
2066.00,0.0170
2065.00,0.0170
2064.00,0.0169
2063.00,0.0168
2062.00,0.0168
2061.00,0.0168
2060.00,0.0169
2059.00,0.0169
2058.00,0.0169
2057.00,0.0170
2056.00,0.0171
2055.00,0.0171
2054.00,0.0172
2053.00,0.0173
2052.00,0.0173
2051.00,0.0173
2050.00,0.0173
2049.00,0.0172
2048.00,0.0172
2047.00,0.0171
2046.00,0.0171
2045.00,0.0171
2044.00,0.0170
2043.00,0.0170
2042.00,0.0170
2041.00,0.0170
2040.00,0.0170
2039.00,0.0171
2038.00,0.0172
2037.00,0.0174
2036.00,0.0175
2035.00,0.0175
2034.00,0.0174
2033.00,0.0172
2032.00,0.0170
2031.00,0.0167
2030.00,0.0166
2029.00,0.0167
2028.00,0.0169
2027.00,0.0170
2026.00,0.0172
2025.00,0.0172
2024.00,0.0171
2023.00,0.0169
2022.00,0.0167
2021.00,0.0165
2020.00,0.0166
2019.00,0.0166
2018.00,0.0167
2017.00,0.0167
2016.00,0.0167
2015.00,0.0166
2014.00,0.0165
2013.00,0.0165
2012.00,0.0165
2011.00,0.0166
2010.00,0.0167
2009.00,0.0168
2008.00,0.0167
2007.00,0.0165
2006.00,0.0163
2005.00,0.0161
2004.00,0.0160
2003.00,0.0160
2002.00,0.0160
2001.00,0.0162
2000.00,0.0163
1999.00,0.0164
1998.00,0.0165
1997.00,0.0165
1996.00,0.0164
1995.00,0.0162
1994.00,0.0161
1993.00,0.0162
1992.00,0.0163
1991.00,0.0164
1990.00,0.0163
1989.00,0.0163
1988.00,0.0161
1987.00,0.0160
1986.00,0.0159
1985.00,0.0161
1984.00,0.0163
1983.00,0.0164
1982.00,0.0164
1981.00,0.0165
1980.00,0.0165
1979.00,0.0164
1978.00,0.0161
1977.00,0.0159
1976.00,0.0157
1975.00,0.0157
1974.00,0.0157
1973.00,0.0157
1972.00,0.0157
1971.00,0.0156
1970.00,0.0155
1969.00,0.0154
1968.00,0.0154
1967.00,0.0153
1966.00,0.0152
1965.00,0.0154
1964.00,0.0156
1963.00,0.0157
1962.00,0.0156
1961.00,0.0156
1960.00,0.0155
1959.00,0.0154
1958.00,0.0153
1957.00,0.0152
1956.00,0.0151
1955.00,0.0150
1954.00,0.0149
1953.00,0.0148
1952.00,0.0147
1951.00,0.0147
1950.00,0.0147
1949.00,0.0147
1948.00,0.0147
1947.00,0.0147
1946.00,0.0147
1945.00,0.0148
1944.00,0.0148
1943.00,0.0148
1942.00,0.0146
1941.00,0.0145
1940.00,0.0143
1939.00,0.0143
1938.00,0.0143
1937.00,0.0143
1936.00,0.0144
1935.00,0.0144
1934.00,0.0144
1933.00,0.0143
1932.00,0.0143
1931.00,0.0142
1930.00,0.0141
1929.00,0.0140
1928.00,0.0140
1927.00,0.0139
1926.00,0.0139
1925.00,0.0140
1924.00,0.0140
1923.00,0.0138
1922.00,0.0137
1921.00,0.0137
1920.00,0.0138
1919.00,0.0139
1918.00,0.0137
1917.00,0.0136
1916.00,0.0135
1915.00,0.0136
1914.00,0.0136
1913.00,0.0136
1912.00,0.0136
1911.00,0.0135
1910.00,0.0133
1909.00,0.0133
1908.00,0.0132
1907.00,0.0132
1906.00,0.0133
1905.00,0.0133
1904.00,0.0132
1903.00,0.0131
1902.00,0.0131
1901.00,0.0131
1900.00,0.0131
1899.00,0.0131
1898.00,0.0131
1897.00,0.0131
1896.00,0.0130
1895.00,0.0129
1894.00,0.0127
1893.00,0.0127
1892.00,0.0128
1891.00,0.0129
1890.00,0.0128
1889.00,0.0127
1888.00,0.0126
1887.00,0.0125
1886.00,0.0125
1885.00,0.0125
1884.00,0.0125
1883.00,0.0124
1882.00,0.0124
1881.00,0.0124
1880.00,0.0124
1879.00,0.0123
1878.00,0.0123
1877.00,0.0123
1876.00,0.0123
1875.00,0.0122
1874.00,0.0122
1873.00,0.0122
1872.00,0.0123
1871.00,0.0123
1870.00,0.0122
1869.00,0.0119
1868.00,0.0116
1867.00,0.0115
1866.00,0.0115
1865.00,0.0117
1864.00,0.0118
1863.00,0.0118
1862.00,0.0117
1861.00,0.0116
1860.00,0.0115
1859.00,0.0115
1858.00,0.0115
1857.00,0.0115
1856.00,0.0115
1855.00,0.0114
1854.00,0.0114
1853.00,0.0114
1852.00,0.0113
1851.00,0.0113
1850.00,0.0113
1849.00,0.0112
1848.00,0.0112
1847.00,0.0113
1846.00,0.0114
1845.00,0.0112
1844.00,0.0109
1843.00,0.0105
1842.00,0.0105
1841.00,0.0107
1840.00,0.0108
1839.00,0.0108
1838.00,0.0107
1837.00,0.0106
1836.00,0.0106
1835.00,0.0106
1834.00,0.0106
1833.00,0.0108
1832.00,0.0109
1831.00,0.0108
1830.00,0.0104
1829.00,0.0101
1828.00,0.0101
1827.00,0.0102
1826.00,0.0103
1825.00,0.0101
1824.00,0.0100
1823.00,0.0099
1822.00,0.0100
1821.00,0.0101
1820.00,0.0101
1819.00,0.0101
1818.00,0.0100
1817.00,0.0099
1816.00,0.0098
1815.00,0.0098
1814.00,0.0098
1813.00,0.0098
1812.00,0.0098
1811.00,0.0096
1810.00,0.0096
1809.00,0.0096
1808.00,0.0097
1807.00,0.0097
1806.00,0.0097
1805.00,0.0098
1804.00,0.0099
1803.00,0.0099
1802.00,0.0099
1801.00,0.0098
1800.00,0.0097
1799.00,0.0097
1798.00,0.0097
1797.00,0.0098
1796.00,0.0099
1795.00,0.0101
1794.00,0.0102
1793.00,0.0102
1792.00,0.0100
1791.00,0.0098
1790.00,0.0098
1789.00,0.0101
1788.00,0.0104
1787.00,0.0106
1786.00,0.0108
1785.00,0.0108
1784.00,0.0109
1783.00,0.0110
1782.00,0.0111
1781.00,0.0111
1780.00,0.0112
1779.00,0.0113
1778.00,0.0115
1777.00,0.0117
1776.00,0.0120
1775.00,0.0122
1774.00,0.0124
1773.00,0.0123
1772.00,0.0122
1771.00,0.0122
1770.00,0.0125
1769.00,0.0129
1768.00,0.0132
1767.00,0.0132
1766.00,0.0133
1765.00,0.0136
1764.00,0.0139
1763.00,0.0140
1762.00,0.0140
1761.00,0.0139
1760.00,0.0141
1759.00,0.0144
1758.00,0.0146
1757.00,0.0146
1756.00,0.0146
1755.00,0.0148
1754.00,0.0151
1753.00,0.0155
1752.00,0.0157
1751.00,0.0157
1750.00,0.0157
1749.00,0.0157
1748.00,0.0158
1747.00,0.0160
1746.00,0.0163
1745.00,0.0167
1744.00,0.0169
1743.00,0.0172
1742.00,0.0175
1741.00,0.0178
1740.00,0.0182
1739.00,0.0184
1738.00,0.0187
1737.00,0.0193
1736.00,0.0199
1735.00,0.0204
1734.00,0.0206
1733.00,0.0205
1732.00,0.0208
1731.00,0.0213
1730.00,0.0217
1729.00,0.0221
1728.00,0.0224
1727.00,0.0229
1726.00,0.0233
1725.00,0.0237
1724.00,0.0240
1723.00,0.0242
1722.00,0.0244
1721.00,0.0247
1720.00,0.0250
1719.00,0.0251
1718.00,0.0252
1717.00,0.0253
1716.00,0.0255
1715.00,0.0258
1714.00,0.0261
1713.00,0.0264
1712.00,0.0267
1711.00,0.0269
1710.00,0.0270
1709.00,0.0272
1708.00,0.0273
1707.00,0.0274
1706.00,0.0275
1705.00,0.0276
1704.00,0.0278
1703.00,0.0281
1702.00,0.0285
1701.00,0.0288
1700.00,0.0287
1699.00,0.0285
1698.00,0.0287
1697.00,0.0290
1696.00,0.0291
1695.00,0.0289
1694.00,0.0290
1693.00,0.0293
1692.00,0.0296
1691.00,0.0297
1690.00,0.0296
1689.00,0.0297
1688.00,0.0298
1687.00,0.0299
1686.00,0.0299
1685.00,0.0300
1684.00,0.0302
1683.00,0.0303
1682.00,0.0308
1681.00,0.0313
1680.00,0.0317
1679.00,0.0318
1678.00,0.0321
1677.00,0.0324
1676.00,0.0327
1675.00,0.0329
1674.00,0.0331
1673.00,0.0332
1672.00,0.0335
1671.00,0.0337
1670.00,0.0340
1669.00,0.0342
1668.00,0.0345
1667.00,0.0348
1666.00,0.0350
1665.00,0.0352
1664.00,0.0355
1663.00,0.0357
1662.00,0.0360
1661.00,0.0363
1660.00,0.0366
1659.00,0.0368
1658.00,0.0370
1657.00,0.0370
1656.00,0.0371
1655.00,0.0372
1654.00,0.0377
1653.00,0.0383
1652.00,0.0382
1651.00,0.0384
1650.00,0.0388
1649.00,0.0389
1648.00,0.0391
1647.00,0.0395
1646.00,0.0400
1645.00,0.0404
1644.00,0.0408
1643.00,0.0411
1642.00,0.0413
1641.00,0.0414
1640.00,0.0415
1639.00,0.0416
1638.00,0.0417
1637.00,0.0420
1636.00,0.0426
1635.00,0.0432
1634.00,0.0436
1633.00,0.0441
1632.00,0.0444
1631.00,0.0446
1630.00,0.0447
1629.00,0.0450
1628.00,0.0453
1627.00,0.0456
1626.00,0.0459
1625.00,0.0462
1624.00,0.0466
1623.00,0.0471
1622.00,0.0473
1621.00,0.0475
1620.00,0.0477
1619.00,0.0478
1618.00,0.0481
1617.00,0.0486
1616.00,0.0490
1615.00,0.0492
1614.00,0.0495
1613.00,0.0497
1612.00,0.0499
1611.00,0.0501
1610.00,0.0503
1609.00,0.0506
1608.00,0.0508
1607.00,0.0511
1606.00,0.0513
1605.00,0.0514
1604.00,0.0516
1603.00,0.0517
1602.00,0.0519
1601.00,0.0521
1600.00,0.0523
1599.00,0.0525
1598.00,0.0526
1597.00,0.0527
1596.00,0.0528
1595.00,0.0530
1594.00,0.0531
1593.00,0.0532
1592.00,0.0533
1591.00,0.0534
1590.00,0.0535
1589.00,0.0537
1588.00,0.0537
1587.00,0.0538
1586.00,0.0539
1585.00,0.0539
1584.00,0.0540
1583.00,0.0540
1582.00,0.0541
1581.00,0.0540
1580.00,0.0539
1579.00,0.0537
1578.00,0.0536
1577.00,0.0537
1576.00,0.0539
1575.00,0.0540
1574.00,0.0540
1573.00,0.0539
1572.00,0.0537
1571.00,0.0535
1570.00,0.0535
1569.00,0.0536
1568.00,0.0536
1567.00,0.0536
1566.00,0.0535
1565.00,0.0533
1564.00,0.0531
1563.00,0.0529
1562.00,0.0525
1561.00,0.0518
1560.00,0.0515
1559.00,0.0522
1558.00,0.0522
1557.00,0.0521
1556.00,0.0522
1555.00,0.0520
1554.00,0.0517
1553.00,0.0513
1552.00,0.0511
1551.00,0.0508
1550.00,0.0506
1549.00,0.0503
1548.00,0.0500
1547.00,0.0498
1546.00,0.0494
1545.00,0.0490
1544.00,0.0485
1543.00,0.0481
1542.00,0.0475
1541.00,0.0472
1540.00,0.0470
1539.00,0.0468
1538.00,0.0467
1537.00,0.0468
1536.00,0.0467
1535.00,0.0465
1534.00,0.0462
1533.00,0.0460
1532.00,0.0458
1531.00,0.0457
1530.00,0.0455
1529.00,0.0452
1528.00,0.0449
1527.00,0.0447
1526.00,0.0445
1525.00,0.0442
1524.00,0.0440
1523.00,0.0437
1522.00,0.0434
1521.00,0.0432
1520.00,0.0430
1519.00,0.0429
1518.00,0.0427
1517.00,0.0425
1516.00,0.0423
1515.00,0.0423
1514.00,0.0422
1513.00,0.0421
1512.00,0.0418
1511.00,0.0415
1510.00,0.0412
1509.00,0.0408
1508.00,0.0406
1507.00,0.0406
1506.00,0.0404
1505.00,0.0402
1504.00,0.0403
1503.00,0.0403
1502.00,0.0401
1501.00,0.0399
1500.00,0.0397
1499.00,0.0395
1498.00,0.0394
1497.00,0.0394
1496.00,0.0395
1495.00,0.0396
1494.00,0.0396
1493.00,0.0397
1492.00,0.0397
1491.00,0.0397
1490.00,0.0396
1489.00,0.0395
1488.00,0.0395
1487.00,0.0395
1486.00,0.0395
1485.00,0.0395
1484.00,0.0395
1483.00,0.0395
1482.00,0.0395
1481.00,0.0395
1480.00,0.0395
1479.00,0.0395
1478.00,0.0395
1477.00,0.0395
1476.00,0.0395
1475.00,0.0395
1474.00,0.0396
1473.00,0.0398
1472.00,0.0398
1471.00,0.0399
1470.00,0.0399
1469.00,0.0400
1468.00,0.0399
1467.00,0.0399
1466.00,0.0399
1465.00,0.0399
1464.00,0.0400
1463.00,0.0400
1462.00,0.0400
1461.00,0.0399
1460.00,0.0399
1459.00,0.0399
1458.00,0.0401
1457.00,0.0404
1456.00,0.0405
1455.00,0.0406
1454.00,0.0407
1453.00,0.0407
1452.00,0.0408
1451.00,0.0409
1450.00,0.0411
1449.00,0.0412
1448.00,0.0414
1447.00,0.0415
1446.00,0.0416
1445.00,0.0416
1444.00,0.0417
1443.00,0.0418
1442.00,0.0418
1441.00,0.0418
1440.00,0.0419
1439.00,0.0421
1438.00,0.0423
1437.00,0.0425
1436.00,0.0427
1435.00,0.0427
1434.00,0.0427
1433.00,0.0428
1432.00,0.0428
1431.00,0.0429
1430.00,0.0431
1429.00,0.0432
1428.00,0.0433
1427.00,0.0434
1426.00,0.0434
1425.00,0.0433
1424.00,0.0433
1423.00,0.0434
1422.00,0.0434
1421.00,0.0435
1420.00,0.0437
1419.00,0.0439
1418.00,0.0441
1417.00,0.0442
1416.00,0.0444
1415.00,0.0445
1414.00,0.0445
1413.00,0.0445
1412.00,0.0446
1411.00,0.0447
1410.00,0.0447
1409.00,0.0447
1408.00,0.0447
1407.00,0.0448
1406.00,0.0449
1405.00,0.0450
1404.00,0.0452
1403.00,0.0454
1402.00,0.0455
1401.00,0.0455
1400.00,0.0457
1399.00,0.0458
1398.00,0.0460
1397.00,0.0461
1396.00,0.0463
1395.00,0.0465
1394.00,0.0466
1393.00,0.0467
1392.00,0.0469
1391.00,0.0470
1390.00,0.0470
1389.00,0.0472
1388.00,0.0474
1387.00,0.0475
1386.00,0.0476
1385.00,0.0477
1384.00,0.0477
1383.00,0.0478
1382.00,0.0479
1381.00,0.0480
1380.00,0.0481
1379.00,0.0482
1378.00,0.0482
1377.00,0.0482
1376.00,0.0483
1375.00,0.0484
1374.00,0.0486
1373.00,0.0487
1372.00,0.0488
1371.00,0.0488
1370.00,0.0488
1369.00,0.0488
1368.00,0.0488
1367.00,0.0488
1366.00,0.0488
1365.00,0.0488
1364.00,0.0488
1363.00,0.0488
1362.00,0.0488
1361.00,0.0489
1360.00,0.0489
1359.00,0.0488
1358.00,0.0487
1357.00,0.0486
1356.00,0.0486
1355.00,0.0485
1354.00,0.0485
1353.00,0.0484
1352.00,0.0484
1351.00,0.0483
1350.00,0.0482
1349.00,0.0482
1348.00,0.0481
1347.00,0.0481
1346.00,0.0480
1345.00,0.0479
1344.00,0.0478
1343.00,0.0477
1342.00,0.0476
1341.00,0.0474
1340.00,0.0474
1339.00,0.0473
1338.00,0.0473
1337.00,0.0472
1336.00,0.0472
1335.00,0.0472
1334.00,0.0471
1333.00,0.0470
1332.00,0.0470
1331.00,0.0469
1330.00,0.0468
1329.00,0.0468
1328.00,0.0467
1327.00,0.0466
1326.00,0.0466
1325.00,0.0465
1324.00,0.0465
1323.00,0.0465
1322.00,0.0464
1321.00,0.0464
1320.00,0.0464
1319.00,0.0464
1318.00,0.0464
1317.00,0.0464
1316.00,0.0465
1315.00,0.0464
1314.00,0.0464
1313.00,0.0464
1312.00,0.0463
1311.00,0.0463
1310.00,0.0463
1309.00,0.0463
1308.00,0.0464
1307.00,0.0464
1306.00,0.0464
1305.00,0.0464
1304.00,0.0465
1303.00,0.0465
1302.00,0.0465
1301.00,0.0465
1300.00,0.0465
1299.00,0.0465
1298.00,0.0466
1297.00,0.0466
1296.00,0.0467
1295.00,0.0467
1294.00,0.0467
1293.00,0.0467
1292.00,0.0468
1291.00,0.0469
1290.00,0.0469
1289.00,0.0470
1288.00,0.0471
1287.00,0.0471
1286.00,0.0471
1285.00,0.0471
1284.00,0.0471
1283.00,0.0472
1282.00,0.0472
1281.00,0.0473
1280.00,0.0474
1279.00,0.0475
1278.00,0.0476
1277.00,0.0476
1276.00,0.0476
1275.00,0.0477
1274.00,0.0477
1273.00,0.0477
1272.00,0.0478
1271.00,0.0479
1270.00,0.0480
1269.00,0.0481
1268.00,0.0481
1267.00,0.0482
1266.00,0.0483
1265.00,0.0483
1264.00,0.0484
1263.00,0.0485
1262.00,0.0485
1261.00,0.0486
1260.00,0.0486
1259.00,0.0487
1258.00,0.0488
1257.00,0.0489
1256.00,0.0490
1255.00,0.0491
1254.00,0.0491
1253.00,0.0491
1252.00,0.0491
1251.00,0.0492
1250.00,0.0492
1249.00,0.0492
1248.00,0.0493
1247.00,0.0495
1246.00,0.0495
1245.00,0.0496
1244.00,0.0497
1243.00,0.0497
1242.00,0.0497
1241.00,0.0498
1240.00,0.0498
1239.00,0.0499
1238.00,0.0499
1237.00,0.0500
1236.00,0.0500
1235.00,0.0500
1234.00,0.0501
1233.00,0.0501
1232.00,0.0501
1231.00,0.0502
1230.00,0.0502
1229.00,0.0502
1228.00,0.0501
1227.00,0.0501
1226.00,0.0501
1225.00,0.0501
1224.00,0.0501
1223.00,0.0501
1222.00,0.0501
1221.00,0.0501
1220.00,0.0500
1219.00,0.0500
1218.00,0.0500
1217.00,0.0499
1216.00,0.0499
1215.00,0.0499
1214.00,0.0498
1213.00,0.0498
1212.00,0.0498
1211.00,0.0498
1210.00,0.0498
1209.00,0.0498
1208.00,0.0498
1207.00,0.0498
1206.00,0.0498
1205.00,0.0497
1204.00,0.0497
1203.00,0.0497
1202.00,0.0497
1201.00,0.0497
1200.00,0.0497
1199.00,0.0497
1198.00,0.0496
1197.00,0.0496
1196.00,0.0496
1195.00,0.0496
1194.00,0.0495
1193.00,0.0495
1192.00,0.0495
1191.00,0.0494
1190.00,0.0494
1189.00,0.0494
1188.00,0.0494
1187.00,0.0495
1186.00,0.0495
1185.00,0.0495
1184.00,0.0496
1183.00,0.0497
1182.00,0.0497
1181.00,0.0497
1180.00,0.0497
1179.00,0.0497
1178.00,0.0498
1177.00,0.0498
1176.00,0.0498
1175.00,0.0498
1174.00,0.0498
1173.00,0.0498
1172.00,0.0499
1171.00,0.0499
1170.00,0.0499
1169.00,0.0499
1168.00,0.0499
1167.00,0.0499
1166.00,0.0499
1165.00,0.0499
1164.00,0.0499
1163.00,0.0499
1162.00,0.0498
1161.00,0.0497
1160.00,0.0497
1159.00,0.0496
1158.00,0.0496
1157.00,0.0496
1156.00,0.0496
1155.00,0.0496
1154.00,0.0495
1153.00,0.0495
1152.00,0.0495
1151.00,0.0496
1150.00,0.0496
1149.00,0.0497
1148.00,0.0497
1147.00,0.0497
1146.00,0.0498
1145.00,0.0499
1144.00,0.0500
1143.00,0.0501
1142.00,0.0502
1141.00,0.0502
1140.00,0.0502
1139.00,0.0502
1138.00,0.0503
1137.00,0.0505
1136.00,0.0507
1135.00,0.0509
1134.00,0.0510
1133.00,0.0511
1132.00,0.0512
1131.00,0.0513
1130.00,0.0514
1129.00,0.0516
1128.00,0.0519
1127.00,0.0521
1126.00,0.0524
1125.00,0.0527
1124.00,0.0531
1123.00,0.0536
1122.00,0.0541
1121.00,0.0545
1120.00,0.0550
1119.00,0.0554
1118.00,0.0558
1117.00,0.0563
1116.00,0.0566
1115.00,0.0569
1114.00,0.0569
1113.00,0.0569
1112.00,0.0569
1111.00,0.0570
1110.00,0.0572
1109.00,0.0575
1108.00,0.0578
1107.00,0.0581
1106.00,0.0584
1105.00,0.0586
1104.00,0.0588
1103.00,0.0590
1102.00,0.0592
1101.00,0.0595
1100.00,0.0597
1099.00,0.0599
1098.00,0.0601
1097.00,0.0602
1096.00,0.0603
1095.00,0.0604
1094.00,0.0605
1093.00,0.0606
1092.00,0.0607
1091.00,0.0609
1090.00,0.0610
1089.00,0.0612
1088.00,0.0612
1087.00,0.0612
1086.00,0.0612
1085.00,0.0612
1084.00,0.0612
1083.00,0.0613
1082.00,0.0613
1081.00,0.0613
1080.00,0.0614
1079.00,0.0616
1078.00,0.0616
1077.00,0.0617
1076.00,0.0618
1075.00,0.0620
1074.00,0.0621
1073.00,0.0621
1072.00,0.0621
1071.00,0.0622
1070.00,0.0623
1069.00,0.0624
1068.00,0.0626
1067.00,0.0627
1066.00,0.0628
1065.00,0.0630
1064.00,0.0631
1063.00,0.0633
1062.00,0.0635
1061.00,0.0636
1060.00,0.0638
1059.00,0.0639
1058.00,0.0640
1057.00,0.0642
1056.00,0.0645
1055.00,0.0647
1054.00,0.0650
1053.00,0.0652
1052.00,0.0655
1051.00,0.0657
1050.00,0.0659
1049.00,0.0661
1048.00,0.0664
1047.00,0.0667
1046.00,0.0670
1045.00,0.0673
1044.00,0.0675
1043.00,0.0678
1042.00,0.0680
1041.00,0.0683
1040.00,0.0686
1039.00,0.0690
1038.00,0.0693
1037.00,0.0696
1036.00,0.0699
1035.00,0.0702
1034.00,0.0704
1033.00,0.0704
1032.00,0.0703
1031.00,0.0702
1030.00,0.0699
1029.00,0.0696
1028.00,0.0692
1027.00,0.0687
1026.00,0.0682
1025.00,0.0678
1024.00,0.0674
1023.00,0.0670
1022.00,0.0667
1021.00,0.0665
1020.00,0.0663
1019.00,0.0662
1018.00,0.0661
1017.00,0.0660
1016.00,0.0660
1015.00,0.0660
1014.00,0.0661
1013.00,0.0662
1012.00,0.0664
1011.00,0.0665
1010.00,0.0666
1009.00,0.0667
1008.00,0.0667
1007.00,0.0666
1006.00,0.0665
1005.00,0.0663
1004.00,0.0661
1003.00,0.0659
1002.00,0.0655
1001.00,0.0652
1000.00,0.0647
999.00,0.0642
998.00,0.0637
997.00,0.0631
996.00,0.0626
995.00,0.0620
994.00,0.0615
993.00,0.0611
992.00,0.0606
991.00,0.0602
990.00,0.0597
989.00,0.0592
988.00,0.0588
987.00,0.0585
986.00,0.0581
985.00,0.0577
984.00,0.0573
983.00,0.0569
982.00,0.0566
981.00,0.0563
980.00,0.0561
979.00,0.0558
978.00,0.0555
977.00,0.0552
976.00,0.0550
975.00,0.0549
974.00,0.0546
973.00,0.0544
972.00,0.0541
971.00,0.0539
970.00,0.0537
969.00,0.0535
968.00,0.0534
967.00,0.0533
966.00,0.0532
965.00,0.0530
964.00,0.0528
963.00,0.0526
962.00,0.0524
961.00,0.0523
960.00,0.0523
959.00,0.0522
958.00,0.0520
957.00,0.0519
956.00,0.0519
955.00,0.0519
954.00,0.0518
953.00,0.0518
952.00,0.0517
951.00,0.0516
950.00,0.0516
949.00,0.0517
948.00,0.0519
947.00,0.0520
946.00,0.0522
945.00,0.0524
944.00,0.0526
943.00,0.0527
942.00,0.0529
941.00,0.0530
940.00,0.0531
939.00,0.0532
938.00,0.0533
937.00,0.0534
936.00,0.0534
935.00,0.0534
934.00,0.0534
933.00,0.0534
932.00,0.0534
931.00,0.0533
930.00,0.0532
929.00,0.0531
928.00,0.0531
927.00,0.0532
926.00,0.0534
925.00,0.0535
924.00,0.0536
923.00,0.0538
922.00,0.0540
921.00,0.0542
920.00,0.0545
919.00,0.0548
918.00,0.0552
917.00,0.0556
916.00,0.0559
915.00,0.0562
914.00,0.0562
913.00,0.0562
912.00,0.0562
911.00,0.0561
910.00,0.0559
909.00,0.0557
908.00,0.0556
907.00,0.0554
906.00,0.0552
905.00,0.0550
904.00,0.0548
903.00,0.0545
902.00,0.0542
901.00,0.0539
900.00,0.0537
899.00,0.0535
898.00,0.0534
897.00,0.0533
896.00,0.0531
895.00,0.0528
894.00,0.0526
893.00,0.0525
892.00,0.0524
891.00,0.0523
890.00,0.0522
889.00,0.0521
888.00,0.0519
887.00,0.0518
886.00,0.0517
885.00,0.0516
884.00,0.0515
883.00,0.0513
882.00,0.0511
881.00,0.0510
880.00,0.0511
879.00,0.0512
878.00,0.0512
877.00,0.0511
876.00,0.0510
875.00,0.0508
874.00,0.0506
873.00,0.0505
872.00,0.0505
871.00,0.0506
870.00,0.0505
869.00,0.0504
868.00,0.0503
867.00,0.0503
866.00,0.0502
865.00,0.0501
864.00,0.0501
863.00,0.0501
862.00,0.0502
861.00,0.0501
860.00,0.0501
859.00,0.0501
858.00,0.0501
857.00,0.0502
856.00,0.0502
855.00,0.0503
854.00,0.0503
853.00,0.0503
852.00,0.0504
851.00,0.0505
850.00,0.0507
849.00,0.0508
848.00,0.0509
847.00,0.0509
846.00,0.0509
845.00,0.0511
844.00,0.0514
843.00,0.0517
842.00,0.0518
841.00,0.0519
840.00,0.0521
839.00,0.0523
838.00,0.0526
837.00,0.0528
836.00,0.0529
835.00,0.0530
834.00,0.0531
833.00,0.0531
832.00,0.0532
831.00,0.0535
830.00,0.0537
829.00,0.0539
828.00,0.0540
827.00,0.0541
826.00,0.0540
825.00,0.0540
824.00,0.0540
823.00,0.0542
822.00,0.0545
821.00,0.0549
820.00,0.0553
819.00,0.0556
818.00,0.0558
817.00,0.0559
816.00,0.0560
815.00,0.0561
814.00,0.0562
813.00,0.0563
812.00,0.0565
811.00,0.0567
810.00,0.0569
809.00,0.0570
808.00,0.0573
807.00,0.0576
806.00,0.0580
805.00,0.0585
804.00,0.0589
803.00,0.0594
802.00,0.0598
801.00,0.0602
800.00,0.0606
799.00,0.0608
798.00,0.0611
797.00,0.0612
796.00,0.0613
795.00,0.0612
794.00,0.0611
793.00,0.0610
792.00,0.0610
791.00,0.0610
790.00,0.0609
789.00,0.0609
788.00,0.0610
787.00,0.0611
786.00,0.0612
785.00,0.0613
784.00,0.0615
783.00,0.0618
782.00,0.0620
781.00,0.0621
780.00,0.0622
779.00,0.0622
778.00,0.0623
777.00,0.0623
776.00,0.0623
775.00,0.0624
774.00,0.0625
773.00,0.0625
772.00,0.0623
771.00,0.0621
770.00,0.0619
769.00,0.0619
768.00,0.0621
767.00,0.0622
766.00,0.0624
765.00,0.0625
764.00,0.0625
763.00,0.0625
762.00,0.0625
761.00,0.0627
760.00,0.0630
759.00,0.0634
758.00,0.0637
757.00,0.0639
756.00,0.0639
755.00,0.0638
754.00,0.0636
753.00,0.0633
752.00,0.0630
751.00,0.0630
750.00,0.0633
749.00,0.0636
748.00,0.0639
747.00,0.0640
746.00,0.0640
745.00,0.0639
744.00,0.0639
743.00,0.0637
742.00,0.0636
741.00,0.0636
740.00,0.0635
739.00,0.0634
738.00,0.0632
737.00,0.0631
736.00,0.0631
735.00,0.0632
734.00,0.0631
733.00,0.0632
732.00,0.0634
731.00,0.0637
730.00,0.0639
729.00,0.0640
728.00,0.0639
727.00,0.0637
726.00,0.0634
725.00,0.0633
724.00,0.0633
723.00,0.0635
722.00,0.0638
721.00,0.0642
720.00,0.0643
719.00,0.0643
718.00,0.0642
717.00,0.0642
716.00,0.0643
715.00,0.0645
714.00,0.0649
713.00,0.0652
712.00,0.0655
711.00,0.0656
710.00,0.0656
709.00,0.0657
708.00,0.0659
707.00,0.0662
706.00,0.0667
705.00,0.0671
704.00,0.0675
703.00,0.0678
702.00,0.0681
701.00,0.0684
700.00,0.0689
699.00,0.0695
698.00,0.0700
697.00,0.0705
696.00,0.0709
695.00,0.0713
694.00,0.0715
693.00,0.0715
692.00,0.0713
691.00,0.0711
690.00,0.0710
689.00,0.0711
688.00,0.0714
687.00,0.0721
686.00,0.0728
685.00,0.0735
684.00,0.0737
683.00,0.0736
682.00,0.0733
681.00,0.0732
680.00,0.0733
679.00,0.0733
678.00,0.0733
677.00,0.0734
676.00,0.0738
675.00,0.0740
674.00,0.0741
673.00,0.0742
672.00,0.0744
671.00,0.0746
670.00,0.0748
669.00,0.0753
668.00,0.0761
667.00,0.0767
666.00,0.0766
665.00,0.0761
664.00,0.0755
663.00,0.0753
662.00,0.0753
661.00,0.0755
660.00,0.0757
659.00,0.0760
658.00,0.0762
657.00,0.0763
656.00,0.0762
655.00,0.0760
654.00,0.0758
653.00,0.0759
652.00,0.0763
651.00,0.0766
650.00,0.0770
