Created as New Dataset,Monday, April 03 2023
cm-1,A
4000.00,0.0091
3999.00,0.0091
3998.00,0.0091
3997.00,0.0091
3996.00,0.0091
3995.00,0.0091
3994.00,0.0091
3993.00,0.0091
3992.00,0.0090
3991.00,0.0090
3990.00,0.0090
3989.00,0.0090
3988.00,0.0090
3987.00,0.0090
3986.00,0.0090
3985.00,0.0090
3984.00,0.0089
3983.00,0.0089
3982.00,0.0089
3981.00,0.0089
3980.00,0.0090
3979.00,0.0090
3978.00,0.0090
3977.00,0.0090
3976.00,0.0089
3975.00,0.0089
3974.00,0.0089
3973.00,0.0090
3972.00,0.0090
3971.00,0.0090
3970.00,0.0089
3969.00,0.0089
3968.00,0.0089
3967.00,0.0089
3966.00,0.0089
3965.00,0.0089
3964.00,0.0089
3963.00,0.0089
3962.00,0.0089
3961.00,0.0089
3960.00,0.0089
3959.00,0.0089
3958.00,0.0089
3957.00,0.0089
3956.00,0.0089
3955.00,0.0089
3954.00,0.0088
3953.00,0.0088
3952.00,0.0088
3951.00,0.0088
3950.00,0.0088
3949.00,0.0089
3948.00,0.0089
3947.00,0.0089
3946.00,0.0088
3945.00,0.0088
3944.00,0.0087
3943.00,0.0087
3942.00,0.0087
3941.00,0.0088
3940.00,0.0088
3939.00,0.0088
3938.00,0.0088
3937.00,0.0089
3936.00,0.0089
3935.00,0.0090
3934.00,0.0090
3933.00,0.0089
3932.00,0.0088
3931.00,0.0088
3930.00,0.0088
3929.00,0.0088
3928.00,0.0088
3927.00,0.0088
3926.00,0.0087
3925.00,0.0087
3924.00,0.0087
3923.00,0.0087
3922.00,0.0087
3921.00,0.0087
3920.00,0.0087
3919.00,0.0087
3918.00,0.0087
3917.00,0.0088
3916.00,0.0088
3915.00,0.0087
3914.00,0.0087
3913.00,0.0087
3912.00,0.0087
3911.00,0.0086
3910.00,0.0087
3909.00,0.0087
3908.00,0.0087
3907.00,0.0087
3906.00,0.0087
3905.00,0.0088
3904.00,0.0088
3903.00,0.0088
3902.00,0.0088
3901.00,0.0088
3900.00,0.0087
3899.00,0.0087
3898.00,0.0087
3897.00,0.0087
3896.00,0.0088
3895.00,0.0088
3894.00,0.0087
3893.00,0.0087
3892.00,0.0087
3891.00,0.0087
3890.00,0.0087
3889.00,0.0087
3888.00,0.0087
3887.00,0.0087
3886.00,0.0087
3885.00,0.0087
3884.00,0.0087
3883.00,0.0086
3882.00,0.0086
3881.00,0.0085
3880.00,0.0085
3879.00,0.0085
3878.00,0.0085
3877.00,0.0085
3876.00,0.0085
3875.00,0.0085
3874.00,0.0085
3873.00,0.0085
3872.00,0.0086
3871.00,0.0086
3870.00,0.0085
3869.00,0.0085
3868.00,0.0085
3867.00,0.0085
3866.00,0.0085
3865.00,0.0085
3864.00,0.0085
3863.00,0.0084
3862.00,0.0085
3861.00,0.0086
3860.00,0.0086
3859.00,0.0086
3858.00,0.0086
3857.00,0.0086
3856.00,0.0086
3855.00,0.0087
3854.00,0.0088
3853.00,0.0087
3852.00,0.0086
3851.00,0.0085
3850.00,0.0085
3849.00,0.0085
3848.00,0.0085
3847.00,0.0084
3846.00,0.0084
3845.00,0.0084
3844.00,0.0085
3843.00,0.0085
3842.00,0.0085
3841.00,0.0085
3840.00,0.0085
3839.00,0.0085
3838.00,0.0084
3837.00,0.0084
3836.00,0.0084
3835.00,0.0084
3834.00,0.0084
3833.00,0.0084
3832.00,0.0085
3831.00,0.0085
3830.00,0.0085
3829.00,0.0085
3828.00,0.0085
3827.00,0.0084
3826.00,0.0083
3825.00,0.0083
3824.00,0.0084
3823.00,0.0084
3822.00,0.0085
3821.00,0.0085
3820.00,0.0084
3819.00,0.0084
3818.00,0.0084
3817.00,0.0084
3816.00,0.0083
3815.00,0.0083
3814.00,0.0082
3813.00,0.0083
3812.00,0.0083
3811.00,0.0083
3810.00,0.0082
3809.00,0.0083
3808.00,0.0083
3807.00,0.0083
3806.00,0.0083
3805.00,0.0083
3804.00,0.0083
3803.00,0.0083
3802.00,0.0083
3801.00,0.0082
3800.00,0.0082
3799.00,0.0082
3798.00,0.0082
3797.00,0.0082
3796.00,0.0082
3795.00,0.0082
3794.00,0.0081
3793.00,0.0081
3792.00,0.0081
3791.00,0.0081
3790.00,0.0081
3789.00,0.0081
3788.00,0.0081
3787.00,0.0081
3786.00,0.0081
3785.00,0.0081
3784.00,0.0081
3783.00,0.0081
3782.00,0.0081
3781.00,0.0081
3780.00,0.0080
3779.00,0.0080
3778.00,0.0080
3777.00,0.0081
3776.00,0.0081
3775.00,0.0081
3774.00,0.0082
3773.00,0.0082
3772.00,0.0082
3771.00,0.0083
3770.00,0.0082
3769.00,0.0082
3768.00,0.0081
3767.00,0.0081
3766.00,0.0081
3765.00,0.0081
3764.00,0.0081
3763.00,0.0081
3762.00,0.0081
3761.00,0.0081
3760.00,0.0081
3759.00,0.0081
3758.00,0.0080
3757.00,0.0080
3756.00,0.0080
3755.00,0.0080
3754.00,0.0081
3753.00,0.0082
3752.00,0.0082
3751.00,0.0083
3750.00,0.0084
3749.00,0.0083
3748.00,0.0082
3747.00,0.0081
3746.00,0.0081
3745.00,0.0081
3744.00,0.0082
3743.00,0.0082
3742.00,0.0082
3741.00,0.0083
3740.00,0.0083
3739.00,0.0082
3738.00,0.0082
3737.00,0.0082
3736.00,0.0082
3735.00,0.0081
3734.00,0.0080
3733.00,0.0080
3732.00,0.0080
3731.00,0.0080
3730.00,0.0080
3729.00,0.0080
3728.00,0.0080
3727.00,0.0080
3726.00,0.0080
3725.00,0.0079
3724.00,0.0079
3723.00,0.0078
3722.00,0.0078
3721.00,0.0077
3720.00,0.0077
3719.00,0.0077
3718.00,0.0078
3717.00,0.0079
3716.00,0.0080
3715.00,0.0080
3714.00,0.0081
3713.00,0.0081
3712.00,0.0081
3711.00,0.0080
3710.00,0.0080
3709.00,0.0080
3708.00,0.0081
3707.00,0.0081
3706.00,0.0080
3705.00,0.0080
3704.00,0.0079
3703.00,0.0079
3702.00,0.0078
3701.00,0.0078
3700.00,0.0078
3699.00,0.0079
3698.00,0.0080
3697.00,0.0080
3696.00,0.0080
3695.00,0.0080
3694.00,0.0080
3693.00,0.0080
3692.00,0.0080
3691.00,0.0080
3690.00,0.0080
3689.00,0.0080
3688.00,0.0080
3687.00,0.0081
3686.00,0.0081
3685.00,0.0081
3684.00,0.0081
3683.00,0.0081
3682.00,0.0081
3681.00,0.0082
3680.00,0.0082
3679.00,0.0081
3678.00,0.0081
3677.00,0.0082
3676.00,0.0082
3675.00,0.0083
3674.00,0.0084
3673.00,0.0085
3672.00,0.0086
3671.00,0.0085
3670.00,0.0084
3669.00,0.0083
3668.00,0.0083
3667.00,0.0083
3666.00,0.0084
3665.00,0.0084
3664.00,0.0085
3663.00,0.0085
3662.00,0.0086
3661.00,0.0086
3660.00,0.0086
3659.00,0.0087
3658.00,0.0088
3657.00,0.0090
3656.00,0.0091
3655.00,0.0091
3654.00,0.0091
3653.00,0.0090
3652.00,0.0090
3651.00,0.0091
3650.00,0.0093
3649.00,0.0094
3648.00,0.0094
3647.00,0.0094
3646.00,0.0095
3645.00,0.0095
3644.00,0.0095
3643.00,0.0096
3642.00,0.0096
3641.00,0.0096
3640.00,0.0097
3639.00,0.0097
3638.00,0.0097
3637.00,0.0098
3636.00,0.0098
3635.00,0.0099
3634.00,0.0100
3633.00,0.0101
3632.00,0.0102
3631.00,0.0103
3630.00,0.0104
3629.00,0.0105
3628.00,0.0106
3627.00,0.0106
3626.00,0.0105
3625.00,0.0105
3624.00,0.0105
3623.00,0.0105
3622.00,0.0106
3621.00,0.0106
3620.00,0.0107
3619.00,0.0108
3618.00,0.0109
3617.00,0.0109
3616.00,0.0108
3615.00,0.0108
3614.00,0.0109
3613.00,0.0110
3612.00,0.0111
3611.00,0.0113
3610.00,0.0114
3609.00,0.0114
3608.00,0.0114
3607.00,0.0113
3606.00,0.0112
3605.00,0.0112
3604.00,0.0113
3603.00,0.0113
3602.00,0.0113
3601.00,0.0114
3600.00,0.0114
3599.00,0.0114
3598.00,0.0114
3597.00,0.0114
3596.00,0.0114
3595.00,0.0115
3594.00,0.0116
3593.00,0.0116
3592.00,0.0117
3591.00,0.0117
3590.00,0.0117
3589.00,0.0118
3588.00,0.0118
3587.00,0.0118
3586.00,0.0119
3585.00,0.0120
3584.00,0.0120
3583.00,0.0120
3582.00,0.0120
3581.00,0.0120
3580.00,0.0120
3579.00,0.0121
3578.00,0.0121
3577.00,0.0121
3576.00,0.0121
3575.00,0.0122
3574.00,0.0123
3573.00,0.0123
3572.00,0.0123
3571.00,0.0123
3570.00,0.0122
3569.00,0.0123
3568.00,0.0123
3567.00,0.0124
3566.00,0.0124
3565.00,0.0125
3564.00,0.0125
3563.00,0.0124
3562.00,0.0125
3561.00,0.0125
3560.00,0.0126
3559.00,0.0126
3558.00,0.0127
3557.00,0.0127
3556.00,0.0128
3555.00,0.0128
3554.00,0.0128
3553.00,0.0129
3552.00,0.0129
3551.00,0.0129
3550.00,0.0130
3549.00,0.0129
3548.00,0.0129
3547.00,0.0130
3546.00,0.0131
3545.00,0.0132
3544.00,0.0132
3543.00,0.0133
3542.00,0.0133
3541.00,0.0132
3540.00,0.0132
3539.00,0.0132
3538.00,0.0132
3537.00,0.0133
3536.00,0.0133
3535.00,0.0134
3534.00,0.0134
3533.00,0.0134
3532.00,0.0134
3531.00,0.0134
3530.00,0.0134
3529.00,0.0134
3528.00,0.0135
3527.00,0.0136
3526.00,0.0137
3525.00,0.0137
3524.00,0.0137
3523.00,0.0137
3522.00,0.0137
3521.00,0.0137
3520.00,0.0137
3519.00,0.0137
3518.00,0.0138
3517.00,0.0139
3516.00,0.0139
3515.00,0.0139
3514.00,0.0139
3513.00,0.0138
3512.00,0.0138
3511.00,0.0138
3510.00,0.0139
3509.00,0.0139
3508.00,0.0140
3507.00,0.0141
3506.00,0.0141
3505.00,0.0141
3504.00,0.0141
3503.00,0.0141
3502.00,0.0142
3501.00,0.0142
3500.00,0.0143
3499.00,0.0143
3498.00,0.0143
3497.00,0.0144
3496.00,0.0144
3495.00,0.0145
3494.00,0.0145
3493.00,0.0145
3492.00,0.0145
3491.00,0.0145
3490.00,0.0145
3489.00,0.0145
3488.00,0.0145
3487.00,0.0145
3486.00,0.0145
3485.00,0.0145
3484.00,0.0146
3483.00,0.0146
3482.00,0.0146
3481.00,0.0147
3480.00,0.0147
3479.00,0.0147
3478.00,0.0147
3477.00,0.0147
3476.00,0.0147
3475.00,0.0148
3474.00,0.0148
3473.00,0.0149
3472.00,0.0149
3471.00,0.0149
3470.00,0.0149
3469.00,0.0149
3468.00,0.0150
3467.00,0.0150
3466.00,0.0150
3465.00,0.0150
3464.00,0.0150
3463.00,0.0150
3462.00,0.0151
3461.00,0.0151
3460.00,0.0151
3459.00,0.0151
3458.00,0.0151
3457.00,0.0152
3456.00,0.0152
3455.00,0.0152
3454.00,0.0152
3453.00,0.0152
3452.00,0.0152
3451.00,0.0153
3450.00,0.0153
3449.00,0.0154
3448.00,0.0154
3447.00,0.0154
3446.00,0.0154
3445.00,0.0154
3444.00,0.0154
3443.00,0.0155
3442.00,0.0155
3441.00,0.0155
3440.00,0.0155
3439.00,0.0155
3438.00,0.0155
3437.00,0.0155
3436.00,0.0155
3435.00,0.0156
3434.00,0.0156
3433.00,0.0156
3432.00,0.0156
3431.00,0.0157
3430.00,0.0157
3429.00,0.0157
3428.00,0.0157
3427.00,0.0157
3426.00,0.0157
3425.00,0.0158
3424.00,0.0158
3423.00,0.0158
3422.00,0.0159
3421.00,0.0159
3420.00,0.0160
3419.00,0.0160
3418.00,0.0160
3417.00,0.0159
3416.00,0.0159
3415.00,0.0159
3414.00,0.0159
3413.00,0.0159
3412.00,0.0160
3411.00,0.0159
3410.00,0.0159
3409.00,0.0159
3408.00,0.0159
3407.00,0.0159
3406.00,0.0160
3405.00,0.0160
3404.00,0.0160
3403.00,0.0161
3402.00,0.0161
3401.00,0.0162
3400.00,0.0162
3399.00,0.0162
3398.00,0.0162
3397.00,0.0161
3396.00,0.0161
3395.00,0.0162
3394.00,0.0162
3393.00,0.0162
3392.00,0.0162
3391.00,0.0162
3390.00,0.0162
3389.00,0.0163
3388.00,0.0163
3387.00,0.0163
3386.00,0.0163
3385.00,0.0163
3384.00,0.0163
3383.00,0.0163
3382.00,0.0163
3381.00,0.0163
3380.00,0.0164
3379.00,0.0164
3378.00,0.0164
3377.00,0.0164
3376.00,0.0165
3375.00,0.0165
3374.00,0.0165
3373.00,0.0165
3372.00,0.0164
3371.00,0.0164
3370.00,0.0163
3369.00,0.0163
3368.00,0.0163
3367.00,0.0164
3366.00,0.0164
3365.00,0.0165
3364.00,0.0166
3363.00,0.0166
3362.00,0.0166
3361.00,0.0166
3360.00,0.0166
3359.00,0.0166
3358.00,0.0166
3357.00,0.0166
3356.00,0.0166
3355.00,0.0165
3354.00,0.0165
3353.00,0.0166
3352.00,0.0166
3351.00,0.0167
3350.00,0.0167
3349.00,0.0167
3348.00,0.0166
3347.00,0.0165
3346.00,0.0165
3345.00,0.0165
3344.00,0.0165
3343.00,0.0166
3342.00,0.0167
3341.00,0.0167
3340.00,0.0167
3339.00,0.0167
3338.00,0.0166
3337.00,0.0166
3336.00,0.0166
3335.00,0.0166
3334.00,0.0166
3333.00,0.0166
3332.00,0.0166
3331.00,0.0166
3330.00,0.0166
3329.00,0.0166
3328.00,0.0166
3327.00,0.0166
3326.00,0.0166
3325.00,0.0167
3324.00,0.0167
3323.00,0.0166
3322.00,0.0166
3321.00,0.0166
3320.00,0.0166
3319.00,0.0167
3318.00,0.0167
3317.00,0.0167
3316.00,0.0167
3315.00,0.0167
3314.00,0.0166
3313.00,0.0166
3312.00,0.0166
3311.00,0.0166
3310.00,0.0166
3309.00,0.0166
3308.00,0.0166
3307.00,0.0167
3306.00,0.0166
3305.00,0.0166
3304.00,0.0166
3303.00,0.0166
3302.00,0.0166
3301.00,0.0167
3300.00,0.0168
3299.00,0.0168
3298.00,0.0168
3297.00,0.0167
3296.00,0.0167
3295.00,0.0167
3294.00,0.0167
3293.00,0.0167
3292.00,0.0168
3291.00,0.0168
3290.00,0.0168
3289.00,0.0167
3288.00,0.0167
3287.00,0.0167
3286.00,0.0167
3285.00,0.0167
3284.00,0.0168
3283.00,0.0168
3282.00,0.0168
3281.00,0.0167
3280.00,0.0167
3279.00,0.0167
3278.00,0.0167
3277.00,0.0168
3276.00,0.0168
3275.00,0.0168
3274.00,0.0168
3273.00,0.0169
3272.00,0.0169
3271.00,0.0169
3270.00,0.0168
3269.00,0.0168
3268.00,0.0168
3267.00,0.0168
3266.00,0.0168
3265.00,0.0168
3264.00,0.0168
3263.00,0.0168
3262.00,0.0167
3261.00,0.0167
3260.00,0.0167
3259.00,0.0167
3258.00,0.0168
3257.00,0.0168
3256.00,0.0168
3255.00,0.0169
3254.00,0.0169
3253.00,0.0169
3252.00,0.0169
3251.00,0.0169
3250.00,0.0169
3249.00,0.0170
3248.00,0.0170
3247.00,0.0170
3246.00,0.0170
3245.00,0.0170
3244.00,0.0170
3243.00,0.0170
3242.00,0.0169
3241.00,0.0169
3240.00,0.0169
3239.00,0.0170
3238.00,0.0170
3237.00,0.0170
3236.00,0.0170
3235.00,0.0170
3234.00,0.0170
3233.00,0.0170
3232.00,0.0170
3231.00,0.0170
3230.00,0.0170
3229.00,0.0170
3228.00,0.0170
3227.00,0.0170
3226.00,0.0170
3225.00,0.0170
3224.00,0.0170
3223.00,0.0170
3222.00,0.0170
3221.00,0.0170
3220.00,0.0170
3219.00,0.0171
3218.00,0.0170
3217.00,0.0170
3216.00,0.0170
3215.00,0.0170
3214.00,0.0170
3213.00,0.0170
3212.00,0.0170
3211.00,0.0170
3210.00,0.0170
3209.00,0.0170
3208.00,0.0170
3207.00,0.0170
3206.00,0.0170
3205.00,0.0170
3204.00,0.0171
3203.00,0.0171
3202.00,0.0171
3201.00,0.0171
3200.00,0.0171
3199.00,0.0171
3198.00,0.0170
3197.00,0.0170
3196.00,0.0170
3195.00,0.0170
3194.00,0.0170
3193.00,0.0170
3192.00,0.0170
3191.00,0.0170
3190.00,0.0170
3189.00,0.0170
3188.00,0.0171
3187.00,0.0171
3186.00,0.0172
3185.00,0.0171
3184.00,0.0171
3183.00,0.0170
3182.00,0.0170
3181.00,0.0169
3180.00,0.0170
3179.00,0.0170
3178.00,0.0170
3177.00,0.0170
3176.00,0.0170
3175.00,0.0170
3174.00,0.0170
3173.00,0.0170
3172.00,0.0170
3171.00,0.0170
3170.00,0.0170
3169.00,0.0170
3168.00,0.0170
3167.00,0.0170
3166.00,0.0170
3165.00,0.0170
3164.00,0.0170
3163.00,0.0170
3162.00,0.0170
3161.00,0.0170
3160.00,0.0170
3159.00,0.0170
3158.00,0.0169
3157.00,0.0169
3156.00,0.0169
3155.00,0.0169
3154.00,0.0169
3153.00,0.0169
3152.00,0.0169
3151.00,0.0169
3150.00,0.0169
3149.00,0.0169
3148.00,0.0169
3147.00,0.0169
3146.00,0.0170
3145.00,0.0170
3144.00,0.0170
3143.00,0.0170
3142.00,0.0170
3141.00,0.0170
3140.00,0.0170
3139.00,0.0170
3138.00,0.0169
3137.00,0.0169
3136.00,0.0169
3135.00,0.0169
3134.00,0.0169
3133.00,0.0169
3132.00,0.0169
3131.00,0.0169
3130.00,0.0169
3129.00,0.0169
3128.00,0.0169
3127.00,0.0169
3126.00,0.0169
3125.00,0.0168
3124.00,0.0168
3123.00,0.0168
3122.00,0.0168
3121.00,0.0168
3120.00,0.0168
3119.00,0.0169
3118.00,0.0169
3117.00,0.0169
3116.00,0.0169
3115.00,0.0169
3114.00,0.0168
3113.00,0.0168
3112.00,0.0168
3111.00,0.0168
3110.00,0.0168
3109.00,0.0168
3108.00,0.0168
3107.00,0.0169
3106.00,0.0169
3105.00,0.0169
3104.00,0.0169
3103.00,0.0169
3102.00,0.0169
3101.00,0.0169
3100.00,0.0169
3099.00,0.0168
3098.00,0.0168
3097.00,0.0168
3096.00,0.0168
3095.00,0.0168
3094.00,0.0168
3093.00,0.0168
3092.00,0.0169
3091.00,0.0169
3090.00,0.0169
3089.00,0.0169
3088.00,0.0169
3087.00,0.0169
3086.00,0.0169
3085.00,0.0169
3084.00,0.0169
3083.00,0.0168
3082.00,0.0168
3081.00,0.0168
3080.00,0.0168
3079.00,0.0168
3078.00,0.0168
3077.00,0.0168
3076.00,0.0168
3075.00,0.0169
3074.00,0.0169
3073.00,0.0169
3072.00,0.0168
3071.00,0.0168
3070.00,0.0168
3069.00,0.0168
3068.00,0.0168
3067.00,0.0168
3066.00,0.0168
3065.00,0.0168
3064.00,0.0168
3063.00,0.0168
3062.00,0.0168
3061.00,0.0168
3060.00,0.0168
3059.00,0.0168
3058.00,0.0168
3057.00,0.0167
3056.00,0.0167
3055.00,0.0167
3054.00,0.0167
3053.00,0.0167
3052.00,0.0167
3051.00,0.0166
3050.00,0.0166
3049.00,0.0166
3048.00,0.0166
3047.00,0.0166
3046.00,0.0167
3045.00,0.0167
3044.00,0.0167
3043.00,0.0166
3042.00,0.0166
3041.00,0.0166
3040.00,0.0166
3039.00,0.0166
3038.00,0.0166
3037.00,0.0166
3036.00,0.0166
3035.00,0.0166
3034.00,0.0165
3033.00,0.0165
3032.00,0.0165
3031.00,0.0165
3030.00,0.0165
3029.00,0.0165
3028.00,0.0165
3027.00,0.0164
3026.00,0.0164
3025.00,0.0165
3024.00,0.0165
3023.00,0.0165
3022.00,0.0164
3021.00,0.0164
3020.00,0.0163
3019.00,0.0163
3018.00,0.0163
3017.00,0.0163
3016.00,0.0164
3015.00,0.0164
3014.00,0.0164
3013.00,0.0165
3012.00,0.0165
3011.00,0.0164
3010.00,0.0164
3009.00,0.0163
3008.00,0.0163
3007.00,0.0164
3006.00,0.0164
3005.00,0.0164
3004.00,0.0165
3003.00,0.0165
3002.00,0.0165
3001.00,0.0166
3000.00,0.0166
2999.00,0.0166
2998.00,0.0166
2997.00,0.0166
2996.00,0.0166
2995.00,0.0165
2994.00,0.0165
2993.00,0.0165
2992.00,0.0165
2991.00,0.0166
2990.00,0.0166
2989.00,0.0166
2988.00,0.0166
2987.00,0.0167
2986.00,0.0167
2985.00,0.0168
2984.00,0.0168
2983.00,0.0168
2982.00,0.0168
2981.00,0.0167
2980.00,0.0167
2979.00,0.0166
2978.00,0.0165
2977.00,0.0165
2976.00,0.0165
2975.00,0.0165
2974.00,0.0164
2973.00,0.0164
2972.00,0.0163
2971.00,0.0163
2970.00,0.0162
2969.00,0.0162
2968.00,0.0161
2967.00,0.0161
2966.00,0.0160
2965.00,0.0159
2964.00,0.0158
2963.00,0.0158
2962.00,0.0157
2961.00,0.0157
2960.00,0.0156
2959.00,0.0156
2958.00,0.0156
2957.00,0.0155
2956.00,0.0155
2955.00,0.0155
2954.00,0.0155
2953.00,0.0155
2952.00,0.0155
2951.00,0.0155
2950.00,0.0154
2949.00,0.0154
2948.00,0.0153
2947.00,0.0153
2946.00,0.0153
2945.00,0.0153
2944.00,0.0153
2943.00,0.0152
2942.00,0.0151
2941.00,0.0150
2940.00,0.0149
2939.00,0.0149
2938.00,0.0148
2937.00,0.0147
2936.00,0.0146
2935.00,0.0145
2934.00,0.0144
2933.00,0.0143
2932.00,0.0143
2931.00,0.0142
2930.00,0.0140
2929.00,0.0139
2928.00,0.0138
2927.00,0.0137
2926.00,0.0137
2925.00,0.0136
2924.00,0.0136
2923.00,0.0137
2922.00,0.0137
2921.00,0.0137
2920.00,0.0138
2919.00,0.0138
2918.00,0.0138
2917.00,0.0139
2916.00,0.0140
2915.00,0.0141
2914.00,0.0142
2913.00,0.0143
2912.00,0.0143
2911.00,0.0144
2910.00,0.0144
2909.00,0.0145
2908.00,0.0145
2907.00,0.0146
2906.00,0.0147
2905.00,0.0148
2904.00,0.0148
2903.00,0.0148
2902.00,0.0148
2901.00,0.0149
2900.00,0.0149
2899.00,0.0149
2898.00,0.0150
2897.00,0.0150
2896.00,0.0150
2895.00,0.0150
2894.00,0.0150
2893.00,0.0150
2892.00,0.0151
2891.00,0.0151
2890.00,0.0151
2889.00,0.0151
2888.00,0.0151
2887.00,0.0151
2886.00,0.0151
2885.00,0.0151
2884.00,0.0151
2883.00,0.0151
2882.00,0.0150
2881.00,0.0150
2880.00,0.0150
2879.00,0.0150
2878.00,0.0149
2877.00,0.0149
2876.00,0.0149
2875.00,0.0149
2874.00,0.0149
2873.00,0.0148
2872.00,0.0148
2871.00,0.0147
2870.00,0.0147
2869.00,0.0146
2868.00,0.0146
2867.00,0.0145
2866.00,0.0145
2865.00,0.0145
2864.00,0.0144
2863.00,0.0144
2862.00,0.0144
2861.00,0.0143
2860.00,0.0142
2859.00,0.0141
2858.00,0.0140
2857.00,0.0139
2856.00,0.0139
2855.00,0.0138
2854.00,0.0137
2853.00,0.0137
2852.00,0.0137
2851.00,0.0138
2850.00,0.0138
2849.00,0.0139
2848.00,0.0140
2847.00,0.0141
2846.00,0.0142
2845.00,0.0142
2844.00,0.0143
2843.00,0.0143
2842.00,0.0144
2841.00,0.0144
2840.00,0.0145
2839.00,0.0145
2838.00,0.0146
2837.00,0.0145
2836.00,0.0145
2835.00,0.0145
2834.00,0.0144
2833.00,0.0145
2832.00,0.0145
2831.00,0.0145
2830.00,0.0146
2829.00,0.0146
2828.00,0.0146
2827.00,0.0146
2826.00,0.0145
2825.00,0.0145
2824.00,0.0145
2823.00,0.0145
2822.00,0.0146
2821.00,0.0146
2820.00,0.0146
2819.00,0.0146
2818.00,0.0146
2817.00,0.0146
2816.00,0.0146
2815.00,0.0145
2814.00,0.0145
2813.00,0.0145
2812.00,0.0145
2811.00,0.0145
2810.00,0.0145
2809.00,0.0144
2808.00,0.0144
2807.00,0.0144
2806.00,0.0144
2805.00,0.0144
2804.00,0.0144
2803.00,0.0144
2802.00,0.0144
2801.00,0.0144
2800.00,0.0144
2799.00,0.0144
2798.00,0.0143
2797.00,0.0143
2796.00,0.0143
2795.00,0.0143
2794.00,0.0143
2793.00,0.0143
2792.00,0.0142
2791.00,0.0142
2790.00,0.0142
2789.00,0.0142
2788.00,0.0142
2787.00,0.0142
2786.00,0.0142
2785.00,0.0142
2784.00,0.0142
2783.00,0.0142
2782.00,0.0142
2781.00,0.0141
2780.00,0.0141
2779.00,0.0141
2778.00,0.0141
2777.00,0.0141
2776.00,0.0141
2775.00,0.0140
2774.00,0.0140
2773.00,0.0140
2772.00,0.0141
2771.00,0.0141
2770.00,0.0141
2769.00,0.0141
2768.00,0.0141
2767.00,0.0141
2766.00,0.0140
2765.00,0.0140
2764.00,0.0140
2763.00,0.0140
2762.00,0.0139
2761.00,0.0139
2760.00,0.0139
2759.00,0.0139
2758.00,0.0139
2757.00,0.0139
2756.00,0.0139
2755.00,0.0139
2754.00,0.0139
2753.00,0.0139
2752.00,0.0138
2751.00,0.0138
2750.00,0.0138
2749.00,0.0138
2748.00,0.0138
2747.00,0.0138
2746.00,0.0137
2745.00,0.0137
2744.00,0.0138
2743.00,0.0138
2742.00,0.0138
2741.00,0.0138
2740.00,0.0137
2739.00,0.0137
2738.00,0.0137
2737.00,0.0136
2736.00,0.0136
2735.00,0.0136
2734.00,0.0136
2733.00,0.0136
2732.00,0.0136
2731.00,0.0136
2730.00,0.0136
2729.00,0.0136
2728.00,0.0135
2727.00,0.0135
2726.00,0.0135
2725.00,0.0135
2724.00,0.0135
2723.00,0.0135
2722.00,0.0135
2721.00,0.0135
2720.00,0.0135
2719.00,0.0135
2718.00,0.0135
2717.00,0.0135
2716.00,0.0135
2715.00,0.0135
2714.00,0.0135
2713.00,0.0134
2712.00,0.0134
2711.00,0.0134
2710.00,0.0134
2709.00,0.0134
2708.00,0.0133
2707.00,0.0133
2706.00,0.0133
2705.00,0.0132
2704.00,0.0132
2703.00,0.0132
2702.00,0.0132
2701.00,0.0132
2700.00,0.0132
2699.00,0.0132
2698.00,0.0132
2697.00,0.0132
2696.00,0.0132
2695.00,0.0132
2694.00,0.0132
2693.00,0.0131
2692.00,0.0131
2691.00,0.0131
2690.00,0.0131
2689.00,0.0131
2688.00,0.0131
2687.00,0.0131
2686.00,0.0131
2685.00,0.0131
2684.00,0.0130
2683.00,0.0131
2682.00,0.0131
2681.00,0.0130
2680.00,0.0130
2679.00,0.0130
2678.00,0.0130
2677.00,0.0130
2676.00,0.0130
2675.00,0.0130
2674.00,0.0130
2673.00,0.0131
2672.00,0.0131
2671.00,0.0130
2670.00,0.0130
2669.00,0.0130
2668.00,0.0129
2667.00,0.0129
2666.00,0.0130
2665.00,0.0130
2664.00,0.0130
2663.00,0.0130
2662.00,0.0130
2661.00,0.0129
2660.00,0.0129
2659.00,0.0129
2658.00,0.0129
2657.00,0.0129
2656.00,0.0129
2655.00,0.0130
2654.00,0.0130
2653.00,0.0130
2652.00,0.0130
2651.00,0.0130
2650.00,0.0129
2649.00,0.0129
2648.00,0.0129
2647.00,0.0129
2646.00,0.0129
2645.00,0.0129
2644.00,0.0128
2643.00,0.0128
2642.00,0.0128
2641.00,0.0129
2640.00,0.0129
2639.00,0.0129
2638.00,0.0129
2637.00,0.0129
2636.00,0.0128
2635.00,0.0128
2634.00,0.0128
2633.00,0.0128
2632.00,0.0128
2631.00,0.0128
2630.00,0.0128
2629.00,0.0129
2628.00,0.0129
2627.00,0.0130
2626.00,0.0129
2625.00,0.0129
2624.00,0.0128
2623.00,0.0128
2622.00,0.0128
2621.00,0.0129
2620.00,0.0129
2619.00,0.0128
2618.00,0.0128
2617.00,0.0128
2616.00,0.0128
2615.00,0.0128
2614.00,0.0129
2613.00,0.0129
2612.00,0.0128
2611.00,0.0128
2610.00,0.0128
2609.00,0.0128
2608.00,0.0128
2607.00,0.0128
2606.00,0.0129
2605.00,0.0129
2604.00,0.0129
2603.00,0.0129
2602.00,0.0129
2601.00,0.0129
2600.00,0.0128
2599.00,0.0128
2598.00,0.0127
2597.00,0.0127
2596.00,0.0127
2595.00,0.0127
2594.00,0.0127
2593.00,0.0128
2592.00,0.0128
2591.00,0.0128
2590.00,0.0128
2589.00,0.0128
2588.00,0.0128
2587.00,0.0128
2586.00,0.0128
2585.00,0.0128
2584.00,0.0128
2583.00,0.0127
2582.00,0.0128
2581.00,0.0128
2580.00,0.0129
2579.00,0.0129
2578.00,0.0129
2577.00,0.0129
2576.00,0.0128
2575.00,0.0128
2574.00,0.0128
2573.00,0.0128
2572.00,0.0128
2571.00,0.0127
2570.00,0.0127
2569.00,0.0127
2568.00,0.0128
2567.00,0.0128
2566.00,0.0128
2565.00,0.0128
2564.00,0.0128
2563.00,0.0127
2562.00,0.0126
2561.00,0.0126
2560.00,0.0126
2559.00,0.0126
2558.00,0.0126
2557.00,0.0126
2556.00,0.0126
2555.00,0.0126
2554.00,0.0126
2553.00,0.0126
2552.00,0.0126
2551.00,0.0126
2550.00,0.0126
2549.00,0.0125
2548.00,0.0125
2547.00,0.0126
2546.00,0.0126
2545.00,0.0127
2544.00,0.0127
2543.00,0.0127
2542.00,0.0126
2541.00,0.0126
2540.00,0.0127
2539.00,0.0127
2538.00,0.0127
2537.00,0.0127
2536.00,0.0127
2535.00,0.0126
2534.00,0.0126
2533.00,0.0126
2532.00,0.0126
2531.00,0.0126
2530.00,0.0125
2529.00,0.0125
2528.00,0.0125
2527.00,0.0125
2526.00,0.0125
2525.00,0.0126
2524.00,0.0126
2523.00,0.0126
2522.00,0.0126
2521.00,0.0126
2520.00,0.0125
2519.00,0.0125
2518.00,0.0125
2517.00,0.0124
2516.00,0.0124
2515.00,0.0125
2514.00,0.0125
2513.00,0.0125
2512.00,0.0125
2511.00,0.0125
2510.00,0.0124
2509.00,0.0124
2508.00,0.0123
2507.00,0.0123
2506.00,0.0123
2505.00,0.0123
2504.00,0.0123
2503.00,0.0123
2502.00,0.0123
2501.00,0.0123
2500.00,0.0123
2499.00,0.0123
2498.00,0.0124
2497.00,0.0125
2496.00,0.0125
2495.00,0.0125
2494.00,0.0124
2493.00,0.0124
2492.00,0.0124
2491.00,0.0124
2490.00,0.0124
2489.00,0.0123
2488.00,0.0123
2487.00,0.0123
2486.00,0.0123
2485.00,0.0123
2484.00,0.0123
2483.00,0.0123
2482.00,0.0123
2481.00,0.0123
2480.00,0.0123
2479.00,0.0122
2478.00,0.0122
2477.00,0.0122
2476.00,0.0122
2475.00,0.0122
2474.00,0.0123
2473.00,0.0123
2472.00,0.0123
2471.00,0.0123
2470.00,0.0122
2469.00,0.0123
2468.00,0.0122
2467.00,0.0122
2466.00,0.0122
2465.00,0.0122
2464.00,0.0122
2463.00,0.0123
2462.00,0.0123
2461.00,0.0123
2460.00,0.0123
2459.00,0.0123
2458.00,0.0123
2457.00,0.0122
2456.00,0.0122
2455.00,0.0122
2454.00,0.0122
2453.00,0.0122
2452.00,0.0122
2451.00,0.0122
2450.00,0.0122
2449.00,0.0122
2448.00,0.0122
2447.00,0.0122
2446.00,0.0123
2445.00,0.0123
2444.00,0.0122
2443.00,0.0122
2442.00,0.0122
2441.00,0.0121
2440.00,0.0121
2439.00,0.0121
2438.00,0.0121
2437.00,0.0121
2436.00,0.0121
2435.00,0.0120
2434.00,0.0120
2433.00,0.0120
2432.00,0.0120
2431.00,0.0120
2430.00,0.0120
2429.00,0.0120
2428.00,0.0121
2427.00,0.0121
2426.00,0.0121
2425.00,0.0121
2424.00,0.0121
2423.00,0.0120
2422.00,0.0120
2421.00,0.0120
2420.00,0.0120
2419.00,0.0119
2418.00,0.0119
2417.00,0.0119
2416.00,0.0119
2415.00,0.0119
2414.00,0.0118
2413.00,0.0118
2412.00,0.0118
2411.00,0.0118
2410.00,0.0118
2409.00,0.0118
2408.00,0.0118
2407.00,0.0118
2406.00,0.0118
2405.00,0.0119
2404.00,0.0119
2403.00,0.0119
2402.00,0.0119
2401.00,0.0118
2400.00,0.0118
2399.00,0.0117
2398.00,0.0117
2397.00,0.0117
2396.00,0.0117
2395.00,0.0118
2394.00,0.0118
2393.00,0.0117
2392.00,0.0117
2391.00,0.0117
2390.00,0.0117
2389.00,0.0117
2388.00,0.0118
2387.00,0.0118
2386.00,0.0118
2385.00,0.0118
2384.00,0.0118
2383.00,0.0118
2382.00,0.0117
2381.00,0.0116
2380.00,0.0114
2379.00,0.0112
2378.00,0.0111
2377.00,0.0109
2376.00,0.0109
2375.00,0.0109
2374.00,0.0109
2373.00,0.0109
2372.00,0.0110
2371.00,0.0112
2370.00,0.0113
2369.00,0.0114
2368.00,0.0113
2367.00,0.0112
2366.00,0.0111
2365.00,0.0111
2364.00,0.0110
2363.00,0.0109
2362.00,0.0109
2361.00,0.0110
2360.00,0.0112
2359.00,0.0113
2358.00,0.0113
2357.00,0.0111
2356.00,0.0110
2355.00,0.0109
2354.00,0.0108
2353.00,0.0108
2352.00,0.0107
2351.00,0.0108
2350.00,0.0108
2349.00,0.0109
2348.00,0.0109
2347.00,0.0109
2346.00,0.0109
2345.00,0.0109
2344.00,0.0109
2343.00,0.0110
2342.00,0.0110
2341.00,0.0109
2340.00,0.0108
2339.00,0.0107
2338.00,0.0107
2337.00,0.0107
2336.00,0.0108
2335.00,0.0108
2334.00,0.0108
2333.00,0.0107
2332.00,0.0107
2331.00,0.0107
2330.00,0.0108
2329.00,0.0109
2328.00,0.0111
2327.00,0.0113
2326.00,0.0113
2325.00,0.0113
2324.00,0.0112
2323.00,0.0110
2322.00,0.0109
2321.00,0.0109
2320.00,0.0110
2319.00,0.0110
2318.00,0.0111
2317.00,0.0111
2316.00,0.0111
2315.00,0.0110
2314.00,0.0109
2313.00,0.0109
2312.00,0.0110
2311.00,0.0111
2310.00,0.0111
2309.00,0.0112
2308.00,0.0112
2307.00,0.0112
2306.00,0.0111
2305.00,0.0110
2304.00,0.0110
2303.00,0.0110
2302.00,0.0110
2301.00,0.0111
2300.00,0.0111
2299.00,0.0111
2298.00,0.0111
2297.00,0.0111
2296.00,0.0110
2295.00,0.0110
2294.00,0.0110
2293.00,0.0110
2292.00,0.0111
2291.00,0.0111
2290.00,0.0111
2289.00,0.0112
2288.00,0.0111
2287.00,0.0111
2286.00,0.0111
2285.00,0.0111
2284.00,0.0111
2283.00,0.0110
2282.00,0.0110
2281.00,0.0109
2280.00,0.0110
2279.00,0.0110
2278.00,0.0109
2277.00,0.0109
2276.00,0.0109
2275.00,0.0109
2274.00,0.0109
2273.00,0.0109
2272.00,0.0109
2271.00,0.0108
2270.00,0.0108
2269.00,0.0107
2268.00,0.0108
2267.00,0.0109
2266.00,0.0110
2265.00,0.0111
2264.00,0.0111
2263.00,0.0111
2262.00,0.0111
2261.00,0.0111
2260.00,0.0111
2259.00,0.0111
2258.00,0.0111
2257.00,0.0110
2256.00,0.0109
2255.00,0.0108
2254.00,0.0108
2253.00,0.0108
2252.00,0.0109
2251.00,0.0110
2250.00,0.0110
2249.00,0.0110
2248.00,0.0109
2247.00,0.0108
2246.00,0.0107
2245.00,0.0107
2244.00,0.0107
2243.00,0.0107
2242.00,0.0107
2241.00,0.0108
2240.00,0.0109
2239.00,0.0109
2238.00,0.0109
2237.00,0.0108
2236.00,0.0107
2235.00,0.0106
2234.00,0.0106
2233.00,0.0107
2232.00,0.0107
2231.00,0.0108
2230.00,0.0108
2229.00,0.0108
2228.00,0.0108
2227.00,0.0107
2226.00,0.0106
2225.00,0.0106
2224.00,0.0105
2223.00,0.0106
2222.00,0.0107
2221.00,0.0108
2220.00,0.0109
2219.00,0.0109
2218.00,0.0109
2217.00,0.0108
2216.00,0.0108
2215.00,0.0108
2214.00,0.0109
2213.00,0.0109
2212.00,0.0109
2211.00,0.0109
2210.00,0.0109
2209.00,0.0108
2208.00,0.0106
2207.00,0.0105
2206.00,0.0104
2205.00,0.0104
2204.00,0.0106
2203.00,0.0107
2202.00,0.0107
2201.00,0.0107
2200.00,0.0107
2199.00,0.0107
2198.00,0.0107
2197.00,0.0106
2196.00,0.0104
2195.00,0.0103
2194.00,0.0103
2193.00,0.0102
2192.00,0.0102
2191.00,0.0101
2190.00,0.0101
2189.00,0.0102
2188.00,0.0103
2187.00,0.0105
2186.00,0.0107
2185.00,0.0106
2184.00,0.0105
2183.00,0.0103
2182.00,0.0103
2181.00,0.0104
2180.00,0.0105
2179.00,0.0106
2178.00,0.0105
2177.00,0.0103
2176.00,0.0102
2175.00,0.0101
2174.00,0.0102
2173.00,0.0104
2172.00,0.0105
2171.00,0.0106
2170.00,0.0106
2169.00,0.0106
2168.00,0.0105
2167.00,0.0104
2166.00,0.0103
2165.00,0.0102
2164.00,0.0101
2163.00,0.0100
2162.00,0.0100
2161.00,0.0099
2160.00,0.0099
2159.00,0.0099
2158.00,0.0100
2157.00,0.0101
2156.00,0.0100
2155.00,0.0097
2154.00,0.0095
2153.00,0.0095
2152.00,0.0095
2151.00,0.0095
2150.00,0.0095
2149.00,0.0095
2148.00,0.0095
2147.00,0.0095
2146.00,0.0096
2145.00,0.0097
2144.00,0.0099
2143.00,0.0100
2142.00,0.0099
2141.00,0.0098
2140.00,0.0097
2139.00,0.0097
2138.00,0.0096
2137.00,0.0096
2136.00,0.0095
2135.00,0.0095
2134.00,0.0096
2133.00,0.0097
2132.00,0.0098
2131.00,0.0097
2130.00,0.0096
2129.00,0.0095
2128.00,0.0095
2127.00,0.0096
2126.00,0.0097
2125.00,0.0097
2124.00,0.0097
2123.00,0.0097
2122.00,0.0096
2121.00,0.0096
2120.00,0.0096
2119.00,0.0097
2118.00,0.0097
2117.00,0.0097
2116.00,0.0097
2115.00,0.0096
2114.00,0.0096
2113.00,0.0096
2112.00,0.0096
2111.00,0.0096
2110.00,0.0095
2109.00,0.0095
2108.00,0.0095
2107.00,0.0095
2106.00,0.0094
2105.00,0.0094
2104.00,0.0093
2103.00,0.0093
2102.00,0.0093
2101.00,0.0093
2100.00,0.0093
2099.00,0.0093
2098.00,0.0093
2097.00,0.0094
2096.00,0.0095
2095.00,0.0095
2094.00,0.0094
2093.00,0.0094
2092.00,0.0093
2091.00,0.0093
2090.00,0.0092
2089.00,0.0092
2088.00,0.0092
2087.00,0.0091
2086.00,0.0092
2085.00,0.0092
2084.00,0.0091
2083.00,0.0091
2082.00,0.0090
2081.00,0.0089
2080.00,0.0089
2079.00,0.0089
2078.00,0.0090
2077.00,0.0092
2076.00,0.0093
2075.00,0.0094
2074.00,0.0094
2073.00,0.0093
2072.00,0.0093
2071.00,0.0092
2070.00,0.0092
2069.00,0.0091
2068.00,0.0091
2067.00,0.0091
2066.00,0.0091
2065.00,0.0091
2064.00,0.0090
2063.00,0.0089
2062.00,0.0088
2061.00,0.0088
2060.00,0.0089
2059.00,0.0088
2058.00,0.0088
2057.00,0.0088
2056.00,0.0089
2055.00,0.0091
2054.00,0.0092
2053.00,0.0092
2052.00,0.0091
2051.00,0.0091
2050.00,0.0090
2049.00,0.0090
2048.00,0.0090
2047.00,0.0089
2046.00,0.0089
2045.00,0.0090
2044.00,0.0091
2043.00,0.0092
2042.00,0.0092
2041.00,0.0091
2040.00,0.0090
2039.00,0.0090
2038.00,0.0090
2037.00,0.0092
2036.00,0.0094
2035.00,0.0096
2034.00,0.0096
2033.00,0.0095
2032.00,0.0094
2031.00,0.0093
2030.00,0.0093
2029.00,0.0093
2028.00,0.0093
2027.00,0.0092
2026.00,0.0090
2025.00,0.0089
2024.00,0.0089
2023.00,0.0088
2022.00,0.0088
2021.00,0.0088
2020.00,0.0088
2019.00,0.0088
2018.00,0.0088
2017.00,0.0087
2016.00,0.0086
2015.00,0.0085
2014.00,0.0086
2013.00,0.0086
2012.00,0.0087
2011.00,0.0087
2010.00,0.0086
2009.00,0.0085
2008.00,0.0084
2007.00,0.0085
2006.00,0.0086
2005.00,0.0087
2004.00,0.0087
2003.00,0.0086
2002.00,0.0086
2001.00,0.0085
2000.00,0.0084
1999.00,0.0085
1998.00,0.0086
1997.00,0.0088
1996.00,0.0088
1995.00,0.0087
1994.00,0.0086
1993.00,0.0085
1992.00,0.0086
1991.00,0.0086
1990.00,0.0085
1989.00,0.0084
1988.00,0.0083
1987.00,0.0082
1986.00,0.0083
1985.00,0.0084
1984.00,0.0085
1983.00,0.0086
1982.00,0.0087
1981.00,0.0088
1980.00,0.0088
1979.00,0.0088
1978.00,0.0086
1977.00,0.0083
1976.00,0.0081
1975.00,0.0080
1974.00,0.0079
1973.00,0.0080
1972.00,0.0082
1971.00,0.0084
1970.00,0.0085
1969.00,0.0084
1968.00,0.0083
1967.00,0.0082
1966.00,0.0082
1965.00,0.0084
1964.00,0.0085
1963.00,0.0085
1962.00,0.0083
1961.00,0.0082
1960.00,0.0081
1959.00,0.0080
1958.00,0.0080
1957.00,0.0080
1956.00,0.0080
1955.00,0.0080
1954.00,0.0080
1953.00,0.0080
1952.00,0.0080
1951.00,0.0079
1950.00,0.0078
1949.00,0.0078
1948.00,0.0078
1947.00,0.0079
1946.00,0.0079
1945.00,0.0080
1944.00,0.0080
1943.00,0.0079
1942.00,0.0077
1941.00,0.0076
1940.00,0.0075
1939.00,0.0074
1938.00,0.0074
1937.00,0.0076
1936.00,0.0077
1935.00,0.0078
1934.00,0.0078
1933.00,0.0078
1932.00,0.0077
1931.00,0.0076
1930.00,0.0075
1929.00,0.0075
1928.00,0.0075
1927.00,0.0076
1926.00,0.0076
1925.00,0.0077
1924.00,0.0076
1923.00,0.0075
1922.00,0.0074
1921.00,0.0074
1920.00,0.0074
1919.00,0.0074
1918.00,0.0074
1917.00,0.0073
1916.00,0.0073
1915.00,0.0073
1914.00,0.0073
1913.00,0.0073
1912.00,0.0072
1911.00,0.0071
1910.00,0.0071
1909.00,0.0070
1908.00,0.0070
1907.00,0.0069
1906.00,0.0069
1905.00,0.0069
1904.00,0.0069
1903.00,0.0069
1902.00,0.0069
1901.00,0.0069
1900.00,0.0070
1899.00,0.0070
1898.00,0.0070
1897.00,0.0069
1896.00,0.0069
1895.00,0.0068
1894.00,0.0068
1893.00,0.0069
1892.00,0.0069
1891.00,0.0069
1890.00,0.0069
1889.00,0.0068
1888.00,0.0068
1887.00,0.0068
1886.00,0.0067
1885.00,0.0067
1884.00,0.0067
1883.00,0.0067
1882.00,0.0067
1881.00,0.0066
1880.00,0.0066
1879.00,0.0065
1878.00,0.0064
1877.00,0.0064
1876.00,0.0064
1875.00,0.0065
1874.00,0.0065
1873.00,0.0065
1872.00,0.0065
1871.00,0.0065
1870.00,0.0064
1869.00,0.0063
1868.00,0.0062
1867.00,0.0062
1866.00,0.0062
1865.00,0.0063
1864.00,0.0064
1863.00,0.0063
1862.00,0.0063
1861.00,0.0062
1860.00,0.0061
1859.00,0.0062
1858.00,0.0062
1857.00,0.0062
1856.00,0.0062
1855.00,0.0062
1854.00,0.0061
1853.00,0.0061
1852.00,0.0061
1851.00,0.0061
1850.00,0.0061
1849.00,0.0061
1848.00,0.0061
1847.00,0.0062
1846.00,0.0062
1845.00,0.0061
1844.00,0.0059
1843.00,0.0057
1842.00,0.0057
1841.00,0.0057
1840.00,0.0058
1839.00,0.0058
1838.00,0.0058
1837.00,0.0057
1836.00,0.0057
1835.00,0.0056
1834.00,0.0056
1833.00,0.0057
1832.00,0.0057
1831.00,0.0057
1830.00,0.0056
1829.00,0.0055
1828.00,0.0054
1827.00,0.0054
1826.00,0.0054
1825.00,0.0053
1824.00,0.0053
1823.00,0.0053
1822.00,0.0053
1821.00,0.0054
1820.00,0.0055
1819.00,0.0055
1818.00,0.0055
1817.00,0.0054
1816.00,0.0054
1815.00,0.0053
1814.00,0.0053
1813.00,0.0053
1812.00,0.0053
1811.00,0.0052
1810.00,0.0052
1809.00,0.0052
1808.00,0.0052
1807.00,0.0053
1806.00,0.0053
1805.00,0.0053
1804.00,0.0054
1803.00,0.0054
1802.00,0.0054
1801.00,0.0053
1800.00,0.0053
1799.00,0.0053
1798.00,0.0054
1797.00,0.0055
1796.00,0.0055
1795.00,0.0056
1794.00,0.0056
1793.00,0.0057
1792.00,0.0056
1791.00,0.0055
1790.00,0.0055
1789.00,0.0056
1788.00,0.0057
1787.00,0.0058
1786.00,0.0059
1785.00,0.0059
1784.00,0.0060
1783.00,0.0060
1782.00,0.0061
1781.00,0.0062
1780.00,0.0063
1779.00,0.0065
1778.00,0.0066
1777.00,0.0068
1776.00,0.0070
1775.00,0.0071
1774.00,0.0072
1773.00,0.0073
1772.00,0.0072
1771.00,0.0072
1770.00,0.0073
1769.00,0.0074
1768.00,0.0075
1767.00,0.0076
1766.00,0.0077
1765.00,0.0079
1764.00,0.0080
1763.00,0.0080
1762.00,0.0081
1761.00,0.0081
1760.00,0.0082
1759.00,0.0084
1758.00,0.0084
1757.00,0.0085
1756.00,0.0085
1755.00,0.0086
1754.00,0.0088
1753.00,0.0090
1752.00,0.0092
1751.00,0.0093
1750.00,0.0093
1749.00,0.0093
1748.00,0.0094
1747.00,0.0095
1746.00,0.0096
1745.00,0.0098
1744.00,0.0100
1743.00,0.0101
1742.00,0.0103
1741.00,0.0105
1740.00,0.0108
1739.00,0.0109
1738.00,0.0110
1737.00,0.0113
1736.00,0.0116
1735.00,0.0119
1734.00,0.0122
1733.00,0.0123
1732.00,0.0124
1731.00,0.0125
1730.00,0.0126
1729.00,0.0127
1728.00,0.0130
1727.00,0.0132
1726.00,0.0135
1725.00,0.0137
1724.00,0.0139
1723.00,0.0141
1722.00,0.0143
1721.00,0.0144
1720.00,0.0146
1719.00,0.0147
1718.00,0.0149
1717.00,0.0151
1716.00,0.0151
1715.00,0.0152
1714.00,0.0153
1713.00,0.0154
1712.00,0.0156
1711.00,0.0157
1710.00,0.0158
1709.00,0.0159
1708.00,0.0160
1707.00,0.0160
1706.00,0.0160
1705.00,0.0161
1704.00,0.0161
1703.00,0.0162
1702.00,0.0163
1701.00,0.0165
1700.00,0.0166
1699.00,0.0167
1698.00,0.0167
1697.00,0.0167
1696.00,0.0166
1695.00,0.0166
1694.00,0.0166
1693.00,0.0167
1692.00,0.0167
1691.00,0.0168
1690.00,0.0168
1689.00,0.0168
1688.00,0.0169
1687.00,0.0169
1686.00,0.0169
1685.00,0.0169
1684.00,0.0169
1683.00,0.0169
1682.00,0.0171
1681.00,0.0172
1680.00,0.0174
1679.00,0.0175
1678.00,0.0176
1677.00,0.0177
1676.00,0.0179
1675.00,0.0181
1674.00,0.0182
1673.00,0.0182
1672.00,0.0183
1671.00,0.0183
1670.00,0.0184
1669.00,0.0185
1668.00,0.0186
1667.00,0.0187
1666.00,0.0188
1665.00,0.0190
1664.00,0.0191
1663.00,0.0193
1662.00,0.0194
1661.00,0.0195
1660.00,0.0197
1659.00,0.0198
1658.00,0.0199
1657.00,0.0199
1656.00,0.0198
1655.00,0.0198
1654.00,0.0199
1653.00,0.0203
1652.00,0.0206
1651.00,0.0207
1650.00,0.0208
1649.00,0.0210
1648.00,0.0212
1647.00,0.0215
1646.00,0.0217
1645.00,0.0218
1644.00,0.0219
1643.00,0.0220
1642.00,0.0221
1641.00,0.0222
1640.00,0.0223
1639.00,0.0223
1638.00,0.0224
1637.00,0.0225
1636.00,0.0227
1635.00,0.0230
1634.00,0.0232
1633.00,0.0234
1632.00,0.0236
1631.00,0.0237
1630.00,0.0239
1629.00,0.0240
1628.00,0.0242
1627.00,0.0243
1626.00,0.0244
1625.00,0.0246
1624.00,0.0248
1623.00,0.0251
1622.00,0.0253
1621.00,0.0255
1620.00,0.0256
1619.00,0.0257
1618.00,0.0258
1617.00,0.0261
1616.00,0.0262
1615.00,0.0263
1614.00,0.0264
1613.00,0.0265
1612.00,0.0267
1611.00,0.0269
1610.00,0.0270
1609.00,0.0272
1608.00,0.0273
1607.00,0.0274
1606.00,0.0275
1605.00,0.0275
1604.00,0.0276
1603.00,0.0277
1602.00,0.0278
1601.00,0.0279
1600.00,0.0280
1599.00,0.0280
1598.00,0.0281
1597.00,0.0281
1596.00,0.0282
1595.00,0.0283
1594.00,0.0283
1593.00,0.0284
1592.00,0.0284
1591.00,0.0285
1590.00,0.0286
1589.00,0.0286
1588.00,0.0287
1587.00,0.0287
1586.00,0.0287
1585.00,0.0287
1584.00,0.0287
1583.00,0.0288
1582.00,0.0288
1581.00,0.0288
1580.00,0.0288
1579.00,0.0287
1578.00,0.0287
1577.00,0.0288
1576.00,0.0289
1575.00,0.0290
1574.00,0.0289
1573.00,0.0289
1572.00,0.0288
1571.00,0.0288
1570.00,0.0289
1569.00,0.0289
1568.00,0.0289
1567.00,0.0288
1566.00,0.0288
1565.00,0.0288
1564.00,0.0287
1563.00,0.0286
1562.00,0.0284
1561.00,0.0281
1560.00,0.0281
1559.00,0.0283
1558.00,0.0282
1557.00,0.0281
1556.00,0.0281
1555.00,0.0281
1554.00,0.0280
1553.00,0.0280
1552.00,0.0279
1551.00,0.0278
1550.00,0.0276
1549.00,0.0275
1548.00,0.0273
1547.00,0.0272
1546.00,0.0270
1545.00,0.0269
1544.00,0.0268
1543.00,0.0267
1542.00,0.0265
1541.00,0.0263
1540.00,0.0261
1539.00,0.0259
1538.00,0.0258
1537.00,0.0258
1536.00,0.0258
1535.00,0.0257
1534.00,0.0256
1533.00,0.0255
1532.00,0.0253
1531.00,0.0252
1530.00,0.0252
1529.00,0.0251
1528.00,0.0250
1527.00,0.0250
1526.00,0.0249
1525.00,0.0248
1524.00,0.0247
1523.00,0.0246
1522.00,0.0244
1521.00,0.0242
1520.00,0.0240
1519.00,0.0238
1518.00,0.0237
1517.00,0.0235
1516.00,0.0235
1515.00,0.0234
1514.00,0.0234
1513.00,0.0234
1512.00,0.0234
1511.00,0.0233
1510.00,0.0231
1509.00,0.0229
1508.00,0.0229
1507.00,0.0229
1506.00,0.0227
1505.00,0.0228
1504.00,0.0228
1503.00,0.0228
1502.00,0.0227
1501.00,0.0227
1500.00,0.0226
1499.00,0.0226
1498.00,0.0225
1497.00,0.0225
1496.00,0.0225
1495.00,0.0225
1494.00,0.0225
1493.00,0.0225
1492.00,0.0226
1491.00,0.0226
1490.00,0.0225
1489.00,0.0224
1488.00,0.0223
1487.00,0.0223
1486.00,0.0223
1485.00,0.0224
1484.00,0.0224
1483.00,0.0225
1482.00,0.0225
1481.00,0.0225
1480.00,0.0225
1479.00,0.0225
1478.00,0.0224
1477.00,0.0224
1476.00,0.0224
1475.00,0.0225
1474.00,0.0226
1473.00,0.0227
1472.00,0.0226
1471.00,0.0226
1470.00,0.0225
1469.00,0.0225
1468.00,0.0225
1467.00,0.0225
1466.00,0.0226
1465.00,0.0227
1464.00,0.0228
1463.00,0.0228
1462.00,0.0228
1461.00,0.0228
1460.00,0.0228
1459.00,0.0228
1458.00,0.0229
1457.00,0.0231
1456.00,0.0231
1455.00,0.0232
1454.00,0.0231
1453.00,0.0231
1452.00,0.0232
1451.00,0.0232
1450.00,0.0232
1449.00,0.0233
1448.00,0.0234
1447.00,0.0234
1446.00,0.0234
1445.00,0.0234
1444.00,0.0234
1443.00,0.0235
1442.00,0.0235
1441.00,0.0236
1440.00,0.0237
1439.00,0.0237
1438.00,0.0238
1437.00,0.0240
1436.00,0.0241
1435.00,0.0241
1434.00,0.0241
1433.00,0.0241
1432.00,0.0241
1431.00,0.0242
1430.00,0.0243
1429.00,0.0244
1428.00,0.0245
1427.00,0.0245
1426.00,0.0245
1425.00,0.0246
1424.00,0.0246
1423.00,0.0246
1422.00,0.0246
1421.00,0.0246
1420.00,0.0246
1419.00,0.0247
1418.00,0.0248
1417.00,0.0248
1416.00,0.0249
1415.00,0.0250
1414.00,0.0250
1413.00,0.0250
1412.00,0.0251
1411.00,0.0251
1410.00,0.0251
1409.00,0.0252
1408.00,0.0252
1407.00,0.0252
1406.00,0.0253
1405.00,0.0254
1404.00,0.0255
1403.00,0.0256
1402.00,0.0257
1401.00,0.0257
1400.00,0.0258
1399.00,0.0259
1398.00,0.0260
1397.00,0.0260
1396.00,0.0262
1395.00,0.0263
1394.00,0.0263
1393.00,0.0264
1392.00,0.0264
1391.00,0.0265
1390.00,0.0265
1389.00,0.0266
1388.00,0.0267
1387.00,0.0268
1386.00,0.0268
1385.00,0.0268
1384.00,0.0268
1383.00,0.0269
1382.00,0.0270
1381.00,0.0270
1380.00,0.0270
1379.00,0.0270
1378.00,0.0270
1377.00,0.0270
1376.00,0.0270
1375.00,0.0271
1374.00,0.0271
1373.00,0.0271
1372.00,0.0272
1371.00,0.0272
1370.00,0.0272
1369.00,0.0272
1368.00,0.0272
1367.00,0.0272
1366.00,0.0272
1365.00,0.0272
1364.00,0.0271
1363.00,0.0271
1362.00,0.0271
1361.00,0.0270
1360.00,0.0270
1359.00,0.0269
1358.00,0.0269
1357.00,0.0269
1356.00,0.0269
1355.00,0.0269
1354.00,0.0269
1353.00,0.0268
1352.00,0.0268
1351.00,0.0267
1350.00,0.0267
1349.00,0.0266
1348.00,0.0266
1347.00,0.0266
1346.00,0.0266
1345.00,0.0265
1344.00,0.0264
1343.00,0.0264
1342.00,0.0263
1341.00,0.0263
1340.00,0.0263
1339.00,0.0263
1338.00,0.0263
1337.00,0.0263
1336.00,0.0263
1335.00,0.0263
1334.00,0.0262
1333.00,0.0262
1332.00,0.0262
1331.00,0.0262
1330.00,0.0262
1329.00,0.0261
1328.00,0.0261
1327.00,0.0260
1326.00,0.0260
1325.00,0.0260
1324.00,0.0260
1323.00,0.0260
1322.00,0.0260
1321.00,0.0260
1320.00,0.0260
1319.00,0.0260
1318.00,0.0260
1317.00,0.0260
1316.00,0.0259
1315.00,0.0259
1314.00,0.0260
1313.00,0.0260
1312.00,0.0260
1311.00,0.0260
1310.00,0.0260
1309.00,0.0259
1308.00,0.0259
1307.00,0.0259
1306.00,0.0259
1305.00,0.0260
1304.00,0.0260
1303.00,0.0260
1302.00,0.0261
1301.00,0.0262
1300.00,0.0262
1299.00,0.0262
1298.00,0.0262
1297.00,0.0262
1296.00,0.0262
1295.00,0.0263
1294.00,0.0263
1293.00,0.0263
1292.00,0.0264
1291.00,0.0264
1290.00,0.0265
1289.00,0.0265
1288.00,0.0266
1287.00,0.0266
1286.00,0.0267
1285.00,0.0267
1284.00,0.0267
1283.00,0.0268
1282.00,0.0268
1281.00,0.0268
1280.00,0.0268
1279.00,0.0268
1278.00,0.0269
1277.00,0.0269
1276.00,0.0270
1275.00,0.0271
1274.00,0.0271
1273.00,0.0272
1272.00,0.0272
1271.00,0.0273
1270.00,0.0273
1269.00,0.0274
1268.00,0.0274
1267.00,0.0275
1266.00,0.0275
1265.00,0.0274
1264.00,0.0274
1263.00,0.0274
1262.00,0.0273
1261.00,0.0273
1260.00,0.0274
1259.00,0.0275
1258.00,0.0276
1257.00,0.0276
1256.00,0.0277
1255.00,0.0277
1254.00,0.0277
1253.00,0.0276
1252.00,0.0276
1251.00,0.0276
1250.00,0.0276
1249.00,0.0276
1248.00,0.0276
1247.00,0.0276
1246.00,0.0277
1245.00,0.0277
1244.00,0.0276
1243.00,0.0277
1242.00,0.0277
1241.00,0.0277
1240.00,0.0277
1239.00,0.0276
1238.00,0.0276
1237.00,0.0275
1236.00,0.0274
1235.00,0.0274
1234.00,0.0273
1233.00,0.0273
1232.00,0.0273
1231.00,0.0273
1230.00,0.0273
1229.00,0.0273
1228.00,0.0273
1227.00,0.0273
1226.00,0.0272
1225.00,0.0272
1224.00,0.0272
1223.00,0.0271
1222.00,0.0270
1221.00,0.0269
1220.00,0.0269
1219.00,0.0268
1218.00,0.0268
1217.00,0.0268
1216.00,0.0268
1215.00,0.0268
1214.00,0.0268
1213.00,0.0267
1212.00,0.0265
1211.00,0.0264
1210.00,0.0264
1209.00,0.0265
1208.00,0.0265
1207.00,0.0265
1206.00,0.0265
1205.00,0.0265
1204.00,0.0264
1203.00,0.0263
1202.00,0.0262
1201.00,0.0262
1200.00,0.0261
1199.00,0.0261
1198.00,0.0261
1197.00,0.0260
1196.00,0.0260
1195.00,0.0259
1194.00,0.0258
1193.00,0.0257
1192.00,0.0257
1191.00,0.0257
1190.00,0.0257
1189.00,0.0258
1188.00,0.0258
1187.00,0.0258
1186.00,0.0258
1185.00,0.0257
1184.00,0.0257
1183.00,0.0257
1182.00,0.0256
1181.00,0.0256
1180.00,0.0255
1179.00,0.0255
1178.00,0.0255
1177.00,0.0256
1176.00,0.0256
1175.00,0.0256
1174.00,0.0256
1173.00,0.0255
1172.00,0.0253
1171.00,0.0253
1170.00,0.0253
1169.00,0.0253
1168.00,0.0253
1167.00,0.0252
1166.00,0.0251
1165.00,0.0250
1164.00,0.0248
1163.00,0.0248
1162.00,0.0248
1161.00,0.0248
1160.00,0.0249
1159.00,0.0250
1158.00,0.0250
1157.00,0.0249
1156.00,0.0248
1155.00,0.0247
1154.00,0.0246
1153.00,0.0246
1152.00,0.0245
1151.00,0.0245
1150.00,0.0244
1149.00,0.0245
1148.00,0.0245
1147.00,0.0246
1146.00,0.0247
1145.00,0.0247
1144.00,0.0246
1143.00,0.0245
1142.00,0.0244
1141.00,0.0244
1140.00,0.0244
1139.00,0.0243
1138.00,0.0243
1137.00,0.0242
1136.00,0.0241
1135.00,0.0240
1134.00,0.0240
1133.00,0.0241
1132.00,0.0241
1131.00,0.0241
1130.00,0.0241
1129.00,0.0241
1128.00,0.0239
1127.00,0.0238
1126.00,0.0238
1125.00,0.0238
1124.00,0.0238
1123.00,0.0238
1122.00,0.0238
1121.00,0.0238
1120.00,0.0239
1119.00,0.0240
1118.00,0.0241
1117.00,0.0243
1116.00,0.0244
1115.00,0.0244
1114.00,0.0243
1113.00,0.0243
1112.00,0.0243
1111.00,0.0242
1110.00,0.0242
1109.00,0.0241
1108.00,0.0241
1107.00,0.0241
1106.00,0.0241
1105.00,0.0241
1104.00,0.0241
1103.00,0.0241
1102.00,0.0243
1101.00,0.0243
1100.00,0.0243
1099.00,0.0243
1098.00,0.0242
1097.00,0.0240
1096.00,0.0239
1095.00,0.0238
1094.00,0.0238
1093.00,0.0239
1092.00,0.0240
1091.00,0.0241
1090.00,0.0242
1089.00,0.0243
1088.00,0.0243
1087.00,0.0243
1086.00,0.0242
1085.00,0.0241
1084.00,0.0241
1083.00,0.0241
1082.00,0.0241
1081.00,0.0240
1080.00,0.0240
1079.00,0.0240
1078.00,0.0242
1077.00,0.0243
1076.00,0.0244
1075.00,0.0244
1074.00,0.0243
1073.00,0.0242
1072.00,0.0241
1071.00,0.0242
1070.00,0.0243
1069.00,0.0244
1068.00,0.0245
1067.00,0.0246
1066.00,0.0245
1065.00,0.0244
1064.00,0.0242
1063.00,0.0241
1062.00,0.0241
1061.00,0.0242
1060.00,0.0243
1059.00,0.0245
1058.00,0.0246
1057.00,0.0245
1056.00,0.0244
1055.00,0.0243
1054.00,0.0242
1053.00,0.0243
1052.00,0.0244
1051.00,0.0246
1050.00,0.0248
1049.00,0.0249
1048.00,0.0248
1047.00,0.0247
1046.00,0.0246
1045.00,0.0245
1044.00,0.0245
1043.00,0.0245
1042.00,0.0246
1041.00,0.0246
1040.00,0.0247
1039.00,0.0247
1038.00,0.0246
1037.00,0.0245
1036.00,0.0245
1035.00,0.0245
1034.00,0.0245
1033.00,0.0246
1032.00,0.0246
1031.00,0.0247
1030.00,0.0248
1029.00,0.0247
1028.00,0.0246
1027.00,0.0244
1026.00,0.0242
1025.00,0.0240
1024.00,0.0239
1023.00,0.0240
1022.00,0.0241
1021.00,0.0242
1020.00,0.0242
1019.00,0.0242
1018.00,0.0241
1017.00,0.0241
1016.00,0.0240
1015.00,0.0240
1014.00,0.0240
1013.00,0.0240
1012.00,0.0239
1011.00,0.0239
1010.00,0.0239
1009.00,0.0239
1008.00,0.0239
1007.00,0.0239
1006.00,0.0238
1005.00,0.0238
1004.00,0.0238
1003.00,0.0238
1002.00,0.0237
1001.00,0.0236
1000.00,0.0235
999.00,0.0235
998.00,0.0236
997.00,0.0236
996.00,0.0236
995.00,0.0235
994.00,0.0234
993.00,0.0233
992.00,0.0233
991.00,0.0233
990.00,0.0233
989.00,0.0232
988.00,0.0232
987.00,0.0232
986.00,0.0231
985.00,0.0230
984.00,0.0228
983.00,0.0227
982.00,0.0226
981.00,0.0227
980.00,0.0229
979.00,0.0231
978.00,0.0232
977.00,0.0232
976.00,0.0231
975.00,0.0230
974.00,0.0228
973.00,0.0228
972.00,0.0229
971.00,0.0230
970.00,0.0231
969.00,0.0232
968.00,0.0231
967.00,0.0231
966.00,0.0230
965.00,0.0230
964.00,0.0230
963.00,0.0230
962.00,0.0231
961.00,0.0233
960.00,0.0234
959.00,0.0235
958.00,0.0235
957.00,0.0233
956.00,0.0231
955.00,0.0229
954.00,0.0228
953.00,0.0229
952.00,0.0230
951.00,0.0231
950.00,0.0231
949.00,0.0231
948.00,0.0231
947.00,0.0231
946.00,0.0231
945.00,0.0231
944.00,0.0231
943.00,0.0231
942.00,0.0231
941.00,0.0231
940.00,0.0231
939.00,0.0232
938.00,0.0232
937.00,0.0233
936.00,0.0234
935.00,0.0236
934.00,0.0237
933.00,0.0239
932.00,0.0240
931.00,0.0239
930.00,0.0238
929.00,0.0236
928.00,0.0235
927.00,0.0235
926.00,0.0236
925.00,0.0238
924.00,0.0240
923.00,0.0240
922.00,0.0241
921.00,0.0240
920.00,0.0241
919.00,0.0241
918.00,0.0242
917.00,0.0244
916.00,0.0245
915.00,0.0244
914.00,0.0243
913.00,0.0242
912.00,0.0242
911.00,0.0241
910.00,0.0241
909.00,0.0241
908.00,0.0241
907.00,0.0243
906.00,0.0245
905.00,0.0247
904.00,0.0249
903.00,0.0249
902.00,0.0248
901.00,0.0247
900.00,0.0247
899.00,0.0247
898.00,0.0247
897.00,0.0248
896.00,0.0248
895.00,0.0249
894.00,0.0249
893.00,0.0249
892.00,0.0249
891.00,0.0248
890.00,0.0249
889.00,0.0250
888.00,0.0251
887.00,0.0251
886.00,0.0249
885.00,0.0246
884.00,0.0244
883.00,0.0243
882.00,0.0243
881.00,0.0244
880.00,0.0247
879.00,0.0249
878.00,0.0250
877.00,0.0249
876.00,0.0248
875.00,0.0246
874.00,0.0245
873.00,0.0246
872.00,0.0247
871.00,0.0248
870.00,0.0248
869.00,0.0248
868.00,0.0250
867.00,0.0250
866.00,0.0250
865.00,0.0249
864.00,0.0248
863.00,0.0249
862.00,0.0252
861.00,0.0256
860.00,0.0258
859.00,0.0257
858.00,0.0255
857.00,0.0253
856.00,0.0252
855.00,0.0252
854.00,0.0254
853.00,0.0256
852.00,0.0258
851.00,0.0259
850.00,0.0260
849.00,0.0260
848.00,0.0259
847.00,0.0258
846.00,0.0258
845.00,0.0258
844.00,0.0259
843.00,0.0259
842.00,0.0260
841.00,0.0262
840.00,0.0266
839.00,0.0268
838.00,0.0269
837.00,0.0268
836.00,0.0266
835.00,0.0266
834.00,0.0267
833.00,0.0269
832.00,0.0272
831.00,0.0273
830.00,0.0272
829.00,0.0271
828.00,0.0270
827.00,0.0273
826.00,0.0277
825.00,0.0280
824.00,0.0283
823.00,0.0284
822.00,0.0284
821.00,0.0283
820.00,0.0282
819.00,0.0281
818.00,0.0281
817.00,0.0282
816.00,0.0282
815.00,0.0282
814.00,0.0282
813.00,0.0281
812.00,0.0280
811.00,0.0278
810.00,0.0278
809.00,0.0280
808.00,0.0283
807.00,0.0287
806.00,0.0289
805.00,0.0288
804.00,0.0286
803.00,0.0285
802.00,0.0285
801.00,0.0286
800.00,0.0288
799.00,0.0288
798.00,0.0290
797.00,0.0292
796.00,0.0294
795.00,0.0295
794.00,0.0294
793.00,0.0293
792.00,0.0293
791.00,0.0294
790.00,0.0295
789.00,0.0295
788.00,0.0294
787.00,0.0292
786.00,0.0291
785.00,0.0291
784.00,0.0292
783.00,0.0294
782.00,0.0296
781.00,0.0299
780.00,0.0302
779.00,0.0304
778.00,0.0304
777.00,0.0303
776.00,0.0303
775.00,0.0303
774.00,0.0303
773.00,0.0305
772.00,0.0307
771.00,0.0307
770.00,0.0306
769.00,0.0304
768.00,0.0303
767.00,0.0304
766.00,0.0305
765.00,0.0306
764.00,0.0307
763.00,0.0309
762.00,0.0309
761.00,0.0310
760.00,0.0309
759.00,0.0307
758.00,0.0304
757.00,0.0305
756.00,0.0309
755.00,0.0312
754.00,0.0313
753.00,0.0311
752.00,0.0309
751.00,0.0307
750.00,0.0306
749.00,0.0306
748.00,0.0308
747.00,0.0311
746.00,0.0313
745.00,0.0314
744.00,0.0315
743.00,0.0317
742.00,0.0318
741.00,0.0319
740.00,0.0319
739.00,0.0318
738.00,0.0315
737.00,0.0314
736.00,0.0315
735.00,0.0316
734.00,0.0315
733.00,0.0314
732.00,0.0314
731.00,0.0316
730.00,0.0316
729.00,0.0316
728.00,0.0315
727.00,0.0315
726.00,0.0316
725.00,0.0317
724.00,0.0318
723.00,0.0318
722.00,0.0317
721.00,0.0317
720.00,0.0318
719.00,0.0321
718.00,0.0322
717.00,0.0322
716.00,0.0320
715.00,0.0320
714.00,0.0320
713.00,0.0320
712.00,0.0320
711.00,0.0320
710.00,0.0321
709.00,0.0324
708.00,0.0329
707.00,0.0335
706.00,0.0337
705.00,0.0335
704.00,0.0330
703.00,0.0328
702.00,0.0329
701.00,0.0332
700.00,0.0335
699.00,0.0337
698.00,0.0337
697.00,0.0335
696.00,0.0331
695.00,0.0329
694.00,0.0328
693.00,0.0327
692.00,0.0328
691.00,0.0330
690.00,0.0334
689.00,0.0337
688.00,0.0339
687.00,0.0340
686.00,0.0342
685.00,0.0345
684.00,0.0345
683.00,0.0345
682.00,0.0346
681.00,0.0353
680.00,0.0361
679.00,0.0365
678.00,0.0363
677.00,0.0357
676.00,0.0350
675.00,0.0348
674.00,0.0350
673.00,0.0356
672.00,0.0361
671.00,0.0361
670.00,0.0356
669.00,0.0346
668.00,0.0337
667.00,0.0336
666.00,0.0342
665.00,0.0347
664.00,0.0352
663.00,0.0357
662.00,0.0360
661.00,0.0362
660.00,0.0363
659.00,0.0359
658.00,0.0351
657.00,0.0340
656.00,0.0333
655.00,0.0334
654.00,0.0343
653.00,0.0355
652.00,0.0365
651.00,0.0368
650.00,0.0364
