Created as New Dataset,
cm-1,A
4000.00,0.0126
3999.00,0.0126
3998.00,0.0126
3997.00,0.0126
3996.00,0.0126
3995.00,0.0126
3994.00,0.0126
3993.00,0.0127
3992.00,0.0127
3991.00,0.0126
3990.00,0.0126
3989.00,0.0126
3988.00,0.0126
3987.00,0.0126
3986.00,0.0126
3985.00,0.0125
3984.00,0.0125
3983.00,0.0125
3982.00,0.0125
3981.00,0.0125
3980.00,0.0125
3979.00,0.0126
3978.00,0.0126
3977.00,0.0125
3976.00,0.0125
3975.00,0.0125
3974.00,0.0126
3973.00,0.0126
3972.00,0.0126
3971.00,0.0126
3970.00,0.0125
3969.00,0.0125
3968.00,0.0124
3967.00,0.0124
3966.00,0.0124
3965.00,0.0124
3964.00,0.0125
3963.00,0.0125
3962.00,0.0125
3961.00,0.0125
3960.00,0.0125
3959.00,0.0125
3958.00,0.0125
3957.00,0.0125
3956.00,0.0125
3955.00,0.0125
3954.00,0.0125
3953.00,0.0125
3952.00,0.0126
3951.00,0.0126
3950.00,0.0127
3949.00,0.0127
3948.00,0.0127
3947.00,0.0127
3946.00,0.0127
3945.00,0.0128
3944.00,0.0128
3943.00,0.0127
3942.00,0.0127
3941.00,0.0126
3940.00,0.0126
3939.00,0.0125
3938.00,0.0124
3937.00,0.0124
3936.00,0.0124
3935.00,0.0125
3934.00,0.0126
3933.00,0.0126
3932.00,0.0126
3931.00,0.0127
3930.00,0.0127
3929.00,0.0127
3928.00,0.0127
3927.00,0.0127
3926.00,0.0127
3925.00,0.0126
3924.00,0.0126
3923.00,0.0127
3922.00,0.0127
3921.00,0.0127
3920.00,0.0127
3919.00,0.0126
3918.00,0.0126
3917.00,0.0126
3916.00,0.0125
3915.00,0.0125
3914.00,0.0124
3913.00,0.0123
3912.00,0.0122
3911.00,0.0121
3910.00,0.0122
3909.00,0.0123
3908.00,0.0124
3907.00,0.0126
3906.00,0.0128
3905.00,0.0129
3904.00,0.0130
3903.00,0.0133
3902.00,0.0135
3901.00,0.0136
3900.00,0.0134
3899.00,0.0131
3898.00,0.0129
3897.00,0.0128
3896.00,0.0127
3895.00,0.0127
3894.00,0.0127
3893.00,0.0126
3892.00,0.0125
3891.00,0.0124
3890.00,0.0124
3889.00,0.0127
3888.00,0.0129
3887.00,0.0128
3886.00,0.0126
3885.00,0.0126
3884.00,0.0129
3883.00,0.0132
3882.00,0.0132
3881.00,0.0129
3880.00,0.0126
3879.00,0.0125
3878.00,0.0126
3877.00,0.0127
3876.00,0.0127
3875.00,0.0125
3874.00,0.0124
3873.00,0.0127
3872.00,0.0130
3871.00,0.0130
3870.00,0.0128
3869.00,0.0128
3868.00,0.0130
3867.00,0.0132
3866.00,0.0132
3865.00,0.0129
3864.00,0.0127
3863.00,0.0127
3862.00,0.0127
3861.00,0.0126
3860.00,0.0124
3859.00,0.0123
3858.00,0.0124
3857.00,0.0126
3856.00,0.0129
3855.00,0.0129
3854.00,0.0128
3853.00,0.0129
3852.00,0.0130
3851.00,0.0130
3850.00,0.0128
3849.00,0.0125
3848.00,0.0122
3847.00,0.0121
3846.00,0.0120
3845.00,0.0120
3844.00,0.0120
3843.00,0.0122
3842.00,0.0124
3841.00,0.0127
3840.00,0.0128
3839.00,0.0128
3838.00,0.0128
3837.00,0.0127
3836.00,0.0128
3835.00,0.0128
3834.00,0.0127
3833.00,0.0125
3832.00,0.0123
3831.00,0.0122
3830.00,0.0122
3829.00,0.0123
3828.00,0.0122
3827.00,0.0120
3826.00,0.0119
3825.00,0.0121
3824.00,0.0125
3823.00,0.0126
3822.00,0.0123
3821.00,0.0121
3820.00,0.0122
3819.00,0.0126
3818.00,0.0127
3817.00,0.0125
3816.00,0.0121
3815.00,0.0119
3814.00,0.0120
3813.00,0.0120
3812.00,0.0118
3811.00,0.0117
3810.00,0.0117
3809.00,0.0117
3808.00,0.0116
3807.00,0.0115
3806.00,0.0116
3805.00,0.0119
3804.00,0.0123
3803.00,0.0122
3802.00,0.0120
3801.00,0.0119
3800.00,0.0121
3799.00,0.0124
3798.00,0.0123
3797.00,0.0120
3796.00,0.0117
3795.00,0.0116
3794.00,0.0116
3793.00,0.0116
3792.00,0.0114
3791.00,0.0113
3790.00,0.0113
3789.00,0.0113
3788.00,0.0113
3787.00,0.0114
3786.00,0.0113
3785.00,0.0113
3784.00,0.0113
3783.00,0.0114
3782.00,0.0115
3781.00,0.0115
3780.00,0.0114
3779.00,0.0113
3778.00,0.0114
3777.00,0.0114
3776.00,0.0114
3775.00,0.0113
3774.00,0.0112
3773.00,0.0112
3772.00,0.0112
3771.00,0.0112
3770.00,0.0112
3769.00,0.0114
3768.00,0.0116
3767.00,0.0117
3766.00,0.0115
3765.00,0.0113
3764.00,0.0113
3763.00,0.0114
3762.00,0.0115
3761.00,0.0115
3760.00,0.0115
3759.00,0.0115
3758.00,0.0115
3757.00,0.0116
3756.00,0.0116
3755.00,0.0117
3754.00,0.0117
3753.00,0.0116
3752.00,0.0116
3751.00,0.0118
3750.00,0.0120
3749.00,0.0122
3748.00,0.0124
3747.00,0.0127
3746.00,0.0126
3745.00,0.0121
3744.00,0.0117
3743.00,0.0117
3742.00,0.0119
3741.00,0.0119
3740.00,0.0118
3739.00,0.0117
3738.00,0.0118
3737.00,0.0118
3736.00,0.0119
3735.00,0.0121
3734.00,0.0122
3733.00,0.0121
3732.00,0.0118
3731.00,0.0115
3730.00,0.0114
3729.00,0.0114
3728.00,0.0114
3727.00,0.0113
3726.00,0.0113
3725.00,0.0114
3724.00,0.0115
3723.00,0.0115
3722.00,0.0114
3721.00,0.0112
3720.00,0.0111
3719.00,0.0110
3718.00,0.0109
3717.00,0.0108
3716.00,0.0109
3715.00,0.0110
3714.00,0.0111
3713.00,0.0110
3712.00,0.0110
3711.00,0.0111
3710.00,0.0112
3709.00,0.0112
3708.00,0.0111
3707.00,0.0109
3706.00,0.0108
3705.00,0.0108
3704.00,0.0108
3703.00,0.0109
3702.00,0.0108
3701.00,0.0108
3700.00,0.0109
3699.00,0.0109
3698.00,0.0109
3697.00,0.0108
3696.00,0.0108
3695.00,0.0108
3694.00,0.0110
3693.00,0.0111
3692.00,0.0113
3691.00,0.0114
3690.00,0.0116
3689.00,0.0116
3688.00,0.0116
3687.00,0.0116
3686.00,0.0115
3685.00,0.0114
3684.00,0.0112
3683.00,0.0111
3682.00,0.0110
3681.00,0.0110
3680.00,0.0110
3679.00,0.0112
3678.00,0.0116
3677.00,0.0119
3676.00,0.0120
3675.00,0.0121
3674.00,0.0124
3673.00,0.0127
3672.00,0.0127
3671.00,0.0125
3670.00,0.0123
3669.00,0.0123
3668.00,0.0123
3667.00,0.0123
3666.00,0.0122
3665.00,0.0120
3664.00,0.0118
3663.00,0.0118
3662.00,0.0118
3661.00,0.0119
3660.00,0.0120
3659.00,0.0123
3658.00,0.0125
3657.00,0.0126
3656.00,0.0127
3655.00,0.0129
3654.00,0.0133
3653.00,0.0136
3652.00,0.0137
3651.00,0.0137
3650.00,0.0141
3649.00,0.0148
3648.00,0.0152
3647.00,0.0153
3646.00,0.0150
3645.00,0.0147
3644.00,0.0145
3643.00,0.0143
3642.00,0.0141
3641.00,0.0141
3640.00,0.0142
3639.00,0.0142
3638.00,0.0144
3637.00,0.0145
3636.00,0.0147
3635.00,0.0147
3634.00,0.0148
3633.00,0.0149
3632.00,0.0153
3631.00,0.0157
3630.00,0.0159
3629.00,0.0161
3628.00,0.0164
3627.00,0.0165
3626.00,0.0165
3625.00,0.0163
3624.00,0.0161
3623.00,0.0161
3622.00,0.0163
3621.00,0.0166
3620.00,0.0168
3619.00,0.0171
3618.00,0.0174
3617.00,0.0176
3616.00,0.0177
3615.00,0.0176
3614.00,0.0175
3613.00,0.0175
3612.00,0.0176
3611.00,0.0178
3610.00,0.0179
3609.00,0.0180
3608.00,0.0180
3607.00,0.0180
3606.00,0.0180
3605.00,0.0180
3604.00,0.0179
3603.00,0.0179
3602.00,0.0179
3601.00,0.0180
3600.00,0.0181
3599.00,0.0183
3598.00,0.0185
3597.00,0.0186
3596.00,0.0188
3595.00,0.0188
3594.00,0.0189
3593.00,0.0189
3592.00,0.0189
3591.00,0.0190
3590.00,0.0192
3589.00,0.0194
3588.00,0.0197
3587.00,0.0200
3586.00,0.0201
3585.00,0.0201
3584.00,0.0199
3583.00,0.0197
3582.00,0.0196
3581.00,0.0196
3580.00,0.0196
3579.00,0.0197
3578.00,0.0197
3577.00,0.0198
3576.00,0.0198
3575.00,0.0198
3574.00,0.0198
3573.00,0.0199
3572.00,0.0199
3571.00,0.0201
3570.00,0.0203
3569.00,0.0206
3568.00,0.0210
3567.00,0.0214
3566.00,0.0217
3565.00,0.0218
3564.00,0.0217
3563.00,0.0215
3562.00,0.0213
3561.00,0.0212
3560.00,0.0211
3559.00,0.0211
3558.00,0.0210
3557.00,0.0210
3556.00,0.0210
3555.00,0.0210
3554.00,0.0210
3553.00,0.0211
3552.00,0.0212
3551.00,0.0214
3550.00,0.0215
3549.00,0.0216
3548.00,0.0217
3547.00,0.0219
3546.00,0.0220
3545.00,0.0222
3544.00,0.0222
3543.00,0.0221
3542.00,0.0221
3541.00,0.0220
3540.00,0.0220
3539.00,0.0220
3538.00,0.0221
3537.00,0.0221
3536.00,0.0222
3535.00,0.0222
3534.00,0.0223
3533.00,0.0223
3532.00,0.0223
3531.00,0.0224
3530.00,0.0225
3529.00,0.0226
3528.00,0.0227
3527.00,0.0229
3526.00,0.0230
3525.00,0.0231
3524.00,0.0232
3523.00,0.0232
3522.00,0.0232
3521.00,0.0232
3520.00,0.0231
3519.00,0.0231
3518.00,0.0231
3517.00,0.0231
3516.00,0.0232
3515.00,0.0232
3514.00,0.0233
3513.00,0.0234
3512.00,0.0235
3511.00,0.0235
3510.00,0.0236
3509.00,0.0237
3508.00,0.0238
3507.00,0.0238
3506.00,0.0239
3505.00,0.0239
3504.00,0.0240
3503.00,0.0241
3502.00,0.0242
3501.00,0.0243
3500.00,0.0243
3499.00,0.0243
3498.00,0.0243
3497.00,0.0242
3496.00,0.0242
3495.00,0.0243
3494.00,0.0243
3493.00,0.0243
3492.00,0.0244
3491.00,0.0244
3490.00,0.0244
3489.00,0.0245
3488.00,0.0246
3487.00,0.0247
3486.00,0.0248
3485.00,0.0249
3484.00,0.0249
3483.00,0.0250
3482.00,0.0250
3481.00,0.0251
3480.00,0.0251
3479.00,0.0252
3478.00,0.0252
3477.00,0.0252
3476.00,0.0252
3475.00,0.0252
3474.00,0.0252
3473.00,0.0253
3472.00,0.0253
3471.00,0.0254
3470.00,0.0255
3469.00,0.0255
3468.00,0.0256
3467.00,0.0256
3466.00,0.0256
3465.00,0.0257
3464.00,0.0257
3463.00,0.0258
3462.00,0.0258
3461.00,0.0258
3460.00,0.0259
3459.00,0.0259
3458.00,0.0259
3457.00,0.0259
3456.00,0.0259
3455.00,0.0260
3454.00,0.0261
3453.00,0.0261
3452.00,0.0262
3451.00,0.0262
3450.00,0.0263
3449.00,0.0263
3448.00,0.0263
3447.00,0.0264
3446.00,0.0265
3445.00,0.0265
3444.00,0.0265
3443.00,0.0265
3442.00,0.0265
3441.00,0.0266
3440.00,0.0266
3439.00,0.0266
3438.00,0.0265
3437.00,0.0265
3436.00,0.0266
3435.00,0.0266
3434.00,0.0267
3433.00,0.0268
3432.00,0.0268
3431.00,0.0269
3430.00,0.0269
3429.00,0.0268
3428.00,0.0268
3427.00,0.0268
3426.00,0.0269
3425.00,0.0270
3424.00,0.0271
3423.00,0.0272
3422.00,0.0272
3421.00,0.0273
3420.00,0.0274
3419.00,0.0274
3418.00,0.0274
3417.00,0.0274
3416.00,0.0274
3415.00,0.0273
3414.00,0.0274
3413.00,0.0275
3412.00,0.0275
3411.00,0.0276
3410.00,0.0276
3409.00,0.0276
3408.00,0.0276
3407.00,0.0277
3406.00,0.0277
3405.00,0.0278
3404.00,0.0278
3403.00,0.0278
3402.00,0.0278
3401.00,0.0278
3400.00,0.0278
3399.00,0.0278
3398.00,0.0278
3397.00,0.0278
3396.00,0.0279
3395.00,0.0279
3394.00,0.0279
3393.00,0.0280
3392.00,0.0280
3391.00,0.0280
3390.00,0.0280
3389.00,0.0280
3388.00,0.0281
3387.00,0.0281
3386.00,0.0282
3385.00,0.0283
3384.00,0.0284
3383.00,0.0283
3382.00,0.0283
3381.00,0.0282
3380.00,0.0282
3379.00,0.0282
3378.00,0.0283
3377.00,0.0283
3376.00,0.0284
3375.00,0.0284
3374.00,0.0284
3373.00,0.0284
3372.00,0.0284
3371.00,0.0284
3370.00,0.0284
3369.00,0.0285
3368.00,0.0285
3367.00,0.0286
3366.00,0.0287
3365.00,0.0287
3364.00,0.0287
3363.00,0.0287
3362.00,0.0287
3361.00,0.0286
3360.00,0.0286
3359.00,0.0286
3358.00,0.0287
3357.00,0.0287
3356.00,0.0288
3355.00,0.0287
3354.00,0.0287
3353.00,0.0287
3352.00,0.0287
3351.00,0.0287
3350.00,0.0288
3349.00,0.0288
3348.00,0.0288
3347.00,0.0287
3346.00,0.0287
3345.00,0.0288
3344.00,0.0288
3343.00,0.0289
3342.00,0.0289
3341.00,0.0290
3340.00,0.0290
3339.00,0.0290
3338.00,0.0290
3337.00,0.0290
3336.00,0.0290
3335.00,0.0290
3334.00,0.0290
3333.00,0.0291
3332.00,0.0291
3331.00,0.0291
3330.00,0.0291
3329.00,0.0291
3328.00,0.0291
3327.00,0.0291
3326.00,0.0291
3325.00,0.0291
3324.00,0.0292
3323.00,0.0292
3322.00,0.0293
3321.00,0.0292
3320.00,0.0292
3319.00,0.0292
3318.00,0.0291
3317.00,0.0291
3316.00,0.0292
3315.00,0.0292
3314.00,0.0292
3313.00,0.0292
3312.00,0.0293
3311.00,0.0293
3310.00,0.0293
3309.00,0.0293
3308.00,0.0293
3307.00,0.0294
3306.00,0.0294
3305.00,0.0295
3304.00,0.0295
3303.00,0.0295
3302.00,0.0294
3301.00,0.0293
3300.00,0.0293
3299.00,0.0293
3298.00,0.0293
3297.00,0.0294
3296.00,0.0294
3295.00,0.0295
3294.00,0.0295
3293.00,0.0294
3292.00,0.0294
3291.00,0.0295
3290.00,0.0295
3289.00,0.0295
3288.00,0.0295
3287.00,0.0295
3286.00,0.0296
3285.00,0.0296
3284.00,0.0296
3283.00,0.0296
3282.00,0.0295
3281.00,0.0295
3280.00,0.0295
3279.00,0.0295
3278.00,0.0295
3277.00,0.0296
3276.00,0.0296
3275.00,0.0297
3274.00,0.0297
3273.00,0.0297
3272.00,0.0297
3271.00,0.0297
3270.00,0.0297
3269.00,0.0298
3268.00,0.0298
3267.00,0.0298
3266.00,0.0298
3265.00,0.0298
3264.00,0.0297
3263.00,0.0297
3262.00,0.0297
3261.00,0.0297
3260.00,0.0298
3259.00,0.0298
3258.00,0.0298
3257.00,0.0299
3256.00,0.0299
3255.00,0.0299
3254.00,0.0299
3253.00,0.0298
3252.00,0.0298
3251.00,0.0298
3250.00,0.0298
3249.00,0.0299
3248.00,0.0299
3247.00,0.0299
3246.00,0.0300
3245.00,0.0301
3244.00,0.0301
3243.00,0.0301
3242.00,0.0300
3241.00,0.0300
3240.00,0.0300
3239.00,0.0300
3238.00,0.0300
3237.00,0.0300
3236.00,0.0300
3235.00,0.0300
3234.00,0.0301
3233.00,0.0302
3232.00,0.0303
3231.00,0.0304
3230.00,0.0304
3229.00,0.0304
3228.00,0.0303
3227.00,0.0303
3226.00,0.0303
3225.00,0.0302
3224.00,0.0303
3223.00,0.0303
3222.00,0.0303
3221.00,0.0303
3220.00,0.0303
3219.00,0.0303
3218.00,0.0303
3217.00,0.0303
3216.00,0.0303
3215.00,0.0302
3214.00,0.0302
3213.00,0.0303
3212.00,0.0303
3211.00,0.0304
3210.00,0.0304
3209.00,0.0304
3208.00,0.0303
3207.00,0.0304
3206.00,0.0304
3205.00,0.0304
3204.00,0.0305
3203.00,0.0305
3202.00,0.0305
3201.00,0.0305
3200.00,0.0305
3199.00,0.0304
3198.00,0.0304
3197.00,0.0305
3196.00,0.0305
3195.00,0.0305
3194.00,0.0305
3193.00,0.0305
3192.00,0.0304
3191.00,0.0304
3190.00,0.0304
3189.00,0.0304
3188.00,0.0304
3187.00,0.0304
3186.00,0.0305
3185.00,0.0305
3184.00,0.0305
3183.00,0.0305
3182.00,0.0304
3181.00,0.0304
3180.00,0.0304
3179.00,0.0304
3178.00,0.0304
3177.00,0.0305
3176.00,0.0305
3175.00,0.0305
3174.00,0.0305
3173.00,0.0305
3172.00,0.0305
3171.00,0.0305
3170.00,0.0304
3169.00,0.0304
3168.00,0.0304
3167.00,0.0305
3166.00,0.0305
3165.00,0.0305
3164.00,0.0304
3163.00,0.0304
3162.00,0.0303
3161.00,0.0303
3160.00,0.0303
3159.00,0.0304
3158.00,0.0305
3157.00,0.0305
3156.00,0.0304
3155.00,0.0303
3154.00,0.0302
3153.00,0.0302
3152.00,0.0302
3151.00,0.0302
3150.00,0.0303
3149.00,0.0303
3148.00,0.0303
3147.00,0.0303
3146.00,0.0303
3145.00,0.0303
3144.00,0.0303
3143.00,0.0303
3142.00,0.0303
3141.00,0.0304
3140.00,0.0304
3139.00,0.0303
3138.00,0.0303
3137.00,0.0303
3136.00,0.0303
3135.00,0.0302
3134.00,0.0302
3133.00,0.0302
3132.00,0.0303
3131.00,0.0303
3130.00,0.0304
3129.00,0.0304
3128.00,0.0303
3127.00,0.0303
3126.00,0.0303
3125.00,0.0303
3124.00,0.0303
3123.00,0.0303
3122.00,0.0303
3121.00,0.0303
3120.00,0.0303
3119.00,0.0302
3118.00,0.0302
3117.00,0.0301
3116.00,0.0302
3115.00,0.0302
3114.00,0.0303
3113.00,0.0303
3112.00,0.0303
3111.00,0.0303
3110.00,0.0302
3109.00,0.0302
3108.00,0.0301
3107.00,0.0301
3106.00,0.0301
3105.00,0.0302
3104.00,0.0302
3103.00,0.0303
3102.00,0.0303
3101.00,0.0303
3100.00,0.0303
3099.00,0.0302
3098.00,0.0302
3097.00,0.0302
3096.00,0.0302
3095.00,0.0303
3094.00,0.0303
3093.00,0.0303
3092.00,0.0303
3091.00,0.0302
3090.00,0.0302
3089.00,0.0301
3088.00,0.0302
3087.00,0.0302
3086.00,0.0302
3085.00,0.0302
3084.00,0.0302
3083.00,0.0302
3082.00,0.0302
3081.00,0.0302
3080.00,0.0301
3079.00,0.0301
3078.00,0.0301
3077.00,0.0301
3076.00,0.0301
3075.00,0.0301
3074.00,0.0301
3073.00,0.0301
3072.00,0.0301
3071.00,0.0301
3070.00,0.0301
3069.00,0.0301
3068.00,0.0301
3067.00,0.0301
3066.00,0.0301
3065.00,0.0301
3064.00,0.0301
3063.00,0.0301
3062.00,0.0300
3061.00,0.0300
3060.00,0.0300
3059.00,0.0300
3058.00,0.0300
3057.00,0.0300
3056.00,0.0300
3055.00,0.0301
3054.00,0.0300
3053.00,0.0300
3052.00,0.0300
3051.00,0.0299
3050.00,0.0298
3049.00,0.0298
3048.00,0.0298
3047.00,0.0297
3046.00,0.0297
3045.00,0.0297
3044.00,0.0297
3043.00,0.0297
3042.00,0.0297
3041.00,0.0297
3040.00,0.0297
3039.00,0.0297
3038.00,0.0297
3037.00,0.0297
3036.00,0.0297
3035.00,0.0297
3034.00,0.0296
3033.00,0.0296
3032.00,0.0296
3031.00,0.0296
3030.00,0.0296
3029.00,0.0296
3028.00,0.0296
3027.00,0.0295
3026.00,0.0294
3025.00,0.0294
3024.00,0.0294
3023.00,0.0294
3022.00,0.0294
3021.00,0.0295
3020.00,0.0295
3019.00,0.0294
3018.00,0.0294
3017.00,0.0293
3016.00,0.0293
3015.00,0.0294
3014.00,0.0294
3013.00,0.0295
3012.00,0.0296
3011.00,0.0296
3010.00,0.0296
3009.00,0.0295
3008.00,0.0295
3007.00,0.0294
3006.00,0.0294
3005.00,0.0294
3004.00,0.0295
3003.00,0.0295
3002.00,0.0295
3001.00,0.0295
3000.00,0.0295
2999.00,0.0295
2998.00,0.0295
2997.00,0.0295
2996.00,0.0295
2995.00,0.0295
2994.00,0.0295
2993.00,0.0295
2992.00,0.0295
2991.00,0.0295
2990.00,0.0294
2989.00,0.0294
2988.00,0.0294
2987.00,0.0294
2986.00,0.0295
2985.00,0.0296
2984.00,0.0297
2983.00,0.0298
2982.00,0.0298
2981.00,0.0297
2980.00,0.0296
2979.00,0.0296
2978.00,0.0295
2977.00,0.0295
2976.00,0.0294
2975.00,0.0294
2974.00,0.0294
2973.00,0.0293
2972.00,0.0292
2971.00,0.0291
2970.00,0.0290
2969.00,0.0288
2968.00,0.0287
2967.00,0.0287
2966.00,0.0286
2965.00,0.0286
2964.00,0.0285
2963.00,0.0284
2962.00,0.0284
2961.00,0.0283
2960.00,0.0283
2959.00,0.0282
2958.00,0.0282
2957.00,0.0281
2956.00,0.0281
2955.00,0.0281
2954.00,0.0281
2953.00,0.0281
2952.00,0.0281
2951.00,0.0281
2950.00,0.0281
2949.00,0.0280
2948.00,0.0280
2947.00,0.0280
2946.00,0.0280
2945.00,0.0280
2944.00,0.0279
2943.00,0.0278
2942.00,0.0277
2941.00,0.0277
2940.00,0.0276
2939.00,0.0276
2938.00,0.0275
2937.00,0.0274
2936.00,0.0274
2935.00,0.0273
2934.00,0.0272
2933.00,0.0271
2932.00,0.0271
2931.00,0.0270
2930.00,0.0269
2929.00,0.0268
2928.00,0.0267
2927.00,0.0266
2926.00,0.0265
2925.00,0.0264
2924.00,0.0263
2923.00,0.0263
2922.00,0.0264
2921.00,0.0264
2920.00,0.0264
2919.00,0.0264
2918.00,0.0263
2917.00,0.0262
2916.00,0.0262
2915.00,0.0263
2914.00,0.0265
2913.00,0.0267
2912.00,0.0268
2911.00,0.0269
2910.00,0.0270
2909.00,0.0270
2908.00,0.0270
2907.00,0.0270
2906.00,0.0270
2905.00,0.0270
2904.00,0.0270
2903.00,0.0271
2902.00,0.0271
2901.00,0.0271
2900.00,0.0272
2899.00,0.0272
2898.00,0.0271
2897.00,0.0271
2896.00,0.0271
2895.00,0.0271
2894.00,0.0271
2893.00,0.0271
2892.00,0.0272
2891.00,0.0272
2890.00,0.0271
2889.00,0.0271
2888.00,0.0271
2887.00,0.0271
2886.00,0.0271
2885.00,0.0271
2884.00,0.0272
2883.00,0.0272
2882.00,0.0272
2881.00,0.0272
2880.00,0.0271
2879.00,0.0270
2878.00,0.0269
2877.00,0.0268
2876.00,0.0268
2875.00,0.0267
2874.00,0.0266
2873.00,0.0265
2872.00,0.0265
2871.00,0.0264
2870.00,0.0264
2869.00,0.0264
2868.00,0.0264
2867.00,0.0264
2866.00,0.0263
2865.00,0.0263
2864.00,0.0263
2863.00,0.0262
2862.00,0.0262
2861.00,0.0261
2860.00,0.0260
2859.00,0.0260
2858.00,0.0259
2857.00,0.0259
2856.00,0.0258
2855.00,0.0258
2854.00,0.0257
2853.00,0.0257
2852.00,0.0257
2851.00,0.0256
2850.00,0.0256
2849.00,0.0256
2848.00,0.0256
2847.00,0.0257
2846.00,0.0257
2845.00,0.0258
2844.00,0.0258
2843.00,0.0258
2842.00,0.0259
2841.00,0.0259
2840.00,0.0260
2839.00,0.0260
2838.00,0.0261
2837.00,0.0261
2836.00,0.0261
2835.00,0.0260
2834.00,0.0260
2833.00,0.0259
2832.00,0.0259
2831.00,0.0259
2830.00,0.0259
2829.00,0.0260
2828.00,0.0260
2827.00,0.0260
2826.00,0.0259
2825.00,0.0259
2824.00,0.0258
2823.00,0.0258
2822.00,0.0258
2821.00,0.0258
2820.00,0.0258
2819.00,0.0258
2818.00,0.0258
2817.00,0.0257
2816.00,0.0256
2815.00,0.0256
2814.00,0.0256
2813.00,0.0256
2812.00,0.0256
2811.00,0.0255
2810.00,0.0255
2809.00,0.0255
2808.00,0.0255
2807.00,0.0255
2806.00,0.0254
2805.00,0.0254
2804.00,0.0254
2803.00,0.0254
2802.00,0.0254
2801.00,0.0254
2800.00,0.0254
2799.00,0.0254
2798.00,0.0253
2797.00,0.0253
2796.00,0.0252
2795.00,0.0252
2794.00,0.0251
2793.00,0.0251
2792.00,0.0251
2791.00,0.0251
2790.00,0.0251
2789.00,0.0251
2788.00,0.0251
2787.00,0.0251
2786.00,0.0250
2785.00,0.0250
2784.00,0.0250
2783.00,0.0250
2782.00,0.0250
2781.00,0.0250
2780.00,0.0249
2779.00,0.0249
2778.00,0.0248
2777.00,0.0248
2776.00,0.0249
2775.00,0.0249
2774.00,0.0249
2773.00,0.0248
2772.00,0.0248
2771.00,0.0248
2770.00,0.0247
2769.00,0.0247
2768.00,0.0247
2767.00,0.0247
2766.00,0.0247
2765.00,0.0247
2764.00,0.0247
2763.00,0.0247
2762.00,0.0246
2761.00,0.0246
2760.00,0.0245
2759.00,0.0244
2758.00,0.0244
2757.00,0.0244
2756.00,0.0244
2755.00,0.0244
2754.00,0.0244
2753.00,0.0244
2752.00,0.0244
2751.00,0.0243
2750.00,0.0243
2749.00,0.0244
2748.00,0.0244
2747.00,0.0244
2746.00,0.0244
2745.00,0.0243
2744.00,0.0242
2743.00,0.0242
2742.00,0.0241
2741.00,0.0241
2740.00,0.0242
2739.00,0.0241
2738.00,0.0241
2737.00,0.0241
2736.00,0.0241
2735.00,0.0240
2734.00,0.0240
2733.00,0.0239
2732.00,0.0239
2731.00,0.0239
2730.00,0.0239
2729.00,0.0239
2728.00,0.0239
2727.00,0.0239
2726.00,0.0239
2725.00,0.0239
2724.00,0.0238
2723.00,0.0238
2722.00,0.0238
2721.00,0.0238
2720.00,0.0237
2719.00,0.0237
2718.00,0.0237
2717.00,0.0237
2716.00,0.0237
2715.00,0.0236
2714.00,0.0236
2713.00,0.0236
2712.00,0.0236
2711.00,0.0236
2710.00,0.0236
2709.00,0.0236
2708.00,0.0236
2707.00,0.0235
2706.00,0.0234
2705.00,0.0234
2704.00,0.0234
2703.00,0.0234
2702.00,0.0234
2701.00,0.0234
2700.00,0.0234
2699.00,0.0233
2698.00,0.0233
2697.00,0.0232
2696.00,0.0232
2695.00,0.0232
2694.00,0.0232
2693.00,0.0232
2692.00,0.0232
2691.00,0.0232
2690.00,0.0232
2689.00,0.0232
2688.00,0.0232
2687.00,0.0231
2686.00,0.0231
2685.00,0.0231
2684.00,0.0230
2683.00,0.0230
2682.00,0.0230
2681.00,0.0230
2680.00,0.0230
2679.00,0.0230
2678.00,0.0230
2677.00,0.0230
2676.00,0.0230
2675.00,0.0230
2674.00,0.0230
2673.00,0.0230
2672.00,0.0229
2671.00,0.0229
2670.00,0.0228
2669.00,0.0228
2668.00,0.0228
2667.00,0.0228
2666.00,0.0228
2665.00,0.0228
2664.00,0.0228
2663.00,0.0228
2662.00,0.0228
2661.00,0.0228
2660.00,0.0228
2659.00,0.0228
2658.00,0.0228
2657.00,0.0228
2656.00,0.0229
2655.00,0.0229
2654.00,0.0229
2653.00,0.0229
2652.00,0.0229
2651.00,0.0228
2650.00,0.0228
2649.00,0.0228
2648.00,0.0229
2647.00,0.0229
2646.00,0.0229
2645.00,0.0229
2644.00,0.0229
2643.00,0.0229
2642.00,0.0229
2641.00,0.0229
2640.00,0.0229
2639.00,0.0229
2638.00,0.0229
2637.00,0.0230
2636.00,0.0230
2635.00,0.0229
2634.00,0.0229
2633.00,0.0228
2632.00,0.0227
2631.00,0.0227
2630.00,0.0227
2629.00,0.0227
2628.00,0.0228
2627.00,0.0228
2626.00,0.0228
2625.00,0.0227
2624.00,0.0227
2623.00,0.0227
2622.00,0.0227
2621.00,0.0227
2620.00,0.0227
2619.00,0.0228
2618.00,0.0228
2617.00,0.0229
2616.00,0.0228
2615.00,0.0228
2614.00,0.0228
2613.00,0.0227
2612.00,0.0227
2611.00,0.0226
2610.00,0.0226
2609.00,0.0226
2608.00,0.0227
2607.00,0.0227
2606.00,0.0226
2605.00,0.0226
2604.00,0.0226
2603.00,0.0226
2602.00,0.0226
2601.00,0.0226
2600.00,0.0227
2599.00,0.0227
2598.00,0.0227
2597.00,0.0226
2596.00,0.0226
2595.00,0.0225
2594.00,0.0225
2593.00,0.0226
2592.00,0.0227
2591.00,0.0227
2590.00,0.0227
2589.00,0.0226
2588.00,0.0225
2587.00,0.0224
2586.00,0.0223
2585.00,0.0223
2584.00,0.0224
2583.00,0.0225
2582.00,0.0225
2581.00,0.0225
2580.00,0.0225
2579.00,0.0225
2578.00,0.0224
2577.00,0.0224
2576.00,0.0224
2575.00,0.0224
2574.00,0.0224
2573.00,0.0224
2572.00,0.0223
2571.00,0.0223
2570.00,0.0223
2569.00,0.0223
2568.00,0.0223
2567.00,0.0223
2566.00,0.0223
2565.00,0.0223
2564.00,0.0224
2563.00,0.0224
2562.00,0.0224
2561.00,0.0224
2560.00,0.0224
2559.00,0.0223
2558.00,0.0223
2557.00,0.0223
2556.00,0.0223
2555.00,0.0224
2554.00,0.0224
2553.00,0.0224
2552.00,0.0224
2551.00,0.0223
2550.00,0.0223
2549.00,0.0222
2548.00,0.0222
2547.00,0.0221
2546.00,0.0221
2545.00,0.0221
2544.00,0.0221
2543.00,0.0222
2542.00,0.0223
2541.00,0.0223
2540.00,0.0223
2539.00,0.0223
2538.00,0.0223
2537.00,0.0223
2536.00,0.0223
2535.00,0.0223
2534.00,0.0223
2533.00,0.0223
2532.00,0.0222
2531.00,0.0222
2530.00,0.0222
2529.00,0.0222
2528.00,0.0222
2527.00,0.0222
2526.00,0.0222
2525.00,0.0221
2524.00,0.0221
2523.00,0.0221
2522.00,0.0221
2521.00,0.0221
2520.00,0.0221
2519.00,0.0221
2518.00,0.0221
2517.00,0.0220
2516.00,0.0220
2515.00,0.0219
2514.00,0.0220
2513.00,0.0220
2512.00,0.0221
2511.00,0.0221
2510.00,0.0221
2509.00,0.0220
2508.00,0.0219
2507.00,0.0219
2506.00,0.0218
2505.00,0.0218
2504.00,0.0218
2503.00,0.0218
2502.00,0.0219
2501.00,0.0220
2500.00,0.0220
2499.00,0.0220
2498.00,0.0220
2497.00,0.0219
2496.00,0.0218
2495.00,0.0218
2494.00,0.0218
2493.00,0.0218
2492.00,0.0218
2491.00,0.0219
2490.00,0.0219
2489.00,0.0219
2488.00,0.0218
2487.00,0.0218
2486.00,0.0217
2485.00,0.0217
2484.00,0.0217
2483.00,0.0217
2482.00,0.0218
2481.00,0.0219
2480.00,0.0219
2479.00,0.0218
2478.00,0.0217
2477.00,0.0217
2476.00,0.0216
2475.00,0.0216
2474.00,0.0216
2473.00,0.0216
2472.00,0.0216
2471.00,0.0216
2470.00,0.0216
2469.00,0.0216
2468.00,0.0215
2467.00,0.0215
2466.00,0.0215
2465.00,0.0215
2464.00,0.0215
2463.00,0.0215
2462.00,0.0215
2461.00,0.0215
2460.00,0.0215
2459.00,0.0215
2458.00,0.0216
2457.00,0.0216
2456.00,0.0215
2455.00,0.0215
2454.00,0.0215
2453.00,0.0215
2452.00,0.0215
2451.00,0.0215
2450.00,0.0214
2449.00,0.0214
2448.00,0.0213
2447.00,0.0213
2446.00,0.0214
2445.00,0.0214
2444.00,0.0214
2443.00,0.0214
2442.00,0.0213
2441.00,0.0213
2440.00,0.0212
2439.00,0.0212
2438.00,0.0211
2437.00,0.0211
2436.00,0.0211
2435.00,0.0211
2434.00,0.0211
2433.00,0.0211
2432.00,0.0211
2431.00,0.0211
2430.00,0.0211
2429.00,0.0211
2428.00,0.0212
2427.00,0.0212
2426.00,0.0212
2425.00,0.0212
2424.00,0.0211
2423.00,0.0210
2422.00,0.0210
2421.00,0.0209
2420.00,0.0209
2419.00,0.0209
2418.00,0.0209
2417.00,0.0209
2416.00,0.0209
2415.00,0.0209
2414.00,0.0209
2413.00,0.0209
2412.00,0.0209
2411.00,0.0209
2410.00,0.0208
2409.00,0.0208
2408.00,0.0208
2407.00,0.0208
2406.00,0.0208
2405.00,0.0207
2404.00,0.0207
2403.00,0.0206
2402.00,0.0206
2401.00,0.0206
2400.00,0.0205
2399.00,0.0205
2398.00,0.0204
2397.00,0.0204
2396.00,0.0204
2395.00,0.0204
2394.00,0.0204
2393.00,0.0204
2392.00,0.0204
2391.00,0.0203
2390.00,0.0203
2389.00,0.0202
2388.00,0.0202
2387.00,0.0201
2386.00,0.0199
2385.00,0.0198
2384.00,0.0197
2383.00,0.0196
2382.00,0.0195
2381.00,0.0195
2380.00,0.0194
2379.00,0.0194
2378.00,0.0193
2377.00,0.0193
2376.00,0.0193
2375.00,0.0194
2374.00,0.0194
2373.00,0.0195
2372.00,0.0196
2371.00,0.0196
2370.00,0.0195
2369.00,0.0195
2368.00,0.0194
2367.00,0.0194
2366.00,0.0194
2365.00,0.0194
2364.00,0.0194
2363.00,0.0195
2362.00,0.0196
2361.00,0.0197
2360.00,0.0197
2359.00,0.0196
2358.00,0.0194
2357.00,0.0194
2356.00,0.0194
2355.00,0.0195
2354.00,0.0194
2353.00,0.0194
2352.00,0.0194
2351.00,0.0194
2350.00,0.0193
2349.00,0.0191
2348.00,0.0187
2347.00,0.0184
2346.00,0.0185
2345.00,0.0188
2344.00,0.0192
2343.00,0.0194
2342.00,0.0195
2341.00,0.0195
2340.00,0.0195
2339.00,0.0195
2338.00,0.0195
2337.00,0.0195
2336.00,0.0195
2335.00,0.0196
2334.00,0.0196
2333.00,0.0196
2332.00,0.0196
2331.00,0.0195
2330.00,0.0195
2329.00,0.0196
2328.00,0.0198
2327.00,0.0200
2326.00,0.0201
2325.00,0.0201
2324.00,0.0201
2323.00,0.0200
2322.00,0.0199
2321.00,0.0198
2320.00,0.0198
2319.00,0.0197
2318.00,0.0198
2317.00,0.0198
2316.00,0.0198
2315.00,0.0198
2314.00,0.0197
2313.00,0.0196
2312.00,0.0196
2311.00,0.0196
2310.00,0.0196
2309.00,0.0196
2308.00,0.0196
2307.00,0.0195
2306.00,0.0195
2305.00,0.0195
2304.00,0.0194
2303.00,0.0194
2302.00,0.0194
2301.00,0.0194
2300.00,0.0193
2299.00,0.0193
2298.00,0.0192
2297.00,0.0192
2296.00,0.0191
2295.00,0.0191
2294.00,0.0191
2293.00,0.0192
2292.00,0.0192
2291.00,0.0193
2290.00,0.0193
2289.00,0.0193
2288.00,0.0193
2287.00,0.0193
2286.00,0.0193
2285.00,0.0192
2284.00,0.0192
2283.00,0.0192
2282.00,0.0192
2281.00,0.0193
2280.00,0.0193
2279.00,0.0192
2278.00,0.0191
2277.00,0.0191
2276.00,0.0190
2275.00,0.0190
2274.00,0.0191
2273.00,0.0191
2272.00,0.0190
2271.00,0.0189
2270.00,0.0188
2269.00,0.0187
2268.00,0.0187
2267.00,0.0187
2266.00,0.0188
2265.00,0.0188
2264.00,0.0188
2263.00,0.0188
2262.00,0.0189
2261.00,0.0189
2260.00,0.0189
2259.00,0.0190
2258.00,0.0190
2257.00,0.0190
2256.00,0.0189
2255.00,0.0189
2254.00,0.0188
2253.00,0.0187
2252.00,0.0186
2251.00,0.0185
2250.00,0.0185
2249.00,0.0185
2248.00,0.0185
2247.00,0.0185
2246.00,0.0185
2245.00,0.0185
2244.00,0.0185
2243.00,0.0186
2242.00,0.0187
2241.00,0.0187
2240.00,0.0187
2239.00,0.0186
2238.00,0.0185
2237.00,0.0185
2236.00,0.0185
2235.00,0.0185
2234.00,0.0185
2233.00,0.0185
2232.00,0.0185
2231.00,0.0185
2230.00,0.0184
2229.00,0.0184
2228.00,0.0185
2227.00,0.0185
2226.00,0.0186
2225.00,0.0186
2224.00,0.0186
2223.00,0.0186
2222.00,0.0186
2221.00,0.0185
2220.00,0.0184
2219.00,0.0183
2218.00,0.0183
2217.00,0.0184
2216.00,0.0186
2215.00,0.0187
2214.00,0.0187
2213.00,0.0186
2212.00,0.0184
2211.00,0.0182
2210.00,0.0181
2209.00,0.0180
2208.00,0.0181
2207.00,0.0181
2206.00,0.0182
2205.00,0.0183
2204.00,0.0183
2203.00,0.0182
2202.00,0.0181
2201.00,0.0182
2200.00,0.0182
2199.00,0.0183
2198.00,0.0183
2197.00,0.0183
2196.00,0.0183
2195.00,0.0182
2194.00,0.0181
2193.00,0.0179
2192.00,0.0178
2191.00,0.0179
2190.00,0.0181
2189.00,0.0183
2188.00,0.0184
2187.00,0.0184
2186.00,0.0183
2185.00,0.0181
2184.00,0.0180
2183.00,0.0179
2182.00,0.0180
2181.00,0.0181
2180.00,0.0182
2179.00,0.0182
2178.00,0.0180
2177.00,0.0178
2176.00,0.0175
2175.00,0.0175
2174.00,0.0176
2173.00,0.0180
2172.00,0.0182
2171.00,0.0183
2170.00,0.0182
2169.00,0.0179
2168.00,0.0176
2167.00,0.0175
2166.00,0.0176
2165.00,0.0178
2164.00,0.0181
2163.00,0.0183
2162.00,0.0184
2161.00,0.0181
2160.00,0.0176
2159.00,0.0170
2158.00,0.0166
2157.00,0.0165
2156.00,0.0166
2155.00,0.0168
2154.00,0.0170
2153.00,0.0172
2152.00,0.0173
2151.00,0.0172
2150.00,0.0172
2149.00,0.0171
2148.00,0.0170
2147.00,0.0169
2146.00,0.0168
2145.00,0.0169
2144.00,0.0169
2143.00,0.0170
2142.00,0.0170
2141.00,0.0168
2140.00,0.0166
2139.00,0.0164
2138.00,0.0163
2137.00,0.0162
2136.00,0.0162
2135.00,0.0161
2134.00,0.0161
2133.00,0.0161
2132.00,0.0161
2131.00,0.0160
2130.00,0.0160
2129.00,0.0161
2128.00,0.0161
2127.00,0.0161
2126.00,0.0161
2125.00,0.0162
2124.00,0.0162
2123.00,0.0162
2122.00,0.0162
2121.00,0.0162
2120.00,0.0163
2119.00,0.0164
2118.00,0.0165
2117.00,0.0166
2116.00,0.0165
2115.00,0.0165
2114.00,0.0164
2113.00,0.0163
2112.00,0.0162
2111.00,0.0161
2110.00,0.0162
2109.00,0.0163
2108.00,0.0164
2107.00,0.0164
2106.00,0.0162
2105.00,0.0161
2104.00,0.0160
2103.00,0.0159
2102.00,0.0159
2101.00,0.0159
2100.00,0.0160
2099.00,0.0160
2098.00,0.0161
2097.00,0.0160
2096.00,0.0159
2095.00,0.0158
2094.00,0.0157
2093.00,0.0157
2092.00,0.0158
2091.00,0.0159
2090.00,0.0161
2089.00,0.0162
2088.00,0.0162
2087.00,0.0160
2086.00,0.0159
2085.00,0.0158
2084.00,0.0158
2083.00,0.0158
2082.00,0.0158
2081.00,0.0158
2080.00,0.0158
2079.00,0.0158
2078.00,0.0158
2077.00,0.0159
2076.00,0.0159
2075.00,0.0158
2074.00,0.0157
2073.00,0.0156
2072.00,0.0156
2071.00,0.0156
2070.00,0.0157
2069.00,0.0158
2068.00,0.0158
2067.00,0.0158
2066.00,0.0159
2065.00,0.0159
2064.00,0.0159
2063.00,0.0158
2062.00,0.0158
2061.00,0.0158
2060.00,0.0158
2059.00,0.0157
2058.00,0.0157
2057.00,0.0157
2056.00,0.0156
2055.00,0.0156
2054.00,0.0155
2053.00,0.0156
2052.00,0.0157
2051.00,0.0158
2050.00,0.0158
2049.00,0.0157
2048.00,0.0156
2047.00,0.0155
2046.00,0.0156
2045.00,0.0156
2044.00,0.0157
2043.00,0.0156
2042.00,0.0157
2041.00,0.0158
2040.00,0.0159
2039.00,0.0160
2038.00,0.0160
2037.00,0.0160
2036.00,0.0159
2035.00,0.0157
2034.00,0.0155
2033.00,0.0154
2032.00,0.0153
2031.00,0.0153
2030.00,0.0153
2029.00,0.0153
2028.00,0.0153
2027.00,0.0152
2026.00,0.0151
2025.00,0.0151
2024.00,0.0151
2023.00,0.0150
2022.00,0.0149
2021.00,0.0149
2020.00,0.0150
2019.00,0.0151
2018.00,0.0152
2017.00,0.0153
2016.00,0.0152
2015.00,0.0151
2014.00,0.0151
2013.00,0.0150
2012.00,0.0149
2011.00,0.0147
2010.00,0.0146
2009.00,0.0145
2008.00,0.0144
2007.00,0.0143
2006.00,0.0142
2005.00,0.0142
2004.00,0.0142
2003.00,0.0143
2002.00,0.0144
2001.00,0.0146
2000.00,0.0147
1999.00,0.0149
1998.00,0.0149
1997.00,0.0150
1996.00,0.0150
1995.00,0.0150
1994.00,0.0150
1993.00,0.0150
1992.00,0.0149
1991.00,0.0147
1990.00,0.0146
1989.00,0.0145
1988.00,0.0144
1987.00,0.0144
1986.00,0.0143
1985.00,0.0143
1984.00,0.0143
1983.00,0.0145
1982.00,0.0148
1981.00,0.0150
1980.00,0.0151
1979.00,0.0149
1978.00,0.0147
1977.00,0.0145
1976.00,0.0144
1975.00,0.0142
1974.00,0.0141
1973.00,0.0139
1972.00,0.0139
1971.00,0.0140
1970.00,0.0142
1969.00,0.0145
1968.00,0.0146
1967.00,0.0144
1966.00,0.0140
1965.00,0.0138
1964.00,0.0137
1963.00,0.0138
1962.00,0.0139
1961.00,0.0139
1960.00,0.0139
1959.00,0.0137
1958.00,0.0136
1957.00,0.0135
1956.00,0.0132
1955.00,0.0131
1954.00,0.0130
1953.00,0.0131
1952.00,0.0132
1951.00,0.0132
1950.00,0.0132
1949.00,0.0131
1948.00,0.0130
1947.00,0.0130
1946.00,0.0131
1945.00,0.0132
1944.00,0.0133
1943.00,0.0132
1942.00,0.0130
1941.00,0.0129
1940.00,0.0129
1939.00,0.0129
1938.00,0.0129
1937.00,0.0129
1936.00,0.0128
1935.00,0.0127
1934.00,0.0127
1933.00,0.0126
1932.00,0.0126
1931.00,0.0126
1930.00,0.0126
1929.00,0.0126
1928.00,0.0125
1927.00,0.0125
1926.00,0.0125
1925.00,0.0127
1924.00,0.0128
1923.00,0.0127
1922.00,0.0126
1921.00,0.0125
1920.00,0.0125
1919.00,0.0124
1918.00,0.0123
1917.00,0.0122
1916.00,0.0121
1915.00,0.0122
1914.00,0.0122
1913.00,0.0121
1912.00,0.0121
1911.00,0.0121
1910.00,0.0120
1909.00,0.0120
1908.00,0.0119
1907.00,0.0118
1906.00,0.0118
1905.00,0.0117
1904.00,0.0117
1903.00,0.0116
1902.00,0.0116
1901.00,0.0115
1900.00,0.0115
1899.00,0.0114
1898.00,0.0114
1897.00,0.0115
1896.00,0.0115
1895.00,0.0114
1894.00,0.0113
1893.00,0.0113
1892.00,0.0114
1891.00,0.0113
1890.00,0.0112
1889.00,0.0111
1888.00,0.0110
1887.00,0.0110
1886.00,0.0110
1885.00,0.0109
1884.00,0.0109
1883.00,0.0108
1882.00,0.0108
1881.00,0.0108
1880.00,0.0109
1879.00,0.0108
1878.00,0.0108
1877.00,0.0107
1876.00,0.0106
1875.00,0.0105
1874.00,0.0105
1873.00,0.0107
1872.00,0.0109
1871.00,0.0110
1870.00,0.0109
1869.00,0.0106
1868.00,0.0103
1867.00,0.0102
1866.00,0.0102
1865.00,0.0103
1864.00,0.0103
1863.00,0.0102
1862.00,0.0102
1861.00,0.0101
1860.00,0.0101
1859.00,0.0100
1858.00,0.0100
1857.00,0.0099
1856.00,0.0099
1855.00,0.0099
1854.00,0.0099
1853.00,0.0098
1852.00,0.0098
1851.00,0.0098
1850.00,0.0097
1849.00,0.0097
1848.00,0.0098
1847.00,0.0099
1846.00,0.0099
1845.00,0.0097
1844.00,0.0093
1843.00,0.0091
1842.00,0.0091
1841.00,0.0093
1840.00,0.0094
1839.00,0.0094
1838.00,0.0093
1837.00,0.0092
1836.00,0.0092
1835.00,0.0092
1834.00,0.0093
1833.00,0.0095
1832.00,0.0096
1831.00,0.0096
1830.00,0.0094
1829.00,0.0092
1828.00,0.0092
1827.00,0.0093
1826.00,0.0093
1825.00,0.0091
1824.00,0.0089
1823.00,0.0088
1822.00,0.0088
1821.00,0.0088
1820.00,0.0088
1819.00,0.0088
1818.00,0.0087
1817.00,0.0087
1816.00,0.0087
1815.00,0.0087
1814.00,0.0088
1813.00,0.0088
1812.00,0.0088
1811.00,0.0087
1810.00,0.0086
1809.00,0.0086
1808.00,0.0087
1807.00,0.0087
1806.00,0.0088
1805.00,0.0090
1804.00,0.0091
1803.00,0.0093
1802.00,0.0093
1801.00,0.0093
1800.00,0.0092
1799.00,0.0092
1798.00,0.0092
1797.00,0.0093
1796.00,0.0096
1795.00,0.0098
1794.00,0.0099
1793.00,0.0098
1792.00,0.0097
1791.00,0.0096
1790.00,0.0097
1789.00,0.0099
1788.00,0.0101
1787.00,0.0102
1786.00,0.0102
1785.00,0.0103
1784.00,0.0105
1783.00,0.0108
1782.00,0.0110
1781.00,0.0112
1780.00,0.0113
1779.00,0.0114
1778.00,0.0115
1777.00,0.0118
1776.00,0.0121
1775.00,0.0124
1774.00,0.0127
1773.00,0.0127
1772.00,0.0126
1771.00,0.0126
1770.00,0.0127
1769.00,0.0129
1768.00,0.0130
1767.00,0.0131
1766.00,0.0133
1765.00,0.0136
1764.00,0.0140
1763.00,0.0142
1762.00,0.0142
1761.00,0.0142
1760.00,0.0144
1759.00,0.0146
1758.00,0.0148
1757.00,0.0148
1756.00,0.0149
1755.00,0.0150
1754.00,0.0153
1753.00,0.0156
1752.00,0.0158
1751.00,0.0160
1750.00,0.0162
1749.00,0.0164
1748.00,0.0167
1747.00,0.0169
1746.00,0.0171
1745.00,0.0173
1744.00,0.0176
1743.00,0.0178
1742.00,0.0181
1741.00,0.0182
1740.00,0.0183
1739.00,0.0184
1738.00,0.0187
1737.00,0.0191
1736.00,0.0196
1735.00,0.0197
1734.00,0.0198
1733.00,0.0201
1732.00,0.0205
1731.00,0.0210
1730.00,0.0213
1729.00,0.0215
1728.00,0.0217
1727.00,0.0219
1726.00,0.0222
1725.00,0.0225
1724.00,0.0228
1723.00,0.0231
1722.00,0.0234
1721.00,0.0237
1720.00,0.0240
1719.00,0.0241
1718.00,0.0241
1717.00,0.0244
1716.00,0.0247
1715.00,0.0250
1714.00,0.0251
1713.00,0.0252
1712.00,0.0253
1711.00,0.0254
1710.00,0.0255
1709.00,0.0257
1708.00,0.0259
1707.00,0.0261
1706.00,0.0262
1705.00,0.0264
1704.00,0.0265
1703.00,0.0267
1702.00,0.0268
1701.00,0.0266
1700.00,0.0263
1699.00,0.0262
1698.00,0.0265
1697.00,0.0268
1696.00,0.0268
1695.00,0.0265
1694.00,0.0264
1693.00,0.0265
1692.00,0.0268
1691.00,0.0268
1690.00,0.0269
1689.00,0.0270
1688.00,0.0272
1687.00,0.0274
1686.00,0.0275
1685.00,0.0274
1684.00,0.0275
1683.00,0.0276
1682.00,0.0277
1681.00,0.0279
1680.00,0.0280
1679.00,0.0280
1678.00,0.0282
1677.00,0.0283
1676.00,0.0284
1675.00,0.0284
1674.00,0.0286
1673.00,0.0289
1672.00,0.0292
1671.00,0.0295
1670.00,0.0297
1669.00,0.0299
1668.00,0.0300
1667.00,0.0301
1666.00,0.0302
1665.00,0.0304
1664.00,0.0305
1663.00,0.0307
1662.00,0.0310
1661.00,0.0312
1660.00,0.0314
1659.00,0.0315
1658.00,0.0317
1657.00,0.0318
1656.00,0.0321
1655.00,0.0324
1654.00,0.0326
1653.00,0.0331
1652.00,0.0334
1651.00,0.0336
1650.00,0.0341
1649.00,0.0346
1648.00,0.0349
1647.00,0.0352
1646.00,0.0354
1645.00,0.0356
1644.00,0.0358
1643.00,0.0361
1642.00,0.0364
1641.00,0.0367
1640.00,0.0370
1639.00,0.0372
1638.00,0.0375
1637.00,0.0379
1636.00,0.0385
1635.00,0.0390
1634.00,0.0393
1633.00,0.0394
1632.00,0.0397
1631.00,0.0399
1630.00,0.0403
1629.00,0.0407
1628.00,0.0411
1627.00,0.0415
1626.00,0.0418
1625.00,0.0421
1624.00,0.0425
1623.00,0.0429
1622.00,0.0432
1621.00,0.0433
1620.00,0.0434
1619.00,0.0435
1618.00,0.0437
1617.00,0.0441
1616.00,0.0446
1615.00,0.0450
1614.00,0.0453
1613.00,0.0455
1612.00,0.0457
1611.00,0.0459
1610.00,0.0462
1609.00,0.0465
1608.00,0.0468
1607.00,0.0471
1606.00,0.0473
1605.00,0.0474
1604.00,0.0476
1603.00,0.0479
1602.00,0.0482
1601.00,0.0484
1600.00,0.0486
1599.00,0.0487
1598.00,0.0489
1597.00,0.0491
1596.00,0.0493
1595.00,0.0496
1594.00,0.0498
1593.00,0.0499
1592.00,0.0500
1591.00,0.0501
1590.00,0.0503
1589.00,0.0505
1588.00,0.0506
1587.00,0.0507
1586.00,0.0509
1585.00,0.0509
1584.00,0.0510
1583.00,0.0511
1582.00,0.0512
1581.00,0.0513
1580.00,0.0514
1579.00,0.0515
1578.00,0.0516
1577.00,0.0517
1576.00,0.0520
1575.00,0.0522
1574.00,0.0522
1573.00,0.0522
1572.00,0.0521
1571.00,0.0521
1570.00,0.0522
1569.00,0.0524
1568.00,0.0525
1567.00,0.0524
1566.00,0.0524
1565.00,0.0523
1564.00,0.0522
1563.00,0.0520
1562.00,0.0519
1561.00,0.0516
1560.00,0.0515
1559.00,0.0525
1558.00,0.0530
1557.00,0.0525
1556.00,0.0521
1555.00,0.0517
1554.00,0.0514
1553.00,0.0512
1552.00,0.0510
1551.00,0.0510
1550.00,0.0509
1549.00,0.0506
1548.00,0.0503
1547.00,0.0499
1546.00,0.0496
1545.00,0.0495
1544.00,0.0494
1543.00,0.0493
1542.00,0.0490
1541.00,0.0487
1540.00,0.0487
1539.00,0.0485
1538.00,0.0480
1537.00,0.0476
1536.00,0.0474
1535.00,0.0473
1534.00,0.0472
1533.00,0.0472
1532.00,0.0470
1531.00,0.0466
1530.00,0.0463
1529.00,0.0460
1528.00,0.0457
1527.00,0.0455
1526.00,0.0452
1525.00,0.0450
1524.00,0.0447
1523.00,0.0444
1522.00,0.0442
1521.00,0.0440
1520.00,0.0440
1519.00,0.0439
1518.00,0.0438
1517.00,0.0436
1516.00,0.0433
1515.00,0.0429
1514.00,0.0425
1513.00,0.0422
1512.00,0.0421
1511.00,0.0420
1510.00,0.0420
1509.00,0.0420
1508.00,0.0421
1507.00,0.0420
1506.00,0.0416
1505.00,0.0410
1504.00,0.0406
1503.00,0.0404
1502.00,0.0402
1501.00,0.0400
1500.00,0.0398
1499.00,0.0396
1498.00,0.0394
1497.00,0.0394
1496.00,0.0396
1495.00,0.0397
1494.00,0.0397
1493.00,0.0398
1492.00,0.0399
1491.00,0.0400
1490.00,0.0403
1489.00,0.0405
1488.00,0.0406
1487.00,0.0404
1486.00,0.0402
1485.00,0.0400
1484.00,0.0399
1483.00,0.0399
1482.00,0.0399
1481.00,0.0400
1480.00,0.0400
1479.00,0.0401
1478.00,0.0402
1477.00,0.0403
1476.00,0.0405
1475.00,0.0406
1474.00,0.0406
1473.00,0.0407
1472.00,0.0409
1471.00,0.0409
1470.00,0.0408
1469.00,0.0408
1468.00,0.0409
1467.00,0.0410
1466.00,0.0411
1465.00,0.0412
1464.00,0.0413
1463.00,0.0414
1462.00,0.0414
1461.00,0.0414
1460.00,0.0415
1459.00,0.0416
1458.00,0.0418
1457.00,0.0420
1456.00,0.0422
1455.00,0.0423
1454.00,0.0424
1453.00,0.0425
1452.00,0.0427
1451.00,0.0428
1450.00,0.0430
1449.00,0.0432
1448.00,0.0435
1447.00,0.0437
1446.00,0.0437
1445.00,0.0437
1444.00,0.0438
1443.00,0.0439
1442.00,0.0440
1441.00,0.0440
1440.00,0.0441
1439.00,0.0442
1438.00,0.0443
1437.00,0.0446
1436.00,0.0449
1435.00,0.0452
1434.00,0.0453
1433.00,0.0453
1432.00,0.0455
1431.00,0.0456
1430.00,0.0458
1429.00,0.0459
1428.00,0.0459
1427.00,0.0459
1426.00,0.0460
1425.00,0.0461
1424.00,0.0463
1423.00,0.0465
1422.00,0.0466
1421.00,0.0465
1420.00,0.0467
1419.00,0.0470
1418.00,0.0473
1417.00,0.0474
1416.00,0.0474
1415.00,0.0474
1414.00,0.0474
1413.00,0.0474
1412.00,0.0475
1411.00,0.0476
1410.00,0.0477
1409.00,0.0477
1408.00,0.0478
1407.00,0.0479
1406.00,0.0481
1405.00,0.0484
1404.00,0.0486
1403.00,0.0487
1402.00,0.0488
1401.00,0.0488
1400.00,0.0489
1399.00,0.0491
1398.00,0.0494
1397.00,0.0495
1396.00,0.0498
1395.00,0.0500
1394.00,0.0501
1393.00,0.0501
1392.00,0.0500
1391.00,0.0500
1390.00,0.0500
1389.00,0.0501
1388.00,0.0503
1387.00,0.0506
1386.00,0.0508
1385.00,0.0509
1384.00,0.0509
1383.00,0.0509
1382.00,0.0509
1381.00,0.0510
1380.00,0.0511
1379.00,0.0511
1378.00,0.0512
1377.00,0.0513
1376.00,0.0514
1375.00,0.0517
1374.00,0.0518
1373.00,0.0518
1372.00,0.0517
1371.00,0.0516
1370.00,0.0515
1369.00,0.0516
1368.00,0.0517
1367.00,0.0516
1366.00,0.0516
1365.00,0.0516
1364.00,0.0517
1363.00,0.0518
1362.00,0.0519
1361.00,0.0519
1360.00,0.0518
1359.00,0.0518
1358.00,0.0517
1357.00,0.0516
1356.00,0.0515
1355.00,0.0514
1354.00,0.0514
1353.00,0.0513
1352.00,0.0512
1351.00,0.0511
1350.00,0.0510
1349.00,0.0510
1348.00,0.0509
1347.00,0.0508
1346.00,0.0507
1345.00,0.0507
1344.00,0.0506
1343.00,0.0505
1342.00,0.0505
1341.00,0.0506
1340.00,0.0507
1339.00,0.0507
1338.00,0.0507
1337.00,0.0505
1336.00,0.0503
1335.00,0.0502
1334.00,0.0500
1333.00,0.0499
1332.00,0.0498
1331.00,0.0498
1330.00,0.0497
1329.00,0.0497
1328.00,0.0496
1327.00,0.0495
1326.00,0.0495
1325.00,0.0495
1324.00,0.0494
1323.00,0.0494
1322.00,0.0493
1321.00,0.0492
1320.00,0.0492
1319.00,0.0492
1318.00,0.0491
1317.00,0.0491
1316.00,0.0491
1315.00,0.0491
1314.00,0.0491
1313.00,0.0491
1312.00,0.0491
1311.00,0.0490
1310.00,0.0489
1309.00,0.0489
1308.00,0.0489
1307.00,0.0489
1306.00,0.0488
1305.00,0.0488
1304.00,0.0488
1303.00,0.0489
1302.00,0.0489
1301.00,0.0489
1300.00,0.0489
1299.00,0.0490
1298.00,0.0490
1297.00,0.0490
1296.00,0.0490
1295.00,0.0490
1294.00,0.0490
1293.00,0.0491
1292.00,0.0491
1291.00,0.0491
1290.00,0.0492
1289.00,0.0493
1288.00,0.0494
1287.00,0.0495
1286.00,0.0495
1285.00,0.0495
1284.00,0.0494
1283.00,0.0494
1282.00,0.0494
1281.00,0.0495
1280.00,0.0496
1279.00,0.0497
1278.00,0.0498
1277.00,0.0499
1276.00,0.0499
1275.00,0.0499
1274.00,0.0499
1273.00,0.0499
1272.00,0.0499
1271.00,0.0500
1270.00,0.0500
1269.00,0.0500
1268.00,0.0501
1267.00,0.0501
1266.00,0.0500
1265.00,0.0499
1264.00,0.0498
1263.00,0.0497
1262.00,0.0497
1261.00,0.0498
1260.00,0.0499
1259.00,0.0500
1258.00,0.0501
1257.00,0.0501
1256.00,0.0501
1255.00,0.0501
1254.00,0.0501
1253.00,0.0502
1252.00,0.0503
1251.00,0.0504
1250.00,0.0504
1249.00,0.0504
1248.00,0.0504
1247.00,0.0504
1246.00,0.0503
1245.00,0.0503
1244.00,0.0503
1243.00,0.0503
1242.00,0.0503
1241.00,0.0503
1240.00,0.0503
1239.00,0.0503
1238.00,0.0502
1237.00,0.0501
1236.00,0.0501
1235.00,0.0500
1234.00,0.0499
1233.00,0.0498
1232.00,0.0497
1231.00,0.0497
1230.00,0.0497
1229.00,0.0497
1228.00,0.0496
1227.00,0.0495
1226.00,0.0494
1225.00,0.0494
1224.00,0.0493
1223.00,0.0493
1222.00,0.0492
1221.00,0.0492
1220.00,0.0491
1219.00,0.0490
1218.00,0.0489
1217.00,0.0488
1216.00,0.0487
1215.00,0.0487
1214.00,0.0486
1213.00,0.0485
1212.00,0.0484
1211.00,0.0483
1210.00,0.0482
1209.00,0.0481
1208.00,0.0480
1207.00,0.0480
1206.00,0.0479
1205.00,0.0479
1204.00,0.0479
1203.00,0.0478
1202.00,0.0477
1201.00,0.0476
1200.00,0.0475
1199.00,0.0474
1198.00,0.0473
1197.00,0.0472
1196.00,0.0471
1195.00,0.0471
1194.00,0.0470
1193.00,0.0470
1192.00,0.0470
1191.00,0.0470
1190.00,0.0469
1189.00,0.0469
1188.00,0.0469
1187.00,0.0468
1186.00,0.0468
1185.00,0.0468
1184.00,0.0468
1183.00,0.0467
1182.00,0.0465
1181.00,0.0464
1180.00,0.0464
1179.00,0.0464
1178.00,0.0465
1177.00,0.0465
1176.00,0.0464
1175.00,0.0464
1174.00,0.0463
1173.00,0.0461
1172.00,0.0460
1171.00,0.0458
1170.00,0.0457
1169.00,0.0457
1168.00,0.0458
1167.00,0.0458
1166.00,0.0458
1165.00,0.0457
1164.00,0.0457
1163.00,0.0456
1162.00,0.0454
1161.00,0.0454
1160.00,0.0453
1159.00,0.0454
1158.00,0.0454
1157.00,0.0453
1156.00,0.0452
1155.00,0.0450
1154.00,0.0449
1153.00,0.0448
1152.00,0.0447
1151.00,0.0447
1150.00,0.0447
1149.00,0.0447
1148.00,0.0448
1147.00,0.0448
1146.00,0.0448
1145.00,0.0446
1144.00,0.0444
1143.00,0.0442
1142.00,0.0440
1141.00,0.0439
1140.00,0.0439
1139.00,0.0439
1138.00,0.0439
1137.00,0.0439
1136.00,0.0438
1135.00,0.0437
1134.00,0.0437
1133.00,0.0436
1132.00,0.0436
1131.00,0.0436
1130.00,0.0435
1129.00,0.0435
1128.00,0.0433
1127.00,0.0432
1126.00,0.0431
1125.00,0.0430
1124.00,0.0430
1123.00,0.0429
1122.00,0.0429
1121.00,0.0428
1120.00,0.0428
1119.00,0.0428
1118.00,0.0428
1117.00,0.0428
1116.00,0.0427
1115.00,0.0427
1114.00,0.0426
1113.00,0.0425
1112.00,0.0424
1111.00,0.0423
1110.00,0.0423
1109.00,0.0423
1108.00,0.0423
1107.00,0.0424
1106.00,0.0424
1105.00,0.0424
1104.00,0.0424
1103.00,0.0423
1102.00,0.0423
1101.00,0.0421
1100.00,0.0420
1099.00,0.0420
1098.00,0.0420
1097.00,0.0419
1096.00,0.0419
1095.00,0.0418
1094.00,0.0419
1093.00,0.0420
1092.00,0.0422
1091.00,0.0423
1090.00,0.0423
1089.00,0.0422
1088.00,0.0422
1087.00,0.0423
1086.00,0.0423
1085.00,0.0423
1084.00,0.0423
1083.00,0.0423
1082.00,0.0424
1081.00,0.0424
1080.00,0.0423
1079.00,0.0423
1078.00,0.0423
1077.00,0.0424
1076.00,0.0424
1075.00,0.0424
1074.00,0.0423
1073.00,0.0423
1072.00,0.0423
1071.00,0.0423
1070.00,0.0423
1069.00,0.0424
1068.00,0.0424
1067.00,0.0424
1066.00,0.0424
1065.00,0.0424
1064.00,0.0424
1063.00,0.0423
1062.00,0.0421
1061.00,0.0421
1060.00,0.0421
1059.00,0.0421
1058.00,0.0422
1057.00,0.0423
1056.00,0.0423
1055.00,0.0423
1054.00,0.0424
1053.00,0.0424
1052.00,0.0425
1051.00,0.0425
1050.00,0.0426
1049.00,0.0427
1048.00,0.0428
1047.00,0.0429
1046.00,0.0430
1045.00,0.0430
1044.00,0.0429
1043.00,0.0428
1042.00,0.0427
1041.00,0.0427
1040.00,0.0427
1039.00,0.0427
1038.00,0.0427
1037.00,0.0427
1036.00,0.0427
1035.00,0.0427
1034.00,0.0427
1033.00,0.0427
1032.00,0.0428
1031.00,0.0428
1030.00,0.0427
1029.00,0.0427
1028.00,0.0427
1027.00,0.0426
1026.00,0.0424
1025.00,0.0423
1024.00,0.0423
1023.00,0.0424
1022.00,0.0425
1021.00,0.0425
1020.00,0.0425
1019.00,0.0424
1018.00,0.0423
1017.00,0.0423
1016.00,0.0423
1015.00,0.0423
1014.00,0.0424
1013.00,0.0424
1012.00,0.0425
1011.00,0.0426
1010.00,0.0426
1009.00,0.0426
1008.00,0.0426
1007.00,0.0425
1006.00,0.0425
1005.00,0.0426
1004.00,0.0426
1003.00,0.0427
1002.00,0.0427
1001.00,0.0427
1000.00,0.0426
999.00,0.0426
998.00,0.0425
997.00,0.0425
996.00,0.0425
995.00,0.0424
994.00,0.0424
993.00,0.0424
992.00,0.0424
991.00,0.0423
990.00,0.0422
989.00,0.0421
988.00,0.0422
987.00,0.0423
986.00,0.0424
985.00,0.0424
984.00,0.0425
983.00,0.0425
982.00,0.0425
981.00,0.0425
980.00,0.0424
979.00,0.0424
978.00,0.0425
977.00,0.0425
976.00,0.0425
975.00,0.0425
974.00,0.0425
973.00,0.0425
972.00,0.0425
971.00,0.0426
970.00,0.0427
969.00,0.0428
968.00,0.0429
967.00,0.0429
966.00,0.0430
965.00,0.0429
964.00,0.0428
963.00,0.0428
962.00,0.0427
961.00,0.0427
960.00,0.0427
959.00,0.0427
958.00,0.0428
957.00,0.0428
956.00,0.0429
955.00,0.0431
954.00,0.0432
953.00,0.0432
952.00,0.0432
951.00,0.0431
950.00,0.0431
949.00,0.0432
948.00,0.0433
947.00,0.0434
946.00,0.0435
945.00,0.0435
944.00,0.0435
943.00,0.0435
942.00,0.0436
941.00,0.0437
940.00,0.0439
939.00,0.0440
938.00,0.0440
937.00,0.0440
936.00,0.0440
935.00,0.0440
934.00,0.0441
933.00,0.0440
932.00,0.0440
931.00,0.0440
930.00,0.0440
929.00,0.0441
928.00,0.0442
927.00,0.0444
926.00,0.0445
925.00,0.0447
924.00,0.0448
923.00,0.0450
922.00,0.0451
921.00,0.0452
920.00,0.0453
919.00,0.0454
918.00,0.0455
917.00,0.0456
916.00,0.0456
915.00,0.0455
914.00,0.0454
913.00,0.0454
912.00,0.0454
911.00,0.0456
910.00,0.0457
909.00,0.0458
908.00,0.0459
907.00,0.0459
906.00,0.0459
905.00,0.0459
904.00,0.0459
903.00,0.0460
902.00,0.0460
901.00,0.0461
900.00,0.0462
899.00,0.0463
898.00,0.0464
897.00,0.0465
896.00,0.0465
895.00,0.0465
894.00,0.0464
893.00,0.0465
892.00,0.0467
891.00,0.0469
890.00,0.0470
889.00,0.0470
888.00,0.0470
887.00,0.0469
886.00,0.0469
885.00,0.0469
884.00,0.0470
883.00,0.0471
882.00,0.0472
881.00,0.0473
880.00,0.0473
879.00,0.0473
878.00,0.0472
877.00,0.0472
876.00,0.0472
875.00,0.0473
874.00,0.0473
873.00,0.0474
872.00,0.0473
871.00,0.0472
870.00,0.0470
869.00,0.0470
868.00,0.0472
867.00,0.0473
866.00,0.0475
865.00,0.0476
864.00,0.0477
863.00,0.0478
862.00,0.0478
861.00,0.0478
860.00,0.0479
859.00,0.0479
858.00,0.0480
857.00,0.0481
856.00,0.0483
855.00,0.0485
854.00,0.0487
853.00,0.0487
852.00,0.0487
851.00,0.0486
850.00,0.0486
849.00,0.0486
848.00,0.0488
847.00,0.0489
846.00,0.0491
845.00,0.0493
844.00,0.0495
843.00,0.0496
842.00,0.0497
841.00,0.0498
840.00,0.0499
839.00,0.0501
838.00,0.0504
837.00,0.0506
836.00,0.0507
835.00,0.0507
834.00,0.0507
833.00,0.0508
832.00,0.0510
831.00,0.0513
830.00,0.0515
829.00,0.0516
828.00,0.0516
827.00,0.0516
826.00,0.0516
825.00,0.0516
824.00,0.0517
823.00,0.0519
822.00,0.0521
821.00,0.0523
820.00,0.0525
819.00,0.0527
818.00,0.0528
817.00,0.0528
816.00,0.0528
815.00,0.0527
814.00,0.0527
813.00,0.0526
812.00,0.0527
811.00,0.0528
810.00,0.0529
809.00,0.0530
808.00,0.0531
807.00,0.0531
806.00,0.0531
805.00,0.0531
804.00,0.0532
803.00,0.0533
802.00,0.0535
801.00,0.0537
800.00,0.0538
799.00,0.0538
798.00,0.0537
797.00,0.0538
796.00,0.0540
795.00,0.0543
794.00,0.0546
793.00,0.0549
792.00,0.0550
791.00,0.0550
790.00,0.0550
789.00,0.0551
788.00,0.0552
787.00,0.0553
786.00,0.0554
785.00,0.0556
784.00,0.0557
783.00,0.0559
782.00,0.0560
781.00,0.0561
780.00,0.0561
779.00,0.0562
778.00,0.0562
777.00,0.0564
776.00,0.0565
775.00,0.0567
774.00,0.0569
773.00,0.0570
772.00,0.0571
771.00,0.0571
770.00,0.0572
769.00,0.0572
768.00,0.0573
767.00,0.0573
766.00,0.0574
765.00,0.0574
764.00,0.0575
763.00,0.0575
762.00,0.0575
761.00,0.0575
760.00,0.0576
759.00,0.0578
758.00,0.0581
757.00,0.0584
756.00,0.0587
755.00,0.0587
754.00,0.0586
753.00,0.0585
752.00,0.0585
751.00,0.0586
750.00,0.0587
749.00,0.0589
748.00,0.0592
747.00,0.0593
746.00,0.0594
745.00,0.0595
744.00,0.0595
743.00,0.0596
742.00,0.0596
741.00,0.0595
740.00,0.0595
739.00,0.0596
738.00,0.0597
737.00,0.0598
736.00,0.0598
735.00,0.0598
734.00,0.0598
733.00,0.0598
732.00,0.0599
731.00,0.0602
730.00,0.0604
729.00,0.0605
728.00,0.0606
727.00,0.0607
726.00,0.0608
725.00,0.0609
724.00,0.0610
723.00,0.0611
722.00,0.0612
721.00,0.0615
720.00,0.0618
719.00,0.0620
718.00,0.0621
717.00,0.0621
716.00,0.0621
715.00,0.0622
714.00,0.0625
713.00,0.0628
712.00,0.0632
711.00,0.0634
710.00,0.0635
709.00,0.0634
708.00,0.0634
707.00,0.0637
706.00,0.0640
705.00,0.0643
704.00,0.0645
703.00,0.0645
702.00,0.0644
701.00,0.0645
700.00,0.0648
699.00,0.0651
698.00,0.0655
697.00,0.0657
696.00,0.0657
695.00,0.0656
694.00,0.0654
693.00,0.0655
692.00,0.0658
691.00,0.0663
690.00,0.0666
689.00,0.0667
688.00,0.0666
687.00,0.0664
686.00,0.0663
685.00,0.0664
684.00,0.0667
683.00,0.0670
682.00,0.0674
681.00,0.0676
680.00,0.0678
679.00,0.0679
678.00,0.0680
677.00,0.0684
676.00,0.0689
675.00,0.0695
674.00,0.0699
673.00,0.0698
672.00,0.0694
671.00,0.0688
670.00,0.0682
669.00,0.0683
668.00,0.0700
667.00,0.0719
666.00,0.0725
665.00,0.0724
664.00,0.0719
663.00,0.0713
662.00,0.0707
661.00,0.0706
660.00,0.0712
659.00,0.0722
658.00,0.0730
657.00,0.0733
656.00,0.0733
655.00,0.0733
654.00,0.0735
653.00,0.0738
652.00,0.0740
651.00,0.0738
650.00,0.0734
