Created as New Dataset,
cm-1,A
4000.00,0.0081
3999.00,0.0081
3998.00,0.0081
3997.00,0.0081
3996.00,0.0081
3995.00,0.0081
3994.00,0.0082
3993.00,0.0082
3992.00,0.0082
3991.00,0.0082
3990.00,0.0081
3989.00,0.0081
3988.00,0.0081
3987.00,0.0080
3986.00,0.0081
3985.00,0.0081
3984.00,0.0081
3983.00,0.0081
3982.00,0.0081
3981.00,0.0082
3980.00,0.0082
3979.00,0.0082
3978.00,0.0083
3977.00,0.0083
3976.00,0.0083
3975.00,0.0083
3974.00,0.0083
3973.00,0.0083
3972.00,0.0083
3971.00,0.0082
3970.00,0.0082
3969.00,0.0081
3968.00,0.0081
3967.00,0.0080
3966.00,0.0080
3965.00,0.0081
3964.00,0.0081
3963.00,0.0082
3962.00,0.0082
3961.00,0.0083
3960.00,0.0083
3959.00,0.0083
3958.00,0.0082
3957.00,0.0082
3956.00,0.0082
3955.00,0.0082
3954.00,0.0082
3953.00,0.0083
3952.00,0.0083
3951.00,0.0084
3950.00,0.0084
3949.00,0.0085
3948.00,0.0085
3947.00,0.0085
3946.00,0.0086
3945.00,0.0086
3944.00,0.0086
3943.00,0.0085
3942.00,0.0085
3941.00,0.0085
3940.00,0.0084
3939.00,0.0084
3938.00,0.0083
3937.00,0.0083
3936.00,0.0083
3935.00,0.0084
3934.00,0.0085
3933.00,0.0085
3932.00,0.0086
3931.00,0.0086
3930.00,0.0086
3929.00,0.0087
3928.00,0.0087
3927.00,0.0087
3926.00,0.0086
3925.00,0.0085
3924.00,0.0085
3923.00,0.0085
3922.00,0.0086
3921.00,0.0086
3920.00,0.0085
3919.00,0.0085
3918.00,0.0085
3917.00,0.0085
3916.00,0.0085
3915.00,0.0084
3914.00,0.0083
3913.00,0.0082
3912.00,0.0081
3911.00,0.0080
3910.00,0.0081
3909.00,0.0082
3908.00,0.0084
3907.00,0.0086
3906.00,0.0088
3905.00,0.0089
3904.00,0.0090
3903.00,0.0093
3902.00,0.0095
3901.00,0.0096
3900.00,0.0095
3899.00,0.0092
3898.00,0.0090
3897.00,0.0088
3896.00,0.0087
3895.00,0.0087
3894.00,0.0087
3893.00,0.0086
3892.00,0.0085
3891.00,0.0084
3890.00,0.0085
3889.00,0.0087
3888.00,0.0090
3887.00,0.0090
3886.00,0.0088
3885.00,0.0088
3884.00,0.0091
3883.00,0.0094
3882.00,0.0094
3881.00,0.0091
3880.00,0.0087
3879.00,0.0086
3878.00,0.0088
3877.00,0.0090
3876.00,0.0090
3875.00,0.0087
3874.00,0.0087
3873.00,0.0089
3872.00,0.0092
3871.00,0.0092
3870.00,0.0089
3869.00,0.0089
3868.00,0.0091
3867.00,0.0093
3866.00,0.0092
3865.00,0.0090
3864.00,0.0088
3863.00,0.0089
3862.00,0.0089
3861.00,0.0088
3860.00,0.0087
3859.00,0.0085
3858.00,0.0085
3857.00,0.0087
3856.00,0.0091
3855.00,0.0091
3854.00,0.0089
3853.00,0.0090
3852.00,0.0092
3851.00,0.0092
3850.00,0.0091
3849.00,0.0088
3848.00,0.0085
3847.00,0.0083
3846.00,0.0083
3845.00,0.0083
3844.00,0.0083
3843.00,0.0084
3842.00,0.0086
3841.00,0.0088
3840.00,0.0089
3839.00,0.0090
3838.00,0.0090
3837.00,0.0090
3836.00,0.0091
3835.00,0.0091
3834.00,0.0090
3833.00,0.0088
3832.00,0.0086
3831.00,0.0085
3830.00,0.0086
3829.00,0.0087
3828.00,0.0087
3827.00,0.0085
3826.00,0.0083
3825.00,0.0085
3824.00,0.0088
3823.00,0.0090
3822.00,0.0087
3821.00,0.0085
3820.00,0.0086
3819.00,0.0089
3818.00,0.0091
3817.00,0.0088
3816.00,0.0084
3815.00,0.0083
3814.00,0.0084
3813.00,0.0084
3812.00,0.0082
3811.00,0.0080
3810.00,0.0080
3809.00,0.0081
3808.00,0.0080
3807.00,0.0079
3806.00,0.0080
3805.00,0.0083
3804.00,0.0087
3803.00,0.0087
3802.00,0.0085
3801.00,0.0084
3800.00,0.0087
3799.00,0.0089
3798.00,0.0089
3797.00,0.0086
3796.00,0.0083
3795.00,0.0082
3794.00,0.0082
3793.00,0.0082
3792.00,0.0081
3791.00,0.0080
3790.00,0.0079
3789.00,0.0079
3788.00,0.0079
3787.00,0.0079
3786.00,0.0079
3785.00,0.0079
3784.00,0.0079
3783.00,0.0081
3782.00,0.0082
3781.00,0.0082
3780.00,0.0081
3779.00,0.0079
3778.00,0.0080
3777.00,0.0080
3776.00,0.0080
3775.00,0.0079
3774.00,0.0078
3773.00,0.0078
3772.00,0.0078
3771.00,0.0078
3770.00,0.0079
3769.00,0.0081
3768.00,0.0084
3767.00,0.0085
3766.00,0.0083
3765.00,0.0081
3764.00,0.0081
3763.00,0.0082
3762.00,0.0084
3761.00,0.0084
3760.00,0.0083
3759.00,0.0082
3758.00,0.0082
3757.00,0.0082
3756.00,0.0083
3755.00,0.0084
3754.00,0.0084
3753.00,0.0082
3752.00,0.0081
3751.00,0.0083
3750.00,0.0085
3749.00,0.0088
3748.00,0.0091
3747.00,0.0094
3746.00,0.0094
3745.00,0.0090
3744.00,0.0087
3743.00,0.0087
3742.00,0.0088
3741.00,0.0087
3740.00,0.0085
3739.00,0.0085
3738.00,0.0086
3737.00,0.0087
3736.00,0.0088
3735.00,0.0090
3734.00,0.0091
3733.00,0.0090
3732.00,0.0087
3731.00,0.0084
3730.00,0.0083
3729.00,0.0083
3728.00,0.0083
3727.00,0.0082
3726.00,0.0082
3725.00,0.0084
3724.00,0.0085
3723.00,0.0085
3722.00,0.0084
3721.00,0.0083
3720.00,0.0083
3719.00,0.0082
3718.00,0.0081
3717.00,0.0080
3716.00,0.0081
3715.00,0.0082
3714.00,0.0083
3713.00,0.0082
3712.00,0.0083
3711.00,0.0085
3710.00,0.0088
3709.00,0.0089
3708.00,0.0088
3707.00,0.0086
3706.00,0.0085
3705.00,0.0085
3704.00,0.0086
3703.00,0.0087
3702.00,0.0087
3701.00,0.0088
3700.00,0.0088
3699.00,0.0089
3698.00,0.0088
3697.00,0.0087
3696.00,0.0087
3695.00,0.0087
3694.00,0.0089
3693.00,0.0091
3692.00,0.0092
3691.00,0.0093
3690.00,0.0094
3689.00,0.0094
3688.00,0.0094
3687.00,0.0093
3686.00,0.0092
3685.00,0.0090
3684.00,0.0088
3683.00,0.0086
3682.00,0.0085
3681.00,0.0085
3680.00,0.0084
3679.00,0.0086
3678.00,0.0091
3677.00,0.0093
3676.00,0.0094
3675.00,0.0094
3674.00,0.0097
3673.00,0.0099
3672.00,0.0099
3671.00,0.0096
3670.00,0.0093
3669.00,0.0093
3668.00,0.0094
3667.00,0.0094
3666.00,0.0092
3665.00,0.0090
3664.00,0.0088
3663.00,0.0087
3662.00,0.0086
3661.00,0.0087
3660.00,0.0087
3659.00,0.0089
3658.00,0.0091
3657.00,0.0092
3656.00,0.0094
3655.00,0.0097
3654.00,0.0101
3653.00,0.0105
3652.00,0.0106
3651.00,0.0104
3650.00,0.0106
3649.00,0.0111
3648.00,0.0115
3647.00,0.0115
3646.00,0.0113
3645.00,0.0110
3644.00,0.0107
3643.00,0.0104
3642.00,0.0102
3641.00,0.0101
3640.00,0.0101
3639.00,0.0101
3638.00,0.0101
3637.00,0.0102
3636.00,0.0103
3635.00,0.0103
3634.00,0.0103
3633.00,0.0104
3632.00,0.0107
3631.00,0.0111
3630.00,0.0113
3629.00,0.0115
3628.00,0.0118
3627.00,0.0120
3626.00,0.0119
3625.00,0.0117
3624.00,0.0115
3623.00,0.0115
3622.00,0.0118
3621.00,0.0120
3620.00,0.0123
3619.00,0.0125
3618.00,0.0126
3617.00,0.0126
3616.00,0.0126
3615.00,0.0124
3614.00,0.0122
3613.00,0.0121
3612.00,0.0122
3611.00,0.0124
3610.00,0.0125
3609.00,0.0125
3608.00,0.0124
3607.00,0.0124
3606.00,0.0124
3605.00,0.0124
3604.00,0.0123
3603.00,0.0122
3602.00,0.0122
3601.00,0.0122
3600.00,0.0123
3599.00,0.0124
3598.00,0.0125
3597.00,0.0126
3596.00,0.0127
3595.00,0.0127
3594.00,0.0127
3593.00,0.0127
3592.00,0.0127
3591.00,0.0128
3590.00,0.0130
3589.00,0.0132
3588.00,0.0134
3587.00,0.0135
3586.00,0.0136
3585.00,0.0136
3584.00,0.0134
3583.00,0.0133
3582.00,0.0131
3581.00,0.0131
3580.00,0.0131
3579.00,0.0131
3578.00,0.0131
3577.00,0.0131
3576.00,0.0131
3575.00,0.0130
3574.00,0.0130
3573.00,0.0130
3572.00,0.0131
3571.00,0.0133
3570.00,0.0136
3569.00,0.0138
3568.00,0.0141
3567.00,0.0144
3566.00,0.0146
3565.00,0.0147
3564.00,0.0146
3563.00,0.0143
3562.00,0.0141
3561.00,0.0139
3560.00,0.0138
3559.00,0.0137
3558.00,0.0137
3557.00,0.0136
3556.00,0.0136
3555.00,0.0137
3554.00,0.0138
3553.00,0.0139
3552.00,0.0140
3551.00,0.0141
3550.00,0.0142
3549.00,0.0143
3548.00,0.0144
3547.00,0.0144
3546.00,0.0145
3545.00,0.0146
3544.00,0.0146
3543.00,0.0145
3542.00,0.0144
3541.00,0.0143
3540.00,0.0143
3539.00,0.0143
3538.00,0.0143
3537.00,0.0143
3536.00,0.0144
3535.00,0.0144
3534.00,0.0144
3533.00,0.0143
3532.00,0.0144
3531.00,0.0144
3530.00,0.0145
3529.00,0.0146
3528.00,0.0148
3527.00,0.0149
3526.00,0.0151
3525.00,0.0151
3524.00,0.0152
3523.00,0.0151
3522.00,0.0151
3521.00,0.0150
3520.00,0.0149
3519.00,0.0149
3518.00,0.0149
3517.00,0.0149
3516.00,0.0149
3515.00,0.0150
3514.00,0.0150
3513.00,0.0151
3512.00,0.0151
3511.00,0.0152
3510.00,0.0153
3509.00,0.0153
3508.00,0.0154
3507.00,0.0154
3506.00,0.0154
3505.00,0.0154
3504.00,0.0155
3503.00,0.0155
3502.00,0.0156
3501.00,0.0157
3500.00,0.0157
3499.00,0.0157
3498.00,0.0156
3497.00,0.0156
3496.00,0.0156
3495.00,0.0156
3494.00,0.0156
3493.00,0.0157
3492.00,0.0156
3491.00,0.0156
3490.00,0.0156
3489.00,0.0157
3488.00,0.0157
3487.00,0.0158
3486.00,0.0159
3485.00,0.0160
3484.00,0.0160
3483.00,0.0160
3482.00,0.0161
3481.00,0.0161
3480.00,0.0161
3479.00,0.0161
3478.00,0.0161
3477.00,0.0161
3476.00,0.0161
3475.00,0.0162
3474.00,0.0162
3473.00,0.0162
3472.00,0.0163
3471.00,0.0163
3470.00,0.0163
3469.00,0.0163
3468.00,0.0163
3467.00,0.0163
3466.00,0.0164
3465.00,0.0164
3464.00,0.0165
3463.00,0.0165
3462.00,0.0165
3461.00,0.0165
3460.00,0.0166
3459.00,0.0166
3458.00,0.0166
3457.00,0.0166
3456.00,0.0166
3455.00,0.0167
3454.00,0.0168
3453.00,0.0168
3452.00,0.0169
3451.00,0.0169
3450.00,0.0169
3449.00,0.0169
3448.00,0.0169
3447.00,0.0170
3446.00,0.0170
3445.00,0.0171
3444.00,0.0170
3443.00,0.0170
3442.00,0.0170
3441.00,0.0170
3440.00,0.0170
3439.00,0.0170
3438.00,0.0170
3437.00,0.0170
3436.00,0.0170
3435.00,0.0171
3434.00,0.0171
3433.00,0.0171
3432.00,0.0172
3431.00,0.0172
3430.00,0.0172
3429.00,0.0172
3428.00,0.0172
3427.00,0.0172
3426.00,0.0172
3425.00,0.0173
3424.00,0.0173
3423.00,0.0173
3422.00,0.0174
3421.00,0.0174
3420.00,0.0175
3419.00,0.0175
3418.00,0.0175
3417.00,0.0174
3416.00,0.0174
3415.00,0.0174
3414.00,0.0175
3413.00,0.0175
3412.00,0.0176
3411.00,0.0176
3410.00,0.0176
3409.00,0.0176
3408.00,0.0177
3407.00,0.0177
3406.00,0.0178
3405.00,0.0178
3404.00,0.0179
3403.00,0.0179
3402.00,0.0179
3401.00,0.0178
3400.00,0.0178
3399.00,0.0178
3398.00,0.0178
3397.00,0.0178
3396.00,0.0178
3395.00,0.0179
3394.00,0.0179
3393.00,0.0180
3392.00,0.0180
3391.00,0.0180
3390.00,0.0180
3389.00,0.0180
3388.00,0.0179
3387.00,0.0180
3386.00,0.0181
3385.00,0.0181
3384.00,0.0182
3383.00,0.0181
3382.00,0.0181
3381.00,0.0180
3380.00,0.0180
3379.00,0.0180
3378.00,0.0180
3377.00,0.0180
3376.00,0.0181
3375.00,0.0181
3374.00,0.0181
3373.00,0.0182
3372.00,0.0182
3371.00,0.0182
3370.00,0.0182
3369.00,0.0182
3368.00,0.0183
3367.00,0.0183
3366.00,0.0183
3365.00,0.0184
3364.00,0.0184
3363.00,0.0184
3362.00,0.0184
3361.00,0.0184
3360.00,0.0184
3359.00,0.0184
3358.00,0.0184
3357.00,0.0184
3356.00,0.0184
3355.00,0.0184
3354.00,0.0184
3353.00,0.0184
3352.00,0.0184
3351.00,0.0184
3350.00,0.0184
3349.00,0.0184
3348.00,0.0183
3347.00,0.0184
3346.00,0.0184
3345.00,0.0184
3344.00,0.0185
3343.00,0.0185
3342.00,0.0185
3341.00,0.0185
3340.00,0.0185
3339.00,0.0186
3338.00,0.0186
3337.00,0.0187
3336.00,0.0187
3335.00,0.0186
3334.00,0.0186
3333.00,0.0186
3332.00,0.0186
3331.00,0.0186
3330.00,0.0187
3329.00,0.0187
3328.00,0.0187
3327.00,0.0187
3326.00,0.0188
3325.00,0.0188
3324.00,0.0188
3323.00,0.0188
3322.00,0.0188
3321.00,0.0187
3320.00,0.0186
3319.00,0.0186
3318.00,0.0186
3317.00,0.0185
3316.00,0.0185
3315.00,0.0185
3314.00,0.0186
3313.00,0.0186
3312.00,0.0187
3311.00,0.0188
3310.00,0.0188
3309.00,0.0189
3308.00,0.0188
3307.00,0.0188
3306.00,0.0189
3305.00,0.0189
3304.00,0.0190
3303.00,0.0190
3302.00,0.0189
3301.00,0.0189
3300.00,0.0188
3299.00,0.0187
3298.00,0.0187
3297.00,0.0187
3296.00,0.0188
3295.00,0.0188
3294.00,0.0188
3293.00,0.0188
3292.00,0.0189
3291.00,0.0189
3290.00,0.0190
3289.00,0.0190
3288.00,0.0189
3287.00,0.0189
3286.00,0.0189
3285.00,0.0190
3284.00,0.0190
3283.00,0.0189
3282.00,0.0189
3281.00,0.0189
3280.00,0.0189
3279.00,0.0189
3278.00,0.0189
3277.00,0.0189
3276.00,0.0189
3275.00,0.0190
3274.00,0.0190
3273.00,0.0191
3272.00,0.0191
3271.00,0.0191
3270.00,0.0190
3269.00,0.0190
3268.00,0.0190
3267.00,0.0191
3266.00,0.0191
3265.00,0.0191
3264.00,0.0191
3263.00,0.0191
3262.00,0.0191
3261.00,0.0191
3260.00,0.0191
3259.00,0.0191
3258.00,0.0191
3257.00,0.0192
3256.00,0.0192
3255.00,0.0192
3254.00,0.0191
3253.00,0.0191
3252.00,0.0190
3251.00,0.0190
3250.00,0.0190
3249.00,0.0191
3248.00,0.0191
3247.00,0.0192
3246.00,0.0192
3245.00,0.0193
3244.00,0.0193
3243.00,0.0192
3242.00,0.0192
3241.00,0.0192
3240.00,0.0192
3239.00,0.0192
3238.00,0.0192
3237.00,0.0192
3236.00,0.0192
3235.00,0.0192
3234.00,0.0193
3233.00,0.0193
3232.00,0.0194
3231.00,0.0194
3230.00,0.0194
3229.00,0.0193
3228.00,0.0193
3227.00,0.0193
3226.00,0.0193
3225.00,0.0193
3224.00,0.0193
3223.00,0.0193
3222.00,0.0193
3221.00,0.0193
3220.00,0.0193
3219.00,0.0193
3218.00,0.0193
3217.00,0.0193
3216.00,0.0192
3215.00,0.0192
3214.00,0.0192
3213.00,0.0193
3212.00,0.0193
3211.00,0.0193
3210.00,0.0194
3209.00,0.0194
3208.00,0.0194
3207.00,0.0194
3206.00,0.0194
3205.00,0.0194
3204.00,0.0194
3203.00,0.0194
3202.00,0.0194
3201.00,0.0194
3200.00,0.0194
3199.00,0.0195
3198.00,0.0195
3197.00,0.0194
3196.00,0.0194
3195.00,0.0194
3194.00,0.0193
3193.00,0.0193
3192.00,0.0192
3191.00,0.0192
3190.00,0.0192
3189.00,0.0193
3188.00,0.0193
3187.00,0.0194
3186.00,0.0194
3185.00,0.0194
3184.00,0.0194
3183.00,0.0194
3182.00,0.0194
3181.00,0.0194
3180.00,0.0194
3179.00,0.0194
3178.00,0.0194
3177.00,0.0194
3176.00,0.0194
3175.00,0.0194
3174.00,0.0194
3173.00,0.0194
3172.00,0.0194
3171.00,0.0194
3170.00,0.0194
3169.00,0.0193
3168.00,0.0193
3167.00,0.0192
3166.00,0.0192
3165.00,0.0193
3164.00,0.0193
3163.00,0.0193
3162.00,0.0192
3161.00,0.0192
3160.00,0.0193
3159.00,0.0193
3158.00,0.0193
3157.00,0.0193
3156.00,0.0192
3155.00,0.0192
3154.00,0.0191
3153.00,0.0191
3152.00,0.0191
3151.00,0.0192
3150.00,0.0192
3149.00,0.0192
3148.00,0.0191
3147.00,0.0191
3146.00,0.0192
3145.00,0.0192
3144.00,0.0192
3143.00,0.0192
3142.00,0.0192
3141.00,0.0192
3140.00,0.0192
3139.00,0.0192
3138.00,0.0192
3137.00,0.0191
3136.00,0.0191
3135.00,0.0191
3134.00,0.0191
3133.00,0.0190
3132.00,0.0191
3131.00,0.0191
3130.00,0.0192
3129.00,0.0192
3128.00,0.0192
3127.00,0.0192
3126.00,0.0192
3125.00,0.0191
3124.00,0.0191
3123.00,0.0191
3122.00,0.0191
3121.00,0.0191
3120.00,0.0191
3119.00,0.0191
3118.00,0.0191
3117.00,0.0191
3116.00,0.0191
3115.00,0.0191
3114.00,0.0191
3113.00,0.0191
3112.00,0.0191
3111.00,0.0191
3110.00,0.0190
3109.00,0.0190
3108.00,0.0190
3107.00,0.0190
3106.00,0.0190
3105.00,0.0190
3104.00,0.0190
3103.00,0.0190
3102.00,0.0190
3101.00,0.0190
3100.00,0.0191
3099.00,0.0191
3098.00,0.0191
3097.00,0.0191
3096.00,0.0191
3095.00,0.0191
3094.00,0.0191
3093.00,0.0191
3092.00,0.0190
3091.00,0.0190
3090.00,0.0190
3089.00,0.0189
3088.00,0.0190
3087.00,0.0190
3086.00,0.0190
3085.00,0.0190
3084.00,0.0190
3083.00,0.0190
3082.00,0.0190
3081.00,0.0191
3080.00,0.0191
3079.00,0.0190
3078.00,0.0190
3077.00,0.0190
3076.00,0.0190
3075.00,0.0189
3074.00,0.0189
3073.00,0.0189
3072.00,0.0189
3071.00,0.0190
3070.00,0.0190
3069.00,0.0190
3068.00,0.0190
3067.00,0.0190
3066.00,0.0190
3065.00,0.0190
3064.00,0.0190
3063.00,0.0190
3062.00,0.0189
3061.00,0.0189
3060.00,0.0188
3059.00,0.0188
3058.00,0.0189
3057.00,0.0189
3056.00,0.0189
3055.00,0.0189
3054.00,0.0189
3053.00,0.0189
3052.00,0.0189
3051.00,0.0188
3050.00,0.0188
3049.00,0.0187
3048.00,0.0187
3047.00,0.0186
3046.00,0.0186
3045.00,0.0187
3044.00,0.0187
3043.00,0.0187
3042.00,0.0187
3041.00,0.0187
3040.00,0.0187
3039.00,0.0187
3038.00,0.0187
3037.00,0.0187
3036.00,0.0187
3035.00,0.0187
3034.00,0.0187
3033.00,0.0187
3032.00,0.0187
3031.00,0.0187
3030.00,0.0187
3029.00,0.0186
3028.00,0.0185
3027.00,0.0184
3026.00,0.0184
3025.00,0.0183
3024.00,0.0183
3023.00,0.0183
3022.00,0.0184
3021.00,0.0183
3020.00,0.0183
3019.00,0.0183
3018.00,0.0183
3017.00,0.0183
3016.00,0.0184
3015.00,0.0184
3014.00,0.0184
3013.00,0.0184
3012.00,0.0184
3011.00,0.0184
3010.00,0.0184
3009.00,0.0183
3008.00,0.0183
3007.00,0.0182
3006.00,0.0182
3005.00,0.0182
3004.00,0.0182
3003.00,0.0182
3002.00,0.0181
3001.00,0.0181
3000.00,0.0181
2999.00,0.0180
2998.00,0.0180
2997.00,0.0180
2996.00,0.0180
2995.00,0.0180
2994.00,0.0180
2993.00,0.0180
2992.00,0.0179
2991.00,0.0179
2990.00,0.0178
2989.00,0.0178
2988.00,0.0178
2987.00,0.0178
2986.00,0.0178
2985.00,0.0178
2984.00,0.0177
2983.00,0.0177
2982.00,0.0176
2981.00,0.0176
2980.00,0.0176
2979.00,0.0176
2978.00,0.0176
2977.00,0.0176
2976.00,0.0176
2975.00,0.0176
2974.00,0.0175
2973.00,0.0174
2972.00,0.0173
2971.00,0.0173
2970.00,0.0172
2969.00,0.0172
2968.00,0.0171
2967.00,0.0171
2966.00,0.0171
2965.00,0.0171
2964.00,0.0170
2963.00,0.0170
2962.00,0.0169
2961.00,0.0169
2960.00,0.0169
2959.00,0.0168
2958.00,0.0168
2957.00,0.0168
2956.00,0.0168
2955.00,0.0168
2954.00,0.0168
2953.00,0.0168
2952.00,0.0169
2951.00,0.0169
2950.00,0.0169
2949.00,0.0169
2948.00,0.0168
2947.00,0.0168
2946.00,0.0168
2945.00,0.0168
2944.00,0.0168
2943.00,0.0168
2942.00,0.0167
2941.00,0.0167
2940.00,0.0166
2939.00,0.0165
2938.00,0.0164
2937.00,0.0163
2936.00,0.0162
2935.00,0.0161
2934.00,0.0161
2933.00,0.0160
2932.00,0.0159
2931.00,0.0158
2930.00,0.0157
2929.00,0.0156
2928.00,0.0155
2927.00,0.0154
2926.00,0.0153
2925.00,0.0153
2924.00,0.0152
2923.00,0.0152
2922.00,0.0153
2921.00,0.0153
2920.00,0.0153
2919.00,0.0152
2918.00,0.0151
2917.00,0.0151
2916.00,0.0152
2915.00,0.0154
2914.00,0.0156
2913.00,0.0158
2912.00,0.0159
2911.00,0.0160
2910.00,0.0161
2909.00,0.0162
2908.00,0.0163
2907.00,0.0163
2906.00,0.0163
2905.00,0.0163
2904.00,0.0163
2903.00,0.0163
2902.00,0.0163
2901.00,0.0164
2900.00,0.0164
2899.00,0.0164
2898.00,0.0164
2897.00,0.0164
2896.00,0.0164
2895.00,0.0164
2894.00,0.0164
2893.00,0.0165
2892.00,0.0165
2891.00,0.0165
2890.00,0.0165
2889.00,0.0165
2888.00,0.0165
2887.00,0.0165
2886.00,0.0166
2885.00,0.0166
2884.00,0.0166
2883.00,0.0167
2882.00,0.0167
2881.00,0.0166
2880.00,0.0166
2879.00,0.0166
2878.00,0.0165
2877.00,0.0165
2876.00,0.0164
2875.00,0.0163
2874.00,0.0162
2873.00,0.0162
2872.00,0.0161
2871.00,0.0161
2870.00,0.0161
2869.00,0.0161
2868.00,0.0161
2867.00,0.0161
2866.00,0.0161
2865.00,0.0161
2864.00,0.0160
2863.00,0.0160
2862.00,0.0159
2861.00,0.0159
2860.00,0.0158
2859.00,0.0158
2858.00,0.0158
2857.00,0.0157
2856.00,0.0156
2855.00,0.0156
2854.00,0.0155
2853.00,0.0155
2852.00,0.0155
2851.00,0.0155
2850.00,0.0155
2849.00,0.0155
2848.00,0.0156
2847.00,0.0157
2846.00,0.0158
2845.00,0.0158
2844.00,0.0159
2843.00,0.0160
2842.00,0.0160
2841.00,0.0161
2840.00,0.0162
2839.00,0.0162
2838.00,0.0163
2837.00,0.0163
2836.00,0.0163
2835.00,0.0163
2834.00,0.0163
2833.00,0.0162
2832.00,0.0162
2831.00,0.0162
2830.00,0.0162
2829.00,0.0162
2828.00,0.0162
2827.00,0.0162
2826.00,0.0162
2825.00,0.0162
2824.00,0.0162
2823.00,0.0161
2822.00,0.0161
2821.00,0.0162
2820.00,0.0162
2819.00,0.0162
2818.00,0.0162
2817.00,0.0162
2816.00,0.0161
2815.00,0.0161
2814.00,0.0161
2813.00,0.0161
2812.00,0.0160
2811.00,0.0160
2810.00,0.0161
2809.00,0.0161
2808.00,0.0161
2807.00,0.0160
2806.00,0.0160
2805.00,0.0160
2804.00,0.0160
2803.00,0.0160
2802.00,0.0160
2801.00,0.0160
2800.00,0.0160
2799.00,0.0160
2798.00,0.0160
2797.00,0.0160
2796.00,0.0159
2795.00,0.0159
2794.00,0.0159
2793.00,0.0158
2792.00,0.0158
2791.00,0.0158
2790.00,0.0158
2789.00,0.0159
2788.00,0.0159
2787.00,0.0159
2786.00,0.0159
2785.00,0.0159
2784.00,0.0159
2783.00,0.0159
2782.00,0.0159
2781.00,0.0158
2780.00,0.0158
2779.00,0.0157
2778.00,0.0157
2777.00,0.0157
2776.00,0.0157
2775.00,0.0158
2774.00,0.0158
2773.00,0.0157
2772.00,0.0157
2771.00,0.0157
2770.00,0.0157
2769.00,0.0156
2768.00,0.0156
2767.00,0.0156
2766.00,0.0156
2765.00,0.0156
2764.00,0.0156
2763.00,0.0156
2762.00,0.0156
2761.00,0.0156
2760.00,0.0156
2759.00,0.0155
2758.00,0.0155
2757.00,0.0155
2756.00,0.0155
2755.00,0.0155
2754.00,0.0155
2753.00,0.0156
2752.00,0.0156
2751.00,0.0155
2750.00,0.0155
2749.00,0.0155
2748.00,0.0155
2747.00,0.0155
2746.00,0.0155
2745.00,0.0154
2744.00,0.0154
2743.00,0.0154
2742.00,0.0154
2741.00,0.0154
2740.00,0.0154
2739.00,0.0154
2738.00,0.0153
2737.00,0.0153
2736.00,0.0152
2735.00,0.0152
2734.00,0.0152
2733.00,0.0152
2732.00,0.0152
2731.00,0.0153
2730.00,0.0153
2729.00,0.0153
2728.00,0.0153
2727.00,0.0153
2726.00,0.0153
2725.00,0.0152
2724.00,0.0152
2723.00,0.0152
2722.00,0.0152
2721.00,0.0152
2720.00,0.0152
2719.00,0.0152
2718.00,0.0151
2717.00,0.0151
2716.00,0.0151
2715.00,0.0151
2714.00,0.0151
2713.00,0.0152
2712.00,0.0152
2711.00,0.0152
2710.00,0.0152
2709.00,0.0151
2708.00,0.0151
2707.00,0.0151
2706.00,0.0150
2705.00,0.0150
2704.00,0.0150
2703.00,0.0150
2702.00,0.0150
2701.00,0.0150
2700.00,0.0150
2699.00,0.0150
2698.00,0.0149
2697.00,0.0149
2696.00,0.0150
2695.00,0.0150
2694.00,0.0150
2693.00,0.0150
2692.00,0.0150
2691.00,0.0149
2690.00,0.0149
2689.00,0.0149
2688.00,0.0148
2687.00,0.0148
2686.00,0.0148
2685.00,0.0148
2684.00,0.0148
2683.00,0.0148
2682.00,0.0148
2681.00,0.0148
2680.00,0.0149
2679.00,0.0149
2678.00,0.0149
2677.00,0.0149
2676.00,0.0148
2675.00,0.0148
2674.00,0.0148
2673.00,0.0147
2672.00,0.0147
2671.00,0.0147
2670.00,0.0147
2669.00,0.0147
2668.00,0.0147
2667.00,0.0147
2666.00,0.0147
2665.00,0.0147
2664.00,0.0147
2663.00,0.0148
2662.00,0.0148
2661.00,0.0148
2660.00,0.0147
2659.00,0.0147
2658.00,0.0147
2657.00,0.0147
2656.00,0.0147
2655.00,0.0147
2654.00,0.0148
2653.00,0.0148
2652.00,0.0148
2651.00,0.0148
2650.00,0.0148
2649.00,0.0148
2648.00,0.0148
2647.00,0.0148
2646.00,0.0148
2645.00,0.0148
2644.00,0.0148
2643.00,0.0149
2642.00,0.0149
2641.00,0.0150
2640.00,0.0149
2639.00,0.0149
2638.00,0.0149
2637.00,0.0148
2636.00,0.0149
2635.00,0.0149
2634.00,0.0148
2633.00,0.0148
2632.00,0.0148
2631.00,0.0147
2630.00,0.0147
2629.00,0.0148
2628.00,0.0148
2627.00,0.0148
2626.00,0.0148
2625.00,0.0148
2624.00,0.0148
2623.00,0.0148
2622.00,0.0148
2621.00,0.0147
2620.00,0.0147
2619.00,0.0147
2618.00,0.0148
2617.00,0.0149
2616.00,0.0149
2615.00,0.0149
2614.00,0.0149
2613.00,0.0149
2612.00,0.0149
2611.00,0.0148
2610.00,0.0147
2609.00,0.0147
2608.00,0.0147
2607.00,0.0147
2606.00,0.0147
2605.00,0.0147
2604.00,0.0148
2603.00,0.0148
2602.00,0.0148
2601.00,0.0148
2600.00,0.0148
2599.00,0.0148
2598.00,0.0148
2597.00,0.0147
2596.00,0.0147
2595.00,0.0147
2594.00,0.0147
2593.00,0.0148
2592.00,0.0148
2591.00,0.0148
2590.00,0.0148
2589.00,0.0148
2588.00,0.0148
2587.00,0.0147
2586.00,0.0146
2585.00,0.0146
2584.00,0.0146
2583.00,0.0146
2582.00,0.0147
2581.00,0.0147
2580.00,0.0147
2579.00,0.0147
2578.00,0.0148
2577.00,0.0148
2576.00,0.0148
2575.00,0.0148
2574.00,0.0147
2573.00,0.0147
2572.00,0.0147
2571.00,0.0146
2570.00,0.0146
2569.00,0.0146
2568.00,0.0146
2567.00,0.0147
2566.00,0.0147
2565.00,0.0148
2564.00,0.0148
2563.00,0.0148
2562.00,0.0148
2561.00,0.0148
2560.00,0.0147
2559.00,0.0147
2558.00,0.0147
2557.00,0.0147
2556.00,0.0147
2555.00,0.0148
2554.00,0.0148
2553.00,0.0148
2552.00,0.0148
2551.00,0.0148
2550.00,0.0148
2549.00,0.0148
2548.00,0.0148
2547.00,0.0147
2546.00,0.0146
2545.00,0.0145
2544.00,0.0145
2543.00,0.0145
2542.00,0.0146
2541.00,0.0147
2540.00,0.0148
2539.00,0.0148
2538.00,0.0148
2537.00,0.0148
2536.00,0.0148
2535.00,0.0148
2534.00,0.0148
2533.00,0.0147
2532.00,0.0147
2531.00,0.0147
2530.00,0.0147
2529.00,0.0147
2528.00,0.0147
2527.00,0.0147
2526.00,0.0147
2525.00,0.0147
2524.00,0.0147
2523.00,0.0147
2522.00,0.0147
2521.00,0.0147
2520.00,0.0147
2519.00,0.0147
2518.00,0.0146
2517.00,0.0145
2516.00,0.0145
2515.00,0.0145
2514.00,0.0145
2513.00,0.0146
2512.00,0.0147
2511.00,0.0147
2510.00,0.0147
2509.00,0.0146
2508.00,0.0145
2507.00,0.0145
2506.00,0.0144
2505.00,0.0145
2504.00,0.0145
2503.00,0.0146
2502.00,0.0146
2501.00,0.0146
2500.00,0.0146
2499.00,0.0146
2498.00,0.0145
2497.00,0.0145
2496.00,0.0144
2495.00,0.0144
2494.00,0.0145
2493.00,0.0144
2492.00,0.0144
2491.00,0.0144
2490.00,0.0144
2489.00,0.0144
2488.00,0.0145
2487.00,0.0144
2486.00,0.0144
2485.00,0.0144
2484.00,0.0144
2483.00,0.0144
2482.00,0.0145
2481.00,0.0146
2480.00,0.0146
2479.00,0.0146
2478.00,0.0145
2477.00,0.0145
2476.00,0.0144
2475.00,0.0144
2474.00,0.0144
2473.00,0.0144
2472.00,0.0144
2471.00,0.0144
2470.00,0.0144
2469.00,0.0143
2468.00,0.0143
2467.00,0.0143
2466.00,0.0143
2465.00,0.0143
2464.00,0.0143
2463.00,0.0143
2462.00,0.0143
2461.00,0.0142
2460.00,0.0143
2459.00,0.0143
2458.00,0.0144
2457.00,0.0144
2456.00,0.0143
2455.00,0.0142
2454.00,0.0142
2453.00,0.0142
2452.00,0.0143
2451.00,0.0143
2450.00,0.0143
2449.00,0.0143
2448.00,0.0142
2447.00,0.0142
2446.00,0.0142
2445.00,0.0142
2444.00,0.0142
2443.00,0.0142
2442.00,0.0142
2441.00,0.0142
2440.00,0.0142
2439.00,0.0141
2438.00,0.0141
2437.00,0.0141
2436.00,0.0141
2435.00,0.0141
2434.00,0.0141
2433.00,0.0141
2432.00,0.0141
2431.00,0.0141
2430.00,0.0141
2429.00,0.0141
2428.00,0.0141
2427.00,0.0141
2426.00,0.0141
2425.00,0.0141
2424.00,0.0141
2423.00,0.0141
2422.00,0.0140
2421.00,0.0140
2420.00,0.0140
2419.00,0.0140
2418.00,0.0140
2417.00,0.0140
2416.00,0.0140
2415.00,0.0140
2414.00,0.0140
2413.00,0.0140
2412.00,0.0140
2411.00,0.0139
2410.00,0.0139
2409.00,0.0139
2408.00,0.0139
2407.00,0.0139
2406.00,0.0139
2405.00,0.0139
2404.00,0.0139
2403.00,0.0139
2402.00,0.0139
2401.00,0.0138
2400.00,0.0138
2399.00,0.0138
2398.00,0.0137
2397.00,0.0137
2396.00,0.0137
2395.00,0.0137
2394.00,0.0137
2393.00,0.0138
2392.00,0.0137
2391.00,0.0137
2390.00,0.0137
2389.00,0.0136
2388.00,0.0136
2387.00,0.0135
2386.00,0.0135
2385.00,0.0134
2384.00,0.0133
2383.00,0.0132
2382.00,0.0132
2381.00,0.0131
2380.00,0.0131
2379.00,0.0130
2378.00,0.0130
2377.00,0.0130
2376.00,0.0131
2375.00,0.0131
2374.00,0.0132
2373.00,0.0133
2372.00,0.0134
2371.00,0.0135
2370.00,0.0135
2369.00,0.0134
2368.00,0.0133
2367.00,0.0132
2366.00,0.0132
2365.00,0.0132
2364.00,0.0132
2363.00,0.0132
2362.00,0.0132
2361.00,0.0132
2360.00,0.0132
2359.00,0.0132
2358.00,0.0132
2357.00,0.0133
2356.00,0.0134
2355.00,0.0135
2354.00,0.0135
2353.00,0.0134
2352.00,0.0133
2351.00,0.0133
2350.00,0.0133
2349.00,0.0131
2348.00,0.0127
2347.00,0.0123
2346.00,0.0122
2345.00,0.0125
2344.00,0.0129
2343.00,0.0133
2342.00,0.0134
2341.00,0.0135
2340.00,0.0135
2339.00,0.0135
2338.00,0.0135
2337.00,0.0135
2336.00,0.0135
2335.00,0.0135
2334.00,0.0135
2333.00,0.0135
2332.00,0.0135
2331.00,0.0136
2330.00,0.0137
2329.00,0.0138
2328.00,0.0139
2327.00,0.0140
2326.00,0.0139
2325.00,0.0139
2324.00,0.0139
2323.00,0.0139
2322.00,0.0139
2321.00,0.0139
2320.00,0.0138
2319.00,0.0138
2318.00,0.0138
2317.00,0.0139
2316.00,0.0139
2315.00,0.0139
2314.00,0.0138
2313.00,0.0137
2312.00,0.0137
2311.00,0.0136
2310.00,0.0135
2309.00,0.0134
2308.00,0.0134
2307.00,0.0134
2306.00,0.0135
2305.00,0.0135
2304.00,0.0135
2303.00,0.0135
2302.00,0.0134
2301.00,0.0134
2300.00,0.0133
2299.00,0.0132
2298.00,0.0132
2297.00,0.0131
2296.00,0.0131
2295.00,0.0131
2294.00,0.0131
2293.00,0.0131
2292.00,0.0132
2291.00,0.0132
2290.00,0.0132
2289.00,0.0132
2288.00,0.0131
2287.00,0.0131
2286.00,0.0131
2285.00,0.0131
2284.00,0.0131
2283.00,0.0130
2282.00,0.0130
2281.00,0.0130
2280.00,0.0131
2279.00,0.0132
2278.00,0.0132
2277.00,0.0132
2276.00,0.0132
2275.00,0.0132
2274.00,0.0132
2273.00,0.0131
2272.00,0.0130
2271.00,0.0129
2270.00,0.0128
2269.00,0.0128
2268.00,0.0128
2267.00,0.0129
2266.00,0.0129
2265.00,0.0130
2264.00,0.0130
2263.00,0.0130
2262.00,0.0130
2261.00,0.0130
2260.00,0.0130
2259.00,0.0130
2258.00,0.0131
2257.00,0.0131
2256.00,0.0130
2255.00,0.0129
2254.00,0.0128
2253.00,0.0127
2252.00,0.0127
2251.00,0.0128
2250.00,0.0128
2249.00,0.0128
2248.00,0.0128
2247.00,0.0128
2246.00,0.0128
2245.00,0.0127
2244.00,0.0126
2243.00,0.0126
2242.00,0.0127
2241.00,0.0128
2240.00,0.0128
2239.00,0.0128
2238.00,0.0127
2237.00,0.0127
2236.00,0.0126
2235.00,0.0126
2234.00,0.0127
2233.00,0.0127
2232.00,0.0127
2231.00,0.0127
2230.00,0.0128
2229.00,0.0129
2228.00,0.0129
2227.00,0.0129
2226.00,0.0129
2225.00,0.0129
2224.00,0.0128
2223.00,0.0128
2222.00,0.0128
2221.00,0.0128
2220.00,0.0128
2219.00,0.0129
2218.00,0.0129
2217.00,0.0130
2216.00,0.0130
2215.00,0.0130
2214.00,0.0131
2213.00,0.0131
2212.00,0.0130
2211.00,0.0129
2210.00,0.0127
2209.00,0.0126
2208.00,0.0125
2207.00,0.0125
2206.00,0.0125
2205.00,0.0125
2204.00,0.0126
2203.00,0.0127
2202.00,0.0127
2201.00,0.0127
2200.00,0.0128
2199.00,0.0128
2198.00,0.0128
2197.00,0.0128
2196.00,0.0128
2195.00,0.0128
2194.00,0.0127
2193.00,0.0125
2192.00,0.0124
2191.00,0.0123
2190.00,0.0124
2189.00,0.0126
2188.00,0.0127
2187.00,0.0127
2186.00,0.0127
2185.00,0.0127
2184.00,0.0128
2183.00,0.0128
2182.00,0.0129
2181.00,0.0129
2180.00,0.0128
2179.00,0.0128
2178.00,0.0127
2177.00,0.0127
2176.00,0.0126
2175.00,0.0126
2174.00,0.0127
2173.00,0.0128
2172.00,0.0129
2171.00,0.0127
2170.00,0.0125
2169.00,0.0124
2168.00,0.0123
2167.00,0.0124
2166.00,0.0125
2165.00,0.0127
2164.00,0.0128
2163.00,0.0128
2162.00,0.0126
2161.00,0.0124
2160.00,0.0121
2159.00,0.0120
2158.00,0.0119
2157.00,0.0119
2156.00,0.0119
2155.00,0.0119
2154.00,0.0120
2153.00,0.0120
2152.00,0.0120
2151.00,0.0119
2150.00,0.0119
2149.00,0.0120
2148.00,0.0120
2147.00,0.0120
2146.00,0.0119
2145.00,0.0119
2144.00,0.0119
2143.00,0.0119
2142.00,0.0120
2141.00,0.0120
2140.00,0.0120
2139.00,0.0119
2138.00,0.0117
2137.00,0.0116
2136.00,0.0115
2135.00,0.0114
2134.00,0.0114
2133.00,0.0114
2132.00,0.0115
2131.00,0.0115
2130.00,0.0115
2129.00,0.0114
2128.00,0.0113
2127.00,0.0112
2126.00,0.0112
2125.00,0.0112
2124.00,0.0112
2123.00,0.0113
2122.00,0.0113
2121.00,0.0114
2120.00,0.0116
2119.00,0.0117
2118.00,0.0118
2117.00,0.0118
2116.00,0.0117
2115.00,0.0117
2114.00,0.0116
2113.00,0.0115
2112.00,0.0114
2111.00,0.0112
2110.00,0.0112
2109.00,0.0113
2108.00,0.0114
2107.00,0.0115
2106.00,0.0115
2105.00,0.0115
2104.00,0.0114
2103.00,0.0113
2102.00,0.0112
2101.00,0.0111
2100.00,0.0111
2099.00,0.0112
2098.00,0.0112
2097.00,0.0113
2096.00,0.0113
2095.00,0.0112
2094.00,0.0112
2093.00,0.0113
2092.00,0.0113
2091.00,0.0114
2090.00,0.0114
2089.00,0.0114
2088.00,0.0113
2087.00,0.0113
2086.00,0.0112
2085.00,0.0112
2084.00,0.0111
2083.00,0.0112
2082.00,0.0112
2081.00,0.0112
2080.00,0.0112
2079.00,0.0111
2078.00,0.0111
2077.00,0.0112
2076.00,0.0112
2075.00,0.0112
2074.00,0.0111
2073.00,0.0111
2072.00,0.0110
2071.00,0.0111
2070.00,0.0111
2069.00,0.0111
2068.00,0.0111
2067.00,0.0111
2066.00,0.0111
2065.00,0.0111
2064.00,0.0112
2063.00,0.0111
2062.00,0.0111
2061.00,0.0110
2060.00,0.0109
2059.00,0.0108
2058.00,0.0108
2057.00,0.0109
2056.00,0.0109
2055.00,0.0109
2054.00,0.0109
2053.00,0.0109
2052.00,0.0109
2051.00,0.0110
2050.00,0.0110
2049.00,0.0110
2048.00,0.0111
2047.00,0.0111
2046.00,0.0111
2045.00,0.0112
2044.00,0.0111
2043.00,0.0109
2042.00,0.0108
2041.00,0.0108
2040.00,0.0109
2039.00,0.0110
2038.00,0.0111
2037.00,0.0111
2036.00,0.0111
2035.00,0.0110
2034.00,0.0109
2033.00,0.0108
2032.00,0.0108
2031.00,0.0108
2030.00,0.0108
2029.00,0.0108
2028.00,0.0108
2027.00,0.0107
2026.00,0.0106
2025.00,0.0105
2024.00,0.0105
2023.00,0.0105
2022.00,0.0106
2021.00,0.0107
2020.00,0.0109
2019.00,0.0109
2018.00,0.0109
2017.00,0.0108
2016.00,0.0107
2015.00,0.0108
2014.00,0.0108
2013.00,0.0108
2012.00,0.0107
2011.00,0.0104
2010.00,0.0101
2009.00,0.0099
2008.00,0.0099
2007.00,0.0100
2006.00,0.0102
2005.00,0.0104
2004.00,0.0105
2003.00,0.0106
2002.00,0.0106
2001.00,0.0106
2000.00,0.0105
1999.00,0.0105
1998.00,0.0105
1997.00,0.0106
1996.00,0.0107
1995.00,0.0107
1994.00,0.0108
1993.00,0.0109
1992.00,0.0108
1991.00,0.0107
1990.00,0.0106
1989.00,0.0105
1988.00,0.0104
1987.00,0.0103
1986.00,0.0102
1985.00,0.0101
1984.00,0.0102
1983.00,0.0103
1982.00,0.0105
1981.00,0.0106
1980.00,0.0106
1979.00,0.0106
1978.00,0.0107
1977.00,0.0109
1976.00,0.0110
1975.00,0.0109
1974.00,0.0107
1973.00,0.0105
1972.00,0.0104
1971.00,0.0104
1970.00,0.0105
1969.00,0.0106
1968.00,0.0105
1967.00,0.0103
1966.00,0.0101
1965.00,0.0100
1964.00,0.0101
1963.00,0.0102
1962.00,0.0103
1961.00,0.0103
1960.00,0.0102
1959.00,0.0101
1958.00,0.0099
1957.00,0.0097
1956.00,0.0095
1955.00,0.0093
1954.00,0.0093
1953.00,0.0094
1952.00,0.0095
1951.00,0.0095
1950.00,0.0096
1949.00,0.0096
1948.00,0.0096
1947.00,0.0097
1946.00,0.0098
1945.00,0.0098
1944.00,0.0098
1943.00,0.0096
1942.00,0.0094
1941.00,0.0093
1940.00,0.0093
1939.00,0.0093
1938.00,0.0094
1937.00,0.0094
1936.00,0.0094
1935.00,0.0094
1934.00,0.0093
1933.00,0.0093
1932.00,0.0092
1931.00,0.0091
1930.00,0.0091
1929.00,0.0091
1928.00,0.0091
1927.00,0.0092
1926.00,0.0093
1925.00,0.0095
1924.00,0.0095
1923.00,0.0094
1922.00,0.0093
1921.00,0.0092
1920.00,0.0092
1919.00,0.0091
1918.00,0.0090
1917.00,0.0088
1916.00,0.0087
1915.00,0.0087
1914.00,0.0087
1913.00,0.0087
1912.00,0.0088
1911.00,0.0088
1910.00,0.0088
1909.00,0.0087
1908.00,0.0086
1907.00,0.0086
1906.00,0.0086
1905.00,0.0086
1904.00,0.0085
1903.00,0.0085
1902.00,0.0084
1901.00,0.0084
1900.00,0.0083
1899.00,0.0083
1898.00,0.0082
1897.00,0.0083
1896.00,0.0083
1895.00,0.0082
1894.00,0.0082
1893.00,0.0082
1892.00,0.0082
1891.00,0.0081
1890.00,0.0080
1889.00,0.0079
1888.00,0.0079
1887.00,0.0079
1886.00,0.0080
1885.00,0.0080
1884.00,0.0079
1883.00,0.0079
1882.00,0.0078
1881.00,0.0078
1880.00,0.0078
1879.00,0.0077
1878.00,0.0076
1877.00,0.0076
1876.00,0.0076
1875.00,0.0076
1874.00,0.0076
1873.00,0.0078
1872.00,0.0080
1871.00,0.0080
1870.00,0.0079
1869.00,0.0075
1868.00,0.0073
1867.00,0.0072
1866.00,0.0073
1865.00,0.0074
1864.00,0.0074
1863.00,0.0073
1862.00,0.0072
1861.00,0.0072
1860.00,0.0072
1859.00,0.0072
1858.00,0.0071
1857.00,0.0071
1856.00,0.0071
1855.00,0.0070
1854.00,0.0070
1853.00,0.0069
1852.00,0.0068
1851.00,0.0068
1850.00,0.0068
1849.00,0.0068
1848.00,0.0068
1847.00,0.0069
1846.00,0.0069
1845.00,0.0067
1844.00,0.0064
1843.00,0.0063
1842.00,0.0063
1841.00,0.0065
1840.00,0.0066
1839.00,0.0065
1838.00,0.0065
1837.00,0.0064
1836.00,0.0064
1835.00,0.0063
1834.00,0.0064
1833.00,0.0066
1832.00,0.0067
1831.00,0.0066
1830.00,0.0063
1829.00,0.0062
1828.00,0.0062
1827.00,0.0063
1826.00,0.0063
1825.00,0.0061
1824.00,0.0060
1823.00,0.0060
1822.00,0.0060
1821.00,0.0060
1820.00,0.0060
1819.00,0.0060
1818.00,0.0059
1817.00,0.0059
1816.00,0.0059
1815.00,0.0058
1814.00,0.0058
1813.00,0.0058
1812.00,0.0058
1811.00,0.0058
1810.00,0.0057
1809.00,0.0057
1808.00,0.0057
1807.00,0.0057
1806.00,0.0057
1805.00,0.0058
1804.00,0.0060
1803.00,0.0061
1802.00,0.0061
1801.00,0.0060
1800.00,0.0059
1799.00,0.0059
1798.00,0.0059
1797.00,0.0060
1796.00,0.0062
1795.00,0.0063
1794.00,0.0063
1793.00,0.0062
1792.00,0.0061
1791.00,0.0061
1790.00,0.0061
1789.00,0.0063
1788.00,0.0064
1787.00,0.0065
1786.00,0.0065
1785.00,0.0066
1784.00,0.0067
1783.00,0.0069
1782.00,0.0071
1781.00,0.0072
1780.00,0.0072
1779.00,0.0072
1778.00,0.0074
1777.00,0.0075
1776.00,0.0077
1775.00,0.0080
1774.00,0.0081
1773.00,0.0080
1772.00,0.0079
1771.00,0.0080
1770.00,0.0081
1769.00,0.0083
1768.00,0.0083
1767.00,0.0083
1766.00,0.0084
1765.00,0.0087
1764.00,0.0089
1763.00,0.0089
1762.00,0.0088
1761.00,0.0088
1760.00,0.0089
1759.00,0.0090
1758.00,0.0091
1757.00,0.0091
1756.00,0.0091
1755.00,0.0092
1754.00,0.0094
1753.00,0.0095
1752.00,0.0096
1751.00,0.0096
1750.00,0.0097
1749.00,0.0099
1748.00,0.0100
1747.00,0.0101
1746.00,0.0103
1745.00,0.0104
1744.00,0.0106
1743.00,0.0108
1742.00,0.0110
1741.00,0.0111
1740.00,0.0111
1739.00,0.0111
1738.00,0.0113
1737.00,0.0117
1736.00,0.0119
1735.00,0.0119
1734.00,0.0118
1733.00,0.0120
1732.00,0.0124
1731.00,0.0127
1730.00,0.0130
1729.00,0.0132
1728.00,0.0134
1727.00,0.0135
1726.00,0.0137
1725.00,0.0138
1724.00,0.0140
1723.00,0.0142
1722.00,0.0144
1721.00,0.0147
1720.00,0.0150
1719.00,0.0149
1718.00,0.0147
1717.00,0.0147
1716.00,0.0150
1715.00,0.0152
1714.00,0.0154
1713.00,0.0155
1712.00,0.0155
1711.00,0.0155
1710.00,0.0155
1709.00,0.0156
1708.00,0.0158
1707.00,0.0159
1706.00,0.0159
1705.00,0.0160
1704.00,0.0162
1703.00,0.0165
1702.00,0.0166
1701.00,0.0164
1700.00,0.0161
1699.00,0.0159
1698.00,0.0161
1697.00,0.0163
1696.00,0.0163
1695.00,0.0162
1694.00,0.0161
1693.00,0.0162
1692.00,0.0164
1691.00,0.0164
1690.00,0.0164
1689.00,0.0165
1688.00,0.0167
1687.00,0.0170
1686.00,0.0171
1685.00,0.0169
1684.00,0.0169
1683.00,0.0170
1682.00,0.0170
1681.00,0.0171
1680.00,0.0171
1679.00,0.0171
1678.00,0.0172
1677.00,0.0172
1676.00,0.0171
1675.00,0.0172
1674.00,0.0173
1673.00,0.0175
1672.00,0.0178
1671.00,0.0179
1670.00,0.0179
1669.00,0.0180
1668.00,0.0180
1667.00,0.0181
1666.00,0.0182
1665.00,0.0183
1664.00,0.0183
1663.00,0.0184
1662.00,0.0184
1661.00,0.0185
1660.00,0.0186
1659.00,0.0187
1658.00,0.0188
1657.00,0.0189
1656.00,0.0192
1655.00,0.0194
1654.00,0.0195
1653.00,0.0197
1652.00,0.0196
1651.00,0.0196
1650.00,0.0198
1649.00,0.0200
1648.00,0.0200
1647.00,0.0201
1646.00,0.0203
1645.00,0.0205
1644.00,0.0205
1643.00,0.0206
1642.00,0.0207
1641.00,0.0208
1640.00,0.0209
1639.00,0.0210
1638.00,0.0212
1637.00,0.0214
1636.00,0.0217
1635.00,0.0220
1634.00,0.0220
1633.00,0.0220
1632.00,0.0221
1631.00,0.0221
1630.00,0.0223
1629.00,0.0225
1628.00,0.0227
1627.00,0.0229
1626.00,0.0230
1625.00,0.0232
1624.00,0.0234
1623.00,0.0235
1622.00,0.0237
1621.00,0.0237
1620.00,0.0237
1619.00,0.0238
1618.00,0.0238
1617.00,0.0239
1616.00,0.0241
1615.00,0.0242
1614.00,0.0244
1613.00,0.0245
1612.00,0.0245
1611.00,0.0245
1610.00,0.0247
1609.00,0.0249
1608.00,0.0251
1607.00,0.0252
1606.00,0.0253
1605.00,0.0254
1604.00,0.0254
1603.00,0.0256
1602.00,0.0257
1601.00,0.0258
1600.00,0.0259
1599.00,0.0260
1598.00,0.0260
1597.00,0.0261
1596.00,0.0262
1595.00,0.0263
1594.00,0.0264
1593.00,0.0264
1592.00,0.0264
1591.00,0.0265
1590.00,0.0266
1589.00,0.0267
1588.00,0.0267
1587.00,0.0268
1586.00,0.0268
1585.00,0.0268
1584.00,0.0268
1583.00,0.0268
1582.00,0.0269
1581.00,0.0269
1580.00,0.0270
1579.00,0.0270
1578.00,0.0271
1577.00,0.0272
1576.00,0.0273
1575.00,0.0274
1574.00,0.0274
1573.00,0.0274
1572.00,0.0274
1571.00,0.0273
1570.00,0.0273
1569.00,0.0274
1568.00,0.0274
1567.00,0.0274
1566.00,0.0273
1565.00,0.0273
1564.00,0.0273
1563.00,0.0273
1562.00,0.0274
1561.00,0.0274
1560.00,0.0273
1559.00,0.0277
1558.00,0.0281
1557.00,0.0277
1556.00,0.0273
1555.00,0.0271
1554.00,0.0269
1553.00,0.0267
1552.00,0.0267
1551.00,0.0267
1550.00,0.0267
1549.00,0.0266
1548.00,0.0265
1547.00,0.0263
1546.00,0.0262
1545.00,0.0261
1544.00,0.0260
1543.00,0.0259
1542.00,0.0256
1541.00,0.0253
1540.00,0.0255
1539.00,0.0257
1538.00,0.0256
1537.00,0.0254
1536.00,0.0253
1535.00,0.0254
1534.00,0.0254
1533.00,0.0254
1532.00,0.0253
1531.00,0.0251
1530.00,0.0249
1529.00,0.0247
1528.00,0.0247
1527.00,0.0246
1526.00,0.0245
1525.00,0.0244
1524.00,0.0243
1523.00,0.0241
1522.00,0.0240
1521.00,0.0240
1520.00,0.0241
1519.00,0.0241
1518.00,0.0241
1517.00,0.0241
1516.00,0.0240
1515.00,0.0238
1514.00,0.0235
1513.00,0.0233
1512.00,0.0232
1511.00,0.0232
1510.00,0.0233
1509.00,0.0235
1508.00,0.0236
1507.00,0.0236
1506.00,0.0234
1505.00,0.0229
1504.00,0.0226
1503.00,0.0224
1502.00,0.0222
1501.00,0.0221
1500.00,0.0219
1499.00,0.0217
1498.00,0.0216
1497.00,0.0216
1496.00,0.0218
1495.00,0.0219
1494.00,0.0220
1493.00,0.0221
1492.00,0.0221
1491.00,0.0222
1490.00,0.0222
1489.00,0.0224
1488.00,0.0224
1487.00,0.0223
1486.00,0.0221
1485.00,0.0219
1484.00,0.0218
1483.00,0.0218
1482.00,0.0217
1481.00,0.0217
1480.00,0.0217
1479.00,0.0217
1478.00,0.0218
1477.00,0.0218
1476.00,0.0218
1475.00,0.0217
1474.00,0.0216
1473.00,0.0216
1472.00,0.0217
1471.00,0.0217
1470.00,0.0217
1469.00,0.0217
1468.00,0.0218
1467.00,0.0218
1466.00,0.0218
1465.00,0.0218
1464.00,0.0218
1463.00,0.0218
1462.00,0.0218
1461.00,0.0218
1460.00,0.0219
1459.00,0.0219
1458.00,0.0218
1457.00,0.0220
1456.00,0.0222
1455.00,0.0223
1454.00,0.0224
1453.00,0.0225
1452.00,0.0225
1451.00,0.0226
1450.00,0.0227
1449.00,0.0228
1448.00,0.0229
1447.00,0.0230
1446.00,0.0231
1445.00,0.0230
1444.00,0.0231
1443.00,0.0231
1442.00,0.0231
1441.00,0.0231
1440.00,0.0231
1439.00,0.0231
1438.00,0.0232
1437.00,0.0232
1436.00,0.0235
1435.00,0.0236
1434.00,0.0237
1433.00,0.0238
1432.00,0.0238
1431.00,0.0239
1430.00,0.0240
1429.00,0.0241
1428.00,0.0241
1427.00,0.0241
1426.00,0.0241
1425.00,0.0241
1424.00,0.0242
1423.00,0.0243
1422.00,0.0243
1421.00,0.0242
1420.00,0.0242
1419.00,0.0244
1418.00,0.0246
1417.00,0.0247
1416.00,0.0248
1415.00,0.0248
1414.00,0.0248
1413.00,0.0247
1412.00,0.0248
1411.00,0.0248
1410.00,0.0248
1409.00,0.0248
1408.00,0.0248
1407.00,0.0248
1406.00,0.0248
1405.00,0.0249
1404.00,0.0250
1403.00,0.0251
1402.00,0.0251
1401.00,0.0251
1400.00,0.0252
1399.00,0.0253
1398.00,0.0254
1397.00,0.0255
1396.00,0.0256
1395.00,0.0257
1394.00,0.0257
1393.00,0.0257
1392.00,0.0256
1391.00,0.0256
1390.00,0.0256
1389.00,0.0256
1388.00,0.0257
1387.00,0.0259
1386.00,0.0260
1385.00,0.0260
1384.00,0.0260
1383.00,0.0260
1382.00,0.0260
1381.00,0.0261
1380.00,0.0262
1379.00,0.0262
1378.00,0.0263
1377.00,0.0263
1376.00,0.0264
1375.00,0.0266
1374.00,0.0267
1373.00,0.0268
1372.00,0.0267
1371.00,0.0267
1370.00,0.0267
1369.00,0.0268
1368.00,0.0268
1367.00,0.0268
1366.00,0.0267
1365.00,0.0267
1364.00,0.0268
1363.00,0.0269
1362.00,0.0270
1361.00,0.0270
1360.00,0.0270
1359.00,0.0270
1358.00,0.0269
1357.00,0.0269
1356.00,0.0268
1355.00,0.0268
1354.00,0.0268
1353.00,0.0268
1352.00,0.0267
1351.00,0.0267
1350.00,0.0267
1349.00,0.0267
1348.00,0.0268
1347.00,0.0268
1346.00,0.0268
1345.00,0.0268
1344.00,0.0268
1343.00,0.0268
1342.00,0.0268
1341.00,0.0268
1340.00,0.0269
1339.00,0.0270
1338.00,0.0270
1337.00,0.0270
1336.00,0.0269
1335.00,0.0268
1334.00,0.0267
1333.00,0.0267
1332.00,0.0267
1331.00,0.0267
1330.00,0.0267
1329.00,0.0266
1328.00,0.0266
1327.00,0.0265
1326.00,0.0265
1325.00,0.0265
1324.00,0.0265
1323.00,0.0265
1322.00,0.0265
1321.00,0.0265
1320.00,0.0265
1319.00,0.0265
1318.00,0.0266
1317.00,0.0267
1316.00,0.0267
1315.00,0.0267
1314.00,0.0267
1313.00,0.0267
1312.00,0.0267
1311.00,0.0267
1310.00,0.0267
1309.00,0.0267
1308.00,0.0266
1307.00,0.0266
1306.00,0.0266
1305.00,0.0266
1304.00,0.0266
1303.00,0.0266
1302.00,0.0266
1301.00,0.0266
1300.00,0.0267
1299.00,0.0267
1298.00,0.0268
1297.00,0.0268
1296.00,0.0267
1295.00,0.0267
1294.00,0.0267
1293.00,0.0267
1292.00,0.0268
1291.00,0.0268
1290.00,0.0269
1289.00,0.0270
1288.00,0.0271
1287.00,0.0272
1286.00,0.0272
1285.00,0.0271
1284.00,0.0271
1283.00,0.0271
1282.00,0.0271
1281.00,0.0271
1280.00,0.0272
1279.00,0.0272
1278.00,0.0273
1277.00,0.0273
1276.00,0.0273
1275.00,0.0274
1274.00,0.0274
1273.00,0.0274
1272.00,0.0274
1271.00,0.0274
1270.00,0.0274
1269.00,0.0274
1268.00,0.0273
1267.00,0.0273
1266.00,0.0273
1265.00,0.0273
1264.00,0.0272
1263.00,0.0272
1262.00,0.0272
1261.00,0.0273
1260.00,0.0273
1259.00,0.0274
1258.00,0.0274
1257.00,0.0275
1256.00,0.0276
1255.00,0.0277
1254.00,0.0278
1253.00,0.0279
1252.00,0.0280
1251.00,0.0281
1250.00,0.0281
1249.00,0.0282
1248.00,0.0282
1247.00,0.0282
1246.00,0.0282
1245.00,0.0283
1244.00,0.0283
1243.00,0.0283
1242.00,0.0282
1241.00,0.0282
1240.00,0.0282
1239.00,0.0282
1238.00,0.0283
1237.00,0.0283
1236.00,0.0284
1235.00,0.0284
1234.00,0.0284
1233.00,0.0284
1232.00,0.0284
1231.00,0.0284
1230.00,0.0284
1229.00,0.0284
1228.00,0.0284
1227.00,0.0284
1226.00,0.0284
1225.00,0.0284
1224.00,0.0285
1223.00,0.0285
1222.00,0.0284
1221.00,0.0284
1220.00,0.0284
1219.00,0.0284
1218.00,0.0284
1217.00,0.0283
1216.00,0.0283
1215.00,0.0282
1214.00,0.0282
1213.00,0.0281
1212.00,0.0282
1211.00,0.0282
1210.00,0.0283
1209.00,0.0283
1208.00,0.0282
1207.00,0.0282
1206.00,0.0281
1205.00,0.0281
1204.00,0.0281
1203.00,0.0281
1202.00,0.0280
1201.00,0.0280
1200.00,0.0279
1199.00,0.0280
1198.00,0.0280
1197.00,0.0280
1196.00,0.0280
1195.00,0.0280
1194.00,0.0280
1193.00,0.0279
1192.00,0.0279
1191.00,0.0279
1190.00,0.0279
1189.00,0.0280
1188.00,0.0280
1187.00,0.0281
1186.00,0.0281
1185.00,0.0281
1184.00,0.0281
1183.00,0.0281
1182.00,0.0280
1181.00,0.0280
1180.00,0.0280
1179.00,0.0280
1178.00,0.0280
1177.00,0.0280
1176.00,0.0280
1175.00,0.0280
1174.00,0.0280
1173.00,0.0280
1172.00,0.0279
1171.00,0.0279
1170.00,0.0280
1169.00,0.0280
1168.00,0.0282
1167.00,0.0283
1166.00,0.0283
1165.00,0.0283
1164.00,0.0282
1163.00,0.0282
1162.00,0.0282
1161.00,0.0282
1160.00,0.0282
1159.00,0.0282
1158.00,0.0283
1157.00,0.0283
1156.00,0.0282
1155.00,0.0282
1154.00,0.0282
1153.00,0.0282
1152.00,0.0281
1151.00,0.0280
1150.00,0.0279
1149.00,0.0280
1148.00,0.0281
1147.00,0.0282
1146.00,0.0282
1145.00,0.0282
1144.00,0.0281
1143.00,0.0281
1142.00,0.0280
1141.00,0.0280
1140.00,0.0279
1139.00,0.0280
1138.00,0.0280
1137.00,0.0280
1136.00,0.0281
1135.00,0.0281
1134.00,0.0282
1133.00,0.0283
1132.00,0.0284
1131.00,0.0284
1130.00,0.0285
1129.00,0.0285
1128.00,0.0286
1127.00,0.0287
1126.00,0.0288
1125.00,0.0288
1124.00,0.0288
1123.00,0.0288
1122.00,0.0289
1121.00,0.0290
1120.00,0.0291
1119.00,0.0293
1118.00,0.0295
1117.00,0.0296
1116.00,0.0296
1115.00,0.0296
1114.00,0.0296
1113.00,0.0296
1112.00,0.0296
1111.00,0.0295
1110.00,0.0296
1109.00,0.0296
1108.00,0.0297
1107.00,0.0299
1106.00,0.0300
1105.00,0.0302
1104.00,0.0303
1103.00,0.0304
1102.00,0.0304
1101.00,0.0303
1100.00,0.0303
1099.00,0.0303
1098.00,0.0303
1097.00,0.0303
1096.00,0.0303
1095.00,0.0303
1094.00,0.0303
1093.00,0.0305
1092.00,0.0306
1091.00,0.0307
1090.00,0.0308
1089.00,0.0308
1088.00,0.0308
1087.00,0.0308
1086.00,0.0308
1085.00,0.0307
1084.00,0.0306
1083.00,0.0306
1082.00,0.0307
1081.00,0.0307
1080.00,0.0307
1079.00,0.0308
1078.00,0.0309
1077.00,0.0310
1076.00,0.0311
1075.00,0.0311
1074.00,0.0310
1073.00,0.0310
1072.00,0.0310
1071.00,0.0311
1070.00,0.0312
1069.00,0.0312
1068.00,0.0313
1067.00,0.0313
1066.00,0.0313
1065.00,0.0313
1064.00,0.0313
1063.00,0.0313
1062.00,0.0314
1061.00,0.0314
1060.00,0.0315
1059.00,0.0316
1058.00,0.0317
1057.00,0.0318
1056.00,0.0318
1055.00,0.0318
1054.00,0.0319
1053.00,0.0321
1052.00,0.0323
1051.00,0.0326
1050.00,0.0327
1049.00,0.0328
1048.00,0.0328
1047.00,0.0328
1046.00,0.0328
1045.00,0.0327
1044.00,0.0327
1043.00,0.0327
1042.00,0.0328
1041.00,0.0329
1040.00,0.0330
1039.00,0.0331
1038.00,0.0332
1037.00,0.0333
1036.00,0.0334
1035.00,0.0334
1034.00,0.0335
1033.00,0.0336
1032.00,0.0336
1031.00,0.0335
1030.00,0.0333
1029.00,0.0331
1028.00,0.0330
1027.00,0.0328
1026.00,0.0326
1025.00,0.0324
1024.00,0.0323
1023.00,0.0322
1022.00,0.0322
1021.00,0.0321
1020.00,0.0320
1019.00,0.0319
1018.00,0.0319
1017.00,0.0319
1016.00,0.0320
1015.00,0.0321
1014.00,0.0322
1013.00,0.0323
1012.00,0.0324
1011.00,0.0325
1010.00,0.0326
1009.00,0.0326
1008.00,0.0326
1007.00,0.0326
1006.00,0.0327
1005.00,0.0327
1004.00,0.0326
1003.00,0.0326
1002.00,0.0325
1001.00,0.0324
1000.00,0.0323
999.00,0.0322
998.00,0.0320
997.00,0.0317
996.00,0.0315
995.00,0.0312
994.00,0.0310
993.00,0.0309
992.00,0.0308
991.00,0.0307
990.00,0.0305
989.00,0.0302
988.00,0.0301
987.00,0.0301
986.00,0.0301
985.00,0.0300
984.00,0.0299
983.00,0.0297
982.00,0.0295
981.00,0.0293
980.00,0.0292
979.00,0.0291
978.00,0.0290
977.00,0.0289
976.00,0.0288
975.00,0.0287
974.00,0.0286
973.00,0.0286
972.00,0.0285
971.00,0.0284
970.00,0.0283
969.00,0.0283
968.00,0.0282
967.00,0.0281
966.00,0.0281
965.00,0.0280
964.00,0.0281
963.00,0.0281
962.00,0.0281
961.00,0.0280
960.00,0.0279
959.00,0.0278
958.00,0.0277
957.00,0.0276
956.00,0.0275
955.00,0.0274
954.00,0.0275
953.00,0.0276
952.00,0.0276
951.00,0.0276
950.00,0.0276
949.00,0.0275
948.00,0.0276
947.00,0.0277
946.00,0.0278
945.00,0.0280
944.00,0.0281
943.00,0.0281
942.00,0.0281
941.00,0.0281
940.00,0.0281
939.00,0.0281
938.00,0.0281
937.00,0.0281
936.00,0.0281
935.00,0.0282
934.00,0.0282
933.00,0.0281
932.00,0.0280
931.00,0.0280
930.00,0.0279
929.00,0.0280
928.00,0.0280
927.00,0.0281
926.00,0.0282
925.00,0.0283
924.00,0.0284
923.00,0.0286
922.00,0.0287
921.00,0.0288
920.00,0.0288
919.00,0.0289
918.00,0.0290
917.00,0.0291
916.00,0.0292
915.00,0.0292
914.00,0.0292
913.00,0.0292
912.00,0.0292
911.00,0.0292
910.00,0.0291
909.00,0.0291
908.00,0.0290
907.00,0.0290
906.00,0.0290
905.00,0.0290
904.00,0.0289
903.00,0.0288
902.00,0.0287
901.00,0.0286
900.00,0.0286
899.00,0.0285
898.00,0.0285
897.00,0.0284
896.00,0.0282
895.00,0.0281
894.00,0.0281
893.00,0.0281
892.00,0.0282
891.00,0.0283
890.00,0.0283
889.00,0.0284
888.00,0.0283
887.00,0.0283
886.00,0.0283
885.00,0.0283
884.00,0.0283
883.00,0.0283
882.00,0.0283
881.00,0.0282
880.00,0.0281
879.00,0.0280
878.00,0.0279
877.00,0.0278
876.00,0.0279
875.00,0.0279
874.00,0.0279
873.00,0.0278
872.00,0.0277
871.00,0.0275
870.00,0.0275
869.00,0.0276
868.00,0.0277
867.00,0.0277
866.00,0.0276
865.00,0.0275
864.00,0.0275
863.00,0.0275
862.00,0.0276
861.00,0.0277
860.00,0.0278
859.00,0.0279
858.00,0.0279
857.00,0.0279
856.00,0.0279
855.00,0.0280
854.00,0.0279
853.00,0.0277
852.00,0.0276
851.00,0.0274
850.00,0.0274
849.00,0.0274
848.00,0.0276
847.00,0.0278
846.00,0.0282
845.00,0.0284
844.00,0.0286
843.00,0.0285
842.00,0.0284
841.00,0.0283
840.00,0.0282
839.00,0.0284
838.00,0.0286
837.00,0.0287
836.00,0.0288
835.00,0.0288
834.00,0.0288
833.00,0.0289
832.00,0.0291
831.00,0.0292
830.00,0.0293
829.00,0.0294
828.00,0.0293
827.00,0.0292
826.00,0.0290
825.00,0.0290
824.00,0.0290
823.00,0.0291
822.00,0.0292
821.00,0.0294
820.00,0.0296
819.00,0.0297
818.00,0.0297
817.00,0.0297
816.00,0.0297
815.00,0.0296
814.00,0.0295
813.00,0.0293
812.00,0.0291
811.00,0.0292
810.00,0.0295
809.00,0.0299
808.00,0.0302
807.00,0.0304
806.00,0.0305
805.00,0.0305
804.00,0.0304
803.00,0.0304
802.00,0.0304
801.00,0.0306
800.00,0.0308
799.00,0.0308
798.00,0.0308
797.00,0.0307
796.00,0.0308
795.00,0.0309
794.00,0.0310
793.00,0.0311
792.00,0.0313
791.00,0.0314
790.00,0.0314
789.00,0.0315
788.00,0.0315
787.00,0.0315
786.00,0.0316
785.00,0.0317
784.00,0.0319
783.00,0.0320
782.00,0.0320
781.00,0.0320
780.00,0.0320
779.00,0.0320
778.00,0.0321
777.00,0.0322
776.00,0.0323
775.00,0.0324
774.00,0.0324
773.00,0.0325
772.00,0.0326
771.00,0.0326
770.00,0.0326
769.00,0.0326
768.00,0.0325
767.00,0.0325
766.00,0.0324
765.00,0.0324
764.00,0.0326
763.00,0.0327
762.00,0.0328
761.00,0.0329
760.00,0.0330
759.00,0.0332
758.00,0.0335
757.00,0.0335
756.00,0.0335
755.00,0.0333
754.00,0.0332
753.00,0.0331
752.00,0.0332
751.00,0.0333
750.00,0.0335
749.00,0.0336
748.00,0.0336
747.00,0.0336
746.00,0.0335
745.00,0.0335
744.00,0.0335
743.00,0.0335
742.00,0.0334
741.00,0.0332
740.00,0.0331
739.00,0.0330
738.00,0.0330
737.00,0.0331
736.00,0.0332
735.00,0.0332
734.00,0.0330
733.00,0.0329
732.00,0.0328
731.00,0.0330
730.00,0.0331
729.00,0.0331
728.00,0.0330
727.00,0.0330
726.00,0.0331
725.00,0.0334
724.00,0.0336
723.00,0.0338
722.00,0.0340
721.00,0.0340
720.00,0.0340
719.00,0.0339
718.00,0.0338
717.00,0.0336
716.00,0.0337
715.00,0.0339
714.00,0.0344
713.00,0.0348
712.00,0.0350
711.00,0.0350
710.00,0.0349
709.00,0.0348
708.00,0.0348
707.00,0.0350
706.00,0.0352
705.00,0.0354
704.00,0.0355
703.00,0.0356
702.00,0.0357
701.00,0.0357
700.00,0.0357
699.00,0.0357
698.00,0.0359
697.00,0.0360
696.00,0.0362
695.00,0.0361
694.00,0.0359
693.00,0.0358
692.00,0.0361
691.00,0.0367
690.00,0.0374
689.00,0.0378
688.00,0.0378
687.00,0.0376
686.00,0.0372
685.00,0.0368
684.00,0.0365
683.00,0.0365
682.00,0.0365
681.00,0.0366
680.00,0.0367
679.00,0.0368
678.00,0.0370
677.00,0.0375
676.00,0.0379
675.00,0.0382
674.00,0.0382
673.00,0.0381
672.00,0.0380
671.00,0.0379
670.00,0.0380
669.00,0.0388
668.00,0.0402
667.00,0.0409
666.00,0.0404
665.00,0.0395
664.00,0.0386
663.00,0.0380
662.00,0.0376
661.00,0.0376
660.00,0.0381
659.00,0.0389
658.00,0.0396
657.00,0.0397
656.00,0.0393
655.00,0.0388
654.00,0.0386
653.00,0.0385
652.00,0.0388
651.00,0.0393
650.00,0.0396
