Created as New Dataset,
cm-1,A
4000.00,0.0145
3999.00,0.0145
3998.00,0.0144
3997.00,0.0144
3996.00,0.0144
3995.00,0.0146
3994.00,0.0147
3993.00,0.0147
3992.00,0.0147
3991.00,0.0146
3990.00,0.0146
3989.00,0.0145
3988.00,0.0145
3987.00,0.0145
3986.00,0.0145
3985.00,0.0146
3984.00,0.0146
3983.00,0.0146
3982.00,0.0146
3981.00,0.0146
3980.00,0.0146
3979.00,0.0146
3978.00,0.0146
3977.00,0.0146
3976.00,0.0146
3975.00,0.0146
3974.00,0.0147
3973.00,0.0147
3972.00,0.0147
3971.00,0.0147
3970.00,0.0146
3969.00,0.0146
3968.00,0.0145
3967.00,0.0145
3966.00,0.0145
3965.00,0.0145
3964.00,0.0146
3963.00,0.0146
3962.00,0.0146
3961.00,0.0147
3960.00,0.0147
3959.00,0.0147
3958.00,0.0147
3957.00,0.0147
3956.00,0.0146
3955.00,0.0146
3954.00,0.0147
3953.00,0.0147
3952.00,0.0147
3951.00,0.0147
3950.00,0.0147
3949.00,0.0147
3948.00,0.0148
3947.00,0.0148
3946.00,0.0149
3945.00,0.0150
3944.00,0.0150
3943.00,0.0150
3942.00,0.0149
3941.00,0.0148
3940.00,0.0148
3939.00,0.0148
3938.00,0.0147
3937.00,0.0147
3936.00,0.0147
3935.00,0.0147
3934.00,0.0148
3933.00,0.0148
3932.00,0.0149
3931.00,0.0149
3930.00,0.0150
3929.00,0.0150
3928.00,0.0150
3927.00,0.0151
3926.00,0.0150
3925.00,0.0150
3924.00,0.0149
3923.00,0.0149
3922.00,0.0149
3921.00,0.0149
3920.00,0.0148
3919.00,0.0148
3918.00,0.0148
3917.00,0.0148
3916.00,0.0148
3915.00,0.0148
3914.00,0.0147
3913.00,0.0147
3912.00,0.0147
3911.00,0.0146
3910.00,0.0146
3909.00,0.0147
3908.00,0.0148
3907.00,0.0149
3906.00,0.0149
3905.00,0.0149
3904.00,0.0149
3903.00,0.0151
3902.00,0.0153
3901.00,0.0155
3900.00,0.0155
3899.00,0.0153
3898.00,0.0151
3897.00,0.0150
3896.00,0.0150
3895.00,0.0150
3894.00,0.0150
3893.00,0.0149
3892.00,0.0148
3891.00,0.0147
3890.00,0.0146
3889.00,0.0148
3888.00,0.0151
3887.00,0.0151
3886.00,0.0149
3885.00,0.0149
3884.00,0.0151
3883.00,0.0155
3882.00,0.0157
3881.00,0.0156
3880.00,0.0152
3879.00,0.0150
3878.00,0.0151
3877.00,0.0153
3876.00,0.0153
3875.00,0.0151
3874.00,0.0149
3873.00,0.0149
3872.00,0.0151
3871.00,0.0152
3870.00,0.0150
3869.00,0.0148
3868.00,0.0149
3867.00,0.0152
3866.00,0.0152
3865.00,0.0150
3864.00,0.0149
3863.00,0.0150
3862.00,0.0150
3861.00,0.0150
3860.00,0.0149
3859.00,0.0148
3858.00,0.0147
3857.00,0.0148
3856.00,0.0150
3855.00,0.0150
3854.00,0.0149
3853.00,0.0148
3852.00,0.0149
3851.00,0.0151
3850.00,0.0151
3849.00,0.0149
3848.00,0.0147
3847.00,0.0146
3846.00,0.0146
3845.00,0.0146
3844.00,0.0146
3843.00,0.0146
3842.00,0.0147
3841.00,0.0149
3840.00,0.0150
3839.00,0.0150
3838.00,0.0150
3837.00,0.0150
3836.00,0.0151
3835.00,0.0151
3834.00,0.0151
3833.00,0.0150
3832.00,0.0149
3831.00,0.0148
3830.00,0.0148
3829.00,0.0149
3828.00,0.0149
3827.00,0.0147
3826.00,0.0145
3825.00,0.0145
3824.00,0.0147
3823.00,0.0149
3822.00,0.0148
3821.00,0.0145
3820.00,0.0145
3819.00,0.0148
3818.00,0.0152
3817.00,0.0152
3816.00,0.0148
3815.00,0.0146
3814.00,0.0146
3813.00,0.0147
3812.00,0.0147
3811.00,0.0145
3810.00,0.0144
3809.00,0.0144
3808.00,0.0144
3807.00,0.0142
3806.00,0.0141
3805.00,0.0143
3804.00,0.0147
3803.00,0.0149
3802.00,0.0147
3801.00,0.0145
3800.00,0.0147
3799.00,0.0149
3798.00,0.0150
3797.00,0.0148
3796.00,0.0146
3795.00,0.0146
3794.00,0.0147
3793.00,0.0147
3792.00,0.0147
3791.00,0.0146
3790.00,0.0145
3789.00,0.0145
3788.00,0.0145
3787.00,0.0145
3786.00,0.0145
3785.00,0.0144
3784.00,0.0144
3783.00,0.0145
3782.00,0.0147
3781.00,0.0147
3780.00,0.0146
3779.00,0.0145
3778.00,0.0145
3777.00,0.0145
3776.00,0.0146
3775.00,0.0145
3774.00,0.0143
3773.00,0.0143
3772.00,0.0143
3771.00,0.0143
3770.00,0.0142
3769.00,0.0143
3768.00,0.0145
3767.00,0.0146
3766.00,0.0146
3765.00,0.0145
3764.00,0.0145
3763.00,0.0146
3762.00,0.0148
3761.00,0.0148
3760.00,0.0147
3759.00,0.0146
3758.00,0.0145
3757.00,0.0145
3756.00,0.0144
3755.00,0.0144
3754.00,0.0143
3753.00,0.0140
3752.00,0.0137
3751.00,0.0137
3750.00,0.0139
3749.00,0.0142
3748.00,0.0144
3747.00,0.0149
3746.00,0.0151
3745.00,0.0149
3744.00,0.0146
3743.00,0.0144
3742.00,0.0145
3741.00,0.0145
3740.00,0.0143
3739.00,0.0142
3738.00,0.0141
3737.00,0.0142
3736.00,0.0143
3735.00,0.0145
3734.00,0.0147
3733.00,0.0147
3732.00,0.0145
3731.00,0.0143
3730.00,0.0142
3729.00,0.0142
3728.00,0.0142
3727.00,0.0142
3726.00,0.0142
3725.00,0.0143
3724.00,0.0145
3723.00,0.0146
3722.00,0.0146
3721.00,0.0146
3720.00,0.0145
3719.00,0.0145
3718.00,0.0143
3717.00,0.0142
3716.00,0.0142
3715.00,0.0142
3714.00,0.0142
3713.00,0.0141
3712.00,0.0141
3711.00,0.0143
3710.00,0.0146
3709.00,0.0146
3708.00,0.0146
3707.00,0.0145
3706.00,0.0144
3705.00,0.0144
3704.00,0.0145
3703.00,0.0146
3702.00,0.0146
3701.00,0.0146
3700.00,0.0146
3699.00,0.0146
3698.00,0.0146
3697.00,0.0146
3696.00,0.0145
3695.00,0.0144
3694.00,0.0145
3693.00,0.0145
3692.00,0.0145
3691.00,0.0146
3690.00,0.0147
3689.00,0.0148
3688.00,0.0148
3687.00,0.0148
3686.00,0.0148
3685.00,0.0147
3684.00,0.0146
3683.00,0.0144
3682.00,0.0143
3681.00,0.0142
3680.00,0.0141
3679.00,0.0141
3678.00,0.0144
3677.00,0.0147
3676.00,0.0149
3675.00,0.0148
3674.00,0.0149
3673.00,0.0151
3672.00,0.0152
3671.00,0.0150
3670.00,0.0147
3669.00,0.0147
3668.00,0.0149
3667.00,0.0150
3666.00,0.0149
3665.00,0.0147
3664.00,0.0146
3663.00,0.0145
3662.00,0.0145
3661.00,0.0145
3660.00,0.0146
3659.00,0.0147
3658.00,0.0148
3657.00,0.0149
3656.00,0.0149
3655.00,0.0150
3654.00,0.0153
3653.00,0.0156
3652.00,0.0156
3651.00,0.0154
3650.00,0.0153
3649.00,0.0158
3648.00,0.0164
3647.00,0.0165
3646.00,0.0164
3645.00,0.0163
3644.00,0.0161
3643.00,0.0160
3642.00,0.0158
3641.00,0.0157
3640.00,0.0157
3639.00,0.0157
3638.00,0.0157
3637.00,0.0157
3636.00,0.0158
3635.00,0.0158
3634.00,0.0157
3633.00,0.0156
3632.00,0.0158
3631.00,0.0161
3630.00,0.0163
3629.00,0.0164
3628.00,0.0166
3627.00,0.0168
3626.00,0.0169
3625.00,0.0168
3624.00,0.0167
3623.00,0.0166
3622.00,0.0168
3621.00,0.0170
3620.00,0.0172
3619.00,0.0174
3618.00,0.0175
3617.00,0.0175
3616.00,0.0175
3615.00,0.0174
3614.00,0.0172
3613.00,0.0170
3612.00,0.0170
3611.00,0.0170
3610.00,0.0171
3609.00,0.0172
3608.00,0.0172
3607.00,0.0173
3606.00,0.0173
3605.00,0.0173
3604.00,0.0173
3603.00,0.0172
3602.00,0.0172
3601.00,0.0172
3600.00,0.0173
3599.00,0.0174
3598.00,0.0175
3597.00,0.0176
3596.00,0.0176
3595.00,0.0177
3594.00,0.0177
3593.00,0.0177
3592.00,0.0176
3591.00,0.0177
3590.00,0.0178
3589.00,0.0180
3588.00,0.0182
3587.00,0.0184
3586.00,0.0185
3585.00,0.0185
3584.00,0.0184
3583.00,0.0182
3582.00,0.0181
3581.00,0.0181
3580.00,0.0181
3579.00,0.0182
3578.00,0.0182
3577.00,0.0182
3576.00,0.0181
3575.00,0.0181
3574.00,0.0180
3573.00,0.0180
3572.00,0.0180
3571.00,0.0182
3570.00,0.0184
3569.00,0.0186
3568.00,0.0188
3567.00,0.0191
3566.00,0.0193
3565.00,0.0194
3564.00,0.0193
3563.00,0.0191
3562.00,0.0189
3561.00,0.0188
3560.00,0.0187
3559.00,0.0187
3558.00,0.0187
3557.00,0.0187
3556.00,0.0187
3555.00,0.0187
3554.00,0.0187
3553.00,0.0188
3552.00,0.0189
3551.00,0.0190
3550.00,0.0190
3549.00,0.0190
3548.00,0.0191
3547.00,0.0192
3546.00,0.0193
3545.00,0.0194
3544.00,0.0194
3543.00,0.0194
3542.00,0.0193
3541.00,0.0193
3540.00,0.0192
3539.00,0.0192
3538.00,0.0193
3537.00,0.0193
3536.00,0.0193
3535.00,0.0193
3534.00,0.0193
3533.00,0.0193
3532.00,0.0193
3531.00,0.0193
3530.00,0.0193
3529.00,0.0194
3528.00,0.0195
3527.00,0.0196
3526.00,0.0196
3525.00,0.0197
3524.00,0.0197
3523.00,0.0198
3522.00,0.0198
3521.00,0.0198
3520.00,0.0198
3519.00,0.0197
3518.00,0.0197
3517.00,0.0198
3516.00,0.0198
3515.00,0.0198
3514.00,0.0199
3513.00,0.0199
3512.00,0.0200
3511.00,0.0201
3510.00,0.0201
3509.00,0.0202
3508.00,0.0202
3507.00,0.0202
3506.00,0.0201
3505.00,0.0201
3504.00,0.0201
3503.00,0.0202
3502.00,0.0203
3501.00,0.0204
3500.00,0.0204
3499.00,0.0204
3498.00,0.0204
3497.00,0.0203
3496.00,0.0204
3495.00,0.0204
3494.00,0.0205
3493.00,0.0205
3492.00,0.0205
3491.00,0.0205
3490.00,0.0204
3489.00,0.0204
3488.00,0.0203
3487.00,0.0204
3486.00,0.0204
3485.00,0.0205
3484.00,0.0206
3483.00,0.0206
3482.00,0.0207
3481.00,0.0208
3480.00,0.0208
3479.00,0.0209
3478.00,0.0209
3477.00,0.0209
3476.00,0.0208
3475.00,0.0208
3474.00,0.0208
3473.00,0.0209
3472.00,0.0210
3471.00,0.0210
3470.00,0.0211
3469.00,0.0210
3468.00,0.0210
3467.00,0.0210
3466.00,0.0210
3465.00,0.0211
3464.00,0.0211
3463.00,0.0211
3462.00,0.0211
3461.00,0.0211
3460.00,0.0211
3459.00,0.0211
3458.00,0.0211
3457.00,0.0211
3456.00,0.0212
3455.00,0.0213
3454.00,0.0214
3453.00,0.0215
3452.00,0.0215
3451.00,0.0215
3450.00,0.0215
3449.00,0.0215
3448.00,0.0215
3447.00,0.0215
3446.00,0.0216
3445.00,0.0216
3444.00,0.0217
3443.00,0.0217
3442.00,0.0217
3441.00,0.0217
3440.00,0.0217
3439.00,0.0217
3438.00,0.0217
3437.00,0.0216
3436.00,0.0216
3435.00,0.0217
3434.00,0.0217
3433.00,0.0217
3432.00,0.0217
3431.00,0.0218
3430.00,0.0218
3429.00,0.0218
3428.00,0.0218
3427.00,0.0218
3426.00,0.0218
3425.00,0.0218
3424.00,0.0218
3423.00,0.0219
3422.00,0.0219
3421.00,0.0219
3420.00,0.0219
3419.00,0.0220
3418.00,0.0220
3417.00,0.0221
3416.00,0.0221
3415.00,0.0221
3414.00,0.0221
3413.00,0.0222
3412.00,0.0222
3411.00,0.0222
3410.00,0.0222
3409.00,0.0222
3408.00,0.0222
3407.00,0.0222
3406.00,0.0222
3405.00,0.0223
3404.00,0.0224
3403.00,0.0224
3402.00,0.0224
3401.00,0.0224
3400.00,0.0223
3399.00,0.0223
3398.00,0.0223
3397.00,0.0223
3396.00,0.0223
3395.00,0.0224
3394.00,0.0225
3393.00,0.0225
3392.00,0.0225
3391.00,0.0225
3390.00,0.0225
3389.00,0.0225
3388.00,0.0225
3387.00,0.0225
3386.00,0.0226
3385.00,0.0226
3384.00,0.0226
3383.00,0.0226
3382.00,0.0225
3381.00,0.0224
3380.00,0.0224
3379.00,0.0225
3378.00,0.0225
3377.00,0.0226
3376.00,0.0226
3375.00,0.0226
3374.00,0.0227
3373.00,0.0228
3372.00,0.0228
3371.00,0.0228
3370.00,0.0228
3369.00,0.0228
3368.00,0.0228
3367.00,0.0228
3366.00,0.0228
3365.00,0.0228
3364.00,0.0229
3363.00,0.0229
3362.00,0.0230
3361.00,0.0230
3360.00,0.0230
3359.00,0.0230
3358.00,0.0230
3357.00,0.0230
3356.00,0.0230
3355.00,0.0230
3354.00,0.0229
3353.00,0.0229
3352.00,0.0229
3351.00,0.0229
3350.00,0.0229
3349.00,0.0229
3348.00,0.0229
3347.00,0.0229
3346.00,0.0230
3345.00,0.0230
3344.00,0.0231
3343.00,0.0231
3342.00,0.0231
3341.00,0.0231
3340.00,0.0231
3339.00,0.0231
3338.00,0.0231
3337.00,0.0231
3336.00,0.0232
3335.00,0.0232
3334.00,0.0233
3333.00,0.0233
3332.00,0.0233
3331.00,0.0232
3330.00,0.0232
3329.00,0.0232
3328.00,0.0233
3327.00,0.0233
3326.00,0.0233
3325.00,0.0233
3324.00,0.0234
3323.00,0.0234
3322.00,0.0233
3321.00,0.0233
3320.00,0.0232
3319.00,0.0232
3318.00,0.0232
3317.00,0.0233
3316.00,0.0233
3315.00,0.0233
3314.00,0.0232
3313.00,0.0232
3312.00,0.0232
3311.00,0.0233
3310.00,0.0233
3309.00,0.0234
3308.00,0.0234
3307.00,0.0235
3306.00,0.0235
3305.00,0.0236
3304.00,0.0236
3303.00,0.0236
3302.00,0.0236
3301.00,0.0235
3300.00,0.0235
3299.00,0.0234
3298.00,0.0234
3297.00,0.0235
3296.00,0.0235
3295.00,0.0235
3294.00,0.0235
3293.00,0.0235
3292.00,0.0235
3291.00,0.0235
3290.00,0.0235
3289.00,0.0235
3288.00,0.0235
3287.00,0.0235
3286.00,0.0235
3285.00,0.0236
3284.00,0.0236
3283.00,0.0235
3282.00,0.0235
3281.00,0.0235
3280.00,0.0235
3279.00,0.0235
3278.00,0.0235
3277.00,0.0235
3276.00,0.0235
3275.00,0.0235
3274.00,0.0236
3273.00,0.0236
3272.00,0.0236
3271.00,0.0236
3270.00,0.0236
3269.00,0.0236
3268.00,0.0236
3267.00,0.0236
3266.00,0.0237
3265.00,0.0237
3264.00,0.0237
3263.00,0.0237
3262.00,0.0237
3261.00,0.0236
3260.00,0.0236
3259.00,0.0236
3258.00,0.0236
3257.00,0.0236
3256.00,0.0236
3255.00,0.0236
3254.00,0.0236
3253.00,0.0236
3252.00,0.0236
3251.00,0.0236
3250.00,0.0235
3249.00,0.0236
3248.00,0.0236
3247.00,0.0237
3246.00,0.0237
3245.00,0.0237
3244.00,0.0237
3243.00,0.0237
3242.00,0.0237
3241.00,0.0237
3240.00,0.0237
3239.00,0.0237
3238.00,0.0237
3237.00,0.0237
3236.00,0.0237
3235.00,0.0237
3234.00,0.0237
3233.00,0.0238
3232.00,0.0239
3231.00,0.0239
3230.00,0.0239
3229.00,0.0239
3228.00,0.0239
3227.00,0.0239
3226.00,0.0239
3225.00,0.0239
3224.00,0.0238
3223.00,0.0238
3222.00,0.0238
3221.00,0.0238
3220.00,0.0238
3219.00,0.0238
3218.00,0.0238
3217.00,0.0237
3216.00,0.0237
3215.00,0.0237
3214.00,0.0237
3213.00,0.0237
3212.00,0.0237
3211.00,0.0238
3210.00,0.0238
3209.00,0.0238
3208.00,0.0238
3207.00,0.0238
3206.00,0.0238
3205.00,0.0238
3204.00,0.0238
3203.00,0.0238
3202.00,0.0238
3201.00,0.0238
3200.00,0.0238
3199.00,0.0238
3198.00,0.0238
3197.00,0.0238
3196.00,0.0238
3195.00,0.0237
3194.00,0.0237
3193.00,0.0237
3192.00,0.0237
3191.00,0.0237
3190.00,0.0237
3189.00,0.0237
3188.00,0.0237
3187.00,0.0237
3186.00,0.0237
3185.00,0.0237
3184.00,0.0237
3183.00,0.0237
3182.00,0.0237
3181.00,0.0237
3180.00,0.0237
3179.00,0.0236
3178.00,0.0236
3177.00,0.0236
3176.00,0.0236
3175.00,0.0236
3174.00,0.0236
3173.00,0.0236
3172.00,0.0236
3171.00,0.0236
3170.00,0.0236
3169.00,0.0236
3168.00,0.0236
3167.00,0.0235
3166.00,0.0235
3165.00,0.0235
3164.00,0.0235
3163.00,0.0235
3162.00,0.0235
3161.00,0.0235
3160.00,0.0235
3159.00,0.0235
3158.00,0.0235
3157.00,0.0235
3156.00,0.0235
3155.00,0.0234
3154.00,0.0234
3153.00,0.0234
3152.00,0.0234
3151.00,0.0234
3150.00,0.0233
3149.00,0.0233
3148.00,0.0233
3147.00,0.0234
3146.00,0.0234
3145.00,0.0234
3144.00,0.0234
3143.00,0.0234
3142.00,0.0234
3141.00,0.0234
3140.00,0.0234
3139.00,0.0233
3138.00,0.0233
3137.00,0.0232
3136.00,0.0232
3135.00,0.0232
3134.00,0.0231
3133.00,0.0231
3132.00,0.0231
3131.00,0.0232
3130.00,0.0232
3129.00,0.0232
3128.00,0.0232
3127.00,0.0232
3126.00,0.0231
3125.00,0.0231
3124.00,0.0231
3123.00,0.0231
3122.00,0.0231
3121.00,0.0231
3120.00,0.0231
3119.00,0.0230
3118.00,0.0230
3117.00,0.0230
3116.00,0.0230
3115.00,0.0230
3114.00,0.0230
3113.00,0.0230
3112.00,0.0230
3111.00,0.0230
3110.00,0.0230
3109.00,0.0229
3108.00,0.0229
3107.00,0.0229
3106.00,0.0229
3105.00,0.0229
3104.00,0.0230
3103.00,0.0229
3102.00,0.0229
3101.00,0.0229
3100.00,0.0229
3099.00,0.0230
3098.00,0.0230
3097.00,0.0230
3096.00,0.0229
3095.00,0.0229
3094.00,0.0229
3093.00,0.0229
3092.00,0.0229
3091.00,0.0228
3090.00,0.0228
3089.00,0.0228
3088.00,0.0228
3087.00,0.0228
3086.00,0.0228
3085.00,0.0228
3084.00,0.0228
3083.00,0.0227
3082.00,0.0227
3081.00,0.0227
3080.00,0.0227
3079.00,0.0227
3078.00,0.0227
3077.00,0.0227
3076.00,0.0227
3075.00,0.0226
3074.00,0.0226
3073.00,0.0227
3072.00,0.0227
3071.00,0.0227
3070.00,0.0227
3069.00,0.0226
3068.00,0.0226
3067.00,0.0226
3066.00,0.0226
3065.00,0.0227
3064.00,0.0227
3063.00,0.0227
3062.00,0.0226
3061.00,0.0226
3060.00,0.0225
3059.00,0.0225
3058.00,0.0225
3057.00,0.0225
3056.00,0.0226
3055.00,0.0226
3054.00,0.0226
3053.00,0.0226
3052.00,0.0225
3051.00,0.0224
3050.00,0.0224
3049.00,0.0223
3048.00,0.0223
3047.00,0.0223
3046.00,0.0223
3045.00,0.0223
3044.00,0.0223
3043.00,0.0223
3042.00,0.0223
3041.00,0.0223
3040.00,0.0223
3039.00,0.0223
3038.00,0.0223
3037.00,0.0222
3036.00,0.0222
3035.00,0.0221
3034.00,0.0221
3033.00,0.0221
3032.00,0.0221
3031.00,0.0221
3030.00,0.0221
3029.00,0.0221
3028.00,0.0220
3027.00,0.0220
3026.00,0.0219
3025.00,0.0219
3024.00,0.0218
3023.00,0.0218
3022.00,0.0219
3021.00,0.0219
3020.00,0.0219
3019.00,0.0218
3018.00,0.0218
3017.00,0.0218
3016.00,0.0217
3015.00,0.0218
3014.00,0.0218
3013.00,0.0218
3012.00,0.0218
3011.00,0.0217
3010.00,0.0217
3009.00,0.0216
3008.00,0.0215
3007.00,0.0214
3006.00,0.0214
3005.00,0.0213
3004.00,0.0213
3003.00,0.0212
3002.00,0.0212
3001.00,0.0211
3000.00,0.0211
2999.00,0.0210
2998.00,0.0210
2997.00,0.0209
2996.00,0.0209
2995.00,0.0209
2994.00,0.0208
2993.00,0.0208
2992.00,0.0207
2991.00,0.0207
2990.00,0.0206
2989.00,0.0205
2988.00,0.0205
2987.00,0.0205
2986.00,0.0204
2985.00,0.0204
2984.00,0.0202
2983.00,0.0201
2982.00,0.0199
2981.00,0.0199
2980.00,0.0199
2979.00,0.0200
2978.00,0.0201
2977.00,0.0201
2976.00,0.0201
2975.00,0.0201
2974.00,0.0200
2973.00,0.0200
2972.00,0.0199
2971.00,0.0198
2970.00,0.0198
2969.00,0.0198
2968.00,0.0197
2967.00,0.0197
2966.00,0.0197
2965.00,0.0197
2964.00,0.0197
2963.00,0.0196
2962.00,0.0196
2961.00,0.0196
2960.00,0.0196
2959.00,0.0196
2958.00,0.0196
2957.00,0.0195
2956.00,0.0195
2955.00,0.0195
2954.00,0.0196
2953.00,0.0196
2952.00,0.0197
2951.00,0.0197
2950.00,0.0197
2949.00,0.0197
2948.00,0.0197
2947.00,0.0197
2946.00,0.0197
2945.00,0.0198
2944.00,0.0198
2943.00,0.0198
2942.00,0.0197
2941.00,0.0197
2940.00,0.0196
2939.00,0.0195
2938.00,0.0195
2937.00,0.0194
2936.00,0.0193
2935.00,0.0192
2934.00,0.0191
2933.00,0.0190
2932.00,0.0189
2931.00,0.0188
2930.00,0.0187
2929.00,0.0186
2928.00,0.0185
2927.00,0.0184
2926.00,0.0183
2925.00,0.0182
2924.00,0.0181
2923.00,0.0181
2922.00,0.0180
2921.00,0.0180
2920.00,0.0179
2919.00,0.0178
2918.00,0.0177
2917.00,0.0176
2916.00,0.0177
2915.00,0.0180
2914.00,0.0182
2913.00,0.0185
2912.00,0.0187
2911.00,0.0188
2910.00,0.0189
2909.00,0.0190
2908.00,0.0191
2907.00,0.0192
2906.00,0.0193
2905.00,0.0193
2904.00,0.0193
2903.00,0.0193
2902.00,0.0193
2901.00,0.0194
2900.00,0.0194
2899.00,0.0194
2898.00,0.0194
2897.00,0.0193
2896.00,0.0194
2895.00,0.0194
2894.00,0.0194
2893.00,0.0194
2892.00,0.0194
2891.00,0.0194
2890.00,0.0195
2889.00,0.0195
2888.00,0.0195
2887.00,0.0195
2886.00,0.0195
2885.00,0.0195
2884.00,0.0195
2883.00,0.0195
2882.00,0.0196
2881.00,0.0196
2880.00,0.0196
2879.00,0.0195
2878.00,0.0195
2877.00,0.0195
2876.00,0.0194
2875.00,0.0193
2874.00,0.0193
2873.00,0.0192
2872.00,0.0192
2871.00,0.0192
2870.00,0.0192
2869.00,0.0192
2868.00,0.0192
2867.00,0.0192
2866.00,0.0191
2865.00,0.0191
2864.00,0.0191
2863.00,0.0191
2862.00,0.0190
2861.00,0.0190
2860.00,0.0189
2859.00,0.0189
2858.00,0.0188
2857.00,0.0188
2856.00,0.0187
2855.00,0.0186
2854.00,0.0186
2853.00,0.0185
2852.00,0.0185
2851.00,0.0185
2850.00,0.0184
2849.00,0.0184
2848.00,0.0184
2847.00,0.0185
2846.00,0.0186
2845.00,0.0187
2844.00,0.0189
2843.00,0.0190
2842.00,0.0191
2841.00,0.0192
2840.00,0.0192
2839.00,0.0193
2838.00,0.0193
2837.00,0.0194
2836.00,0.0194
2835.00,0.0194
2834.00,0.0194
2833.00,0.0194
2832.00,0.0194
2831.00,0.0194
2830.00,0.0194
2829.00,0.0194
2828.00,0.0194
2827.00,0.0194
2826.00,0.0193
2825.00,0.0193
2824.00,0.0193
2823.00,0.0193
2822.00,0.0193
2821.00,0.0193
2820.00,0.0193
2819.00,0.0193
2818.00,0.0192
2817.00,0.0192
2816.00,0.0192
2815.00,0.0192
2814.00,0.0192
2813.00,0.0192
2812.00,0.0192
2811.00,0.0192
2810.00,0.0192
2809.00,0.0192
2808.00,0.0192
2807.00,0.0191
2806.00,0.0191
2805.00,0.0191
2804.00,0.0191
2803.00,0.0191
2802.00,0.0191
2801.00,0.0190
2800.00,0.0190
2799.00,0.0190
2798.00,0.0191
2797.00,0.0191
2796.00,0.0191
2795.00,0.0190
2794.00,0.0190
2793.00,0.0190
2792.00,0.0190
2791.00,0.0190
2790.00,0.0190
2789.00,0.0190
2788.00,0.0190
2787.00,0.0190
2786.00,0.0190
2785.00,0.0190
2784.00,0.0190
2783.00,0.0190
2782.00,0.0190
2781.00,0.0189
2780.00,0.0189
2779.00,0.0189
2778.00,0.0188
2777.00,0.0188
2776.00,0.0189
2775.00,0.0189
2774.00,0.0189
2773.00,0.0189
2772.00,0.0188
2771.00,0.0188
2770.00,0.0188
2769.00,0.0188
2768.00,0.0188
2767.00,0.0187
2766.00,0.0187
2765.00,0.0188
2764.00,0.0188
2763.00,0.0188
2762.00,0.0188
2761.00,0.0188
2760.00,0.0188
2759.00,0.0188
2758.00,0.0187
2757.00,0.0187
2756.00,0.0187
2755.00,0.0187
2754.00,0.0187
2753.00,0.0187
2752.00,0.0187
2751.00,0.0187
2750.00,0.0187
2749.00,0.0187
2748.00,0.0187
2747.00,0.0187
2746.00,0.0186
2745.00,0.0186
2744.00,0.0185
2743.00,0.0185
2742.00,0.0185
2741.00,0.0185
2740.00,0.0186
2739.00,0.0186
2738.00,0.0185
2737.00,0.0185
2736.00,0.0185
2735.00,0.0185
2734.00,0.0184
2733.00,0.0184
2732.00,0.0184
2731.00,0.0184
2730.00,0.0184
2729.00,0.0184
2728.00,0.0184
2727.00,0.0185
2726.00,0.0184
2725.00,0.0184
2724.00,0.0184
2723.00,0.0184
2722.00,0.0184
2721.00,0.0184
2720.00,0.0184
2719.00,0.0184
2718.00,0.0184
2717.00,0.0183
2716.00,0.0183
2715.00,0.0183
2714.00,0.0183
2713.00,0.0183
2712.00,0.0183
2711.00,0.0183
2710.00,0.0184
2709.00,0.0184
2708.00,0.0183
2707.00,0.0183
2706.00,0.0183
2705.00,0.0183
2704.00,0.0182
2703.00,0.0182
2702.00,0.0183
2701.00,0.0182
2700.00,0.0182
2699.00,0.0182
2698.00,0.0182
2697.00,0.0182
2696.00,0.0182
2695.00,0.0182
2694.00,0.0182
2693.00,0.0182
2692.00,0.0182
2691.00,0.0182
2690.00,0.0182
2689.00,0.0182
2688.00,0.0182
2687.00,0.0182
2686.00,0.0181
2685.00,0.0181
2684.00,0.0181
2683.00,0.0181
2682.00,0.0181
2681.00,0.0181
2680.00,0.0181
2679.00,0.0181
2678.00,0.0181
2677.00,0.0181
2676.00,0.0181
2675.00,0.0181
2674.00,0.0181
2673.00,0.0181
2672.00,0.0181
2671.00,0.0180
2670.00,0.0180
2669.00,0.0179
2668.00,0.0179
2667.00,0.0179
2666.00,0.0180
2665.00,0.0180
2664.00,0.0180
2663.00,0.0180
2662.00,0.0180
2661.00,0.0180
2660.00,0.0180
2659.00,0.0180
2658.00,0.0180
2657.00,0.0181
2656.00,0.0181
2655.00,0.0180
2654.00,0.0180
2653.00,0.0180
2652.00,0.0180
2651.00,0.0180
2650.00,0.0180
2649.00,0.0180
2648.00,0.0180
2647.00,0.0181
2646.00,0.0181
2645.00,0.0181
2644.00,0.0181
2643.00,0.0182
2642.00,0.0182
2641.00,0.0182
2640.00,0.0182
2639.00,0.0182
2638.00,0.0181
2637.00,0.0181
2636.00,0.0181
2635.00,0.0181
2634.00,0.0181
2633.00,0.0180
2632.00,0.0180
2631.00,0.0180
2630.00,0.0180
2629.00,0.0180
2628.00,0.0181
2627.00,0.0181
2626.00,0.0181
2625.00,0.0180
2624.00,0.0180
2623.00,0.0180
2622.00,0.0180
2621.00,0.0179
2620.00,0.0179
2619.00,0.0180
2618.00,0.0180
2617.00,0.0181
2616.00,0.0181
2615.00,0.0181
2614.00,0.0181
2613.00,0.0181
2612.00,0.0181
2611.00,0.0180
2610.00,0.0180
2609.00,0.0180
2608.00,0.0180
2607.00,0.0180
2606.00,0.0180
2605.00,0.0180
2604.00,0.0180
2603.00,0.0180
2602.00,0.0180
2601.00,0.0180
2600.00,0.0180
2599.00,0.0180
2598.00,0.0180
2597.00,0.0180
2596.00,0.0180
2595.00,0.0180
2594.00,0.0180
2593.00,0.0180
2592.00,0.0180
2591.00,0.0180
2590.00,0.0180
2589.00,0.0180
2588.00,0.0180
2587.00,0.0179
2586.00,0.0179
2585.00,0.0178
2584.00,0.0178
2583.00,0.0179
2582.00,0.0179
2581.00,0.0179
2580.00,0.0179
2579.00,0.0179
2578.00,0.0179
2577.00,0.0179
2576.00,0.0180
2575.00,0.0180
2574.00,0.0179
2573.00,0.0179
2572.00,0.0178
2571.00,0.0177
2570.00,0.0177
2569.00,0.0177
2568.00,0.0178
2567.00,0.0178
2566.00,0.0178
2565.00,0.0178
2564.00,0.0178
2563.00,0.0178
2562.00,0.0179
2561.00,0.0179
2560.00,0.0179
2559.00,0.0178
2558.00,0.0178
2557.00,0.0178
2556.00,0.0178
2555.00,0.0178
2554.00,0.0178
2553.00,0.0178
2552.00,0.0178
2551.00,0.0178
2550.00,0.0178
2549.00,0.0178
2548.00,0.0178
2547.00,0.0178
2546.00,0.0177
2545.00,0.0177
2544.00,0.0177
2543.00,0.0177
2542.00,0.0178
2541.00,0.0179
2540.00,0.0179
2539.00,0.0179
2538.00,0.0179
2537.00,0.0179
2536.00,0.0178
2535.00,0.0178
2534.00,0.0178
2533.00,0.0178
2532.00,0.0178
2531.00,0.0178
2530.00,0.0178
2529.00,0.0178
2528.00,0.0178
2527.00,0.0178
2526.00,0.0178
2525.00,0.0178
2524.00,0.0178
2523.00,0.0178
2522.00,0.0178
2521.00,0.0178
2520.00,0.0178
2519.00,0.0177
2518.00,0.0177
2517.00,0.0176
2516.00,0.0175
2515.00,0.0175
2514.00,0.0175
2513.00,0.0176
2512.00,0.0177
2511.00,0.0177
2510.00,0.0177
2509.00,0.0176
2508.00,0.0176
2507.00,0.0175
2506.00,0.0175
2505.00,0.0175
2504.00,0.0175
2503.00,0.0176
2502.00,0.0176
2501.00,0.0177
2500.00,0.0177
2499.00,0.0176
2498.00,0.0176
2497.00,0.0175
2496.00,0.0174
2495.00,0.0174
2494.00,0.0174
2493.00,0.0175
2492.00,0.0175
2491.00,0.0176
2490.00,0.0175
2489.00,0.0175
2488.00,0.0175
2487.00,0.0175
2486.00,0.0175
2485.00,0.0174
2484.00,0.0174
2483.00,0.0174
2482.00,0.0174
2481.00,0.0175
2480.00,0.0175
2479.00,0.0175
2478.00,0.0175
2477.00,0.0175
2476.00,0.0175
2475.00,0.0174
2474.00,0.0174
2473.00,0.0174
2472.00,0.0174
2471.00,0.0173
2470.00,0.0173
2469.00,0.0173
2468.00,0.0173
2467.00,0.0173
2466.00,0.0173
2465.00,0.0173
2464.00,0.0173
2463.00,0.0173
2462.00,0.0173
2461.00,0.0173
2460.00,0.0173
2459.00,0.0174
2458.00,0.0174
2457.00,0.0174
2456.00,0.0173
2455.00,0.0173
2454.00,0.0172
2453.00,0.0173
2452.00,0.0173
2451.00,0.0173
2450.00,0.0173
2449.00,0.0173
2448.00,0.0173
2447.00,0.0172
2446.00,0.0172
2445.00,0.0172
2444.00,0.0172
2443.00,0.0172
2442.00,0.0172
2441.00,0.0172
2440.00,0.0172
2439.00,0.0172
2438.00,0.0171
2437.00,0.0171
2436.00,0.0171
2435.00,0.0171
2434.00,0.0171
2433.00,0.0171
2432.00,0.0171
2431.00,0.0171
2430.00,0.0171
2429.00,0.0171
2428.00,0.0171
2427.00,0.0171
2426.00,0.0171
2425.00,0.0171
2424.00,0.0170
2423.00,0.0170
2422.00,0.0169
2421.00,0.0169
2420.00,0.0169
2419.00,0.0169
2418.00,0.0169
2417.00,0.0169
2416.00,0.0170
2415.00,0.0170
2414.00,0.0170
2413.00,0.0169
2412.00,0.0169
2411.00,0.0169
2410.00,0.0169
2409.00,0.0168
2408.00,0.0168
2407.00,0.0168
2406.00,0.0169
2405.00,0.0169
2404.00,0.0169
2403.00,0.0168
2402.00,0.0168
2401.00,0.0167
2400.00,0.0167
2399.00,0.0167
2398.00,0.0167
2397.00,0.0167
2396.00,0.0167
2395.00,0.0167
2394.00,0.0167
2393.00,0.0167
2392.00,0.0167
2391.00,0.0167
2390.00,0.0166
2389.00,0.0166
2388.00,0.0165
2387.00,0.0164
2386.00,0.0163
2385.00,0.0161
2384.00,0.0160
2383.00,0.0159
2382.00,0.0157
2381.00,0.0157
2380.00,0.0156
2379.00,0.0156
2378.00,0.0156
2377.00,0.0156
2376.00,0.0156
2375.00,0.0157
2374.00,0.0157
2373.00,0.0158
2372.00,0.0159
2371.00,0.0159
2370.00,0.0159
2369.00,0.0159
2368.00,0.0159
2367.00,0.0159
2366.00,0.0159
2365.00,0.0159
2364.00,0.0158
2363.00,0.0157
2362.00,0.0157
2361.00,0.0158
2360.00,0.0159
2359.00,0.0159
2358.00,0.0160
2357.00,0.0161
2356.00,0.0162
2355.00,0.0161
2354.00,0.0159
2353.00,0.0157
2352.00,0.0157
2351.00,0.0159
2350.00,0.0161
2349.00,0.0161
2348.00,0.0158
2347.00,0.0155
2346.00,0.0154
2345.00,0.0156
2344.00,0.0159
2343.00,0.0161
2342.00,0.0162
2341.00,0.0163
2340.00,0.0163
2339.00,0.0162
2338.00,0.0161
2337.00,0.0161
2336.00,0.0161
2335.00,0.0162
2334.00,0.0162
2333.00,0.0163
2332.00,0.0163
2331.00,0.0164
2330.00,0.0165
2329.00,0.0166
2328.00,0.0167
2327.00,0.0167
2326.00,0.0167
2325.00,0.0167
2324.00,0.0167
2323.00,0.0167
2322.00,0.0167
2321.00,0.0166
2320.00,0.0165
2319.00,0.0165
2318.00,0.0165
2317.00,0.0164
2316.00,0.0164
2315.00,0.0163
2314.00,0.0163
2313.00,0.0163
2312.00,0.0164
2311.00,0.0163
2310.00,0.0163
2309.00,0.0162
2308.00,0.0162
2307.00,0.0163
2306.00,0.0163
2305.00,0.0164
2304.00,0.0164
2303.00,0.0164
2302.00,0.0164
2301.00,0.0164
2300.00,0.0163
2299.00,0.0163
2298.00,0.0163
2297.00,0.0162
2296.00,0.0162
2295.00,0.0161
2294.00,0.0161
2293.00,0.0161
2292.00,0.0161
2291.00,0.0161
2290.00,0.0161
2289.00,0.0161
2288.00,0.0161
2287.00,0.0162
2286.00,0.0162
2285.00,0.0162
2284.00,0.0162
2283.00,0.0162
2282.00,0.0161
2281.00,0.0161
2280.00,0.0161
2279.00,0.0161
2278.00,0.0161
2277.00,0.0161
2276.00,0.0161
2275.00,0.0161
2274.00,0.0161
2273.00,0.0161
2272.00,0.0161
2271.00,0.0160
2270.00,0.0159
2269.00,0.0158
2268.00,0.0158
2267.00,0.0158
2266.00,0.0158
2265.00,0.0158
2264.00,0.0158
2263.00,0.0157
2262.00,0.0157
2261.00,0.0157
2260.00,0.0157
2259.00,0.0158
2258.00,0.0159
2257.00,0.0159
2256.00,0.0160
2255.00,0.0159
2254.00,0.0159
2253.00,0.0158
2252.00,0.0157
2251.00,0.0157
2250.00,0.0157
2249.00,0.0158
2248.00,0.0158
2247.00,0.0158
2246.00,0.0157
2245.00,0.0157
2244.00,0.0156
2243.00,0.0156
2242.00,0.0156
2241.00,0.0156
2240.00,0.0156
2239.00,0.0156
2238.00,0.0157
2237.00,0.0157
2236.00,0.0157
2235.00,0.0156
2234.00,0.0155
2233.00,0.0155
2232.00,0.0155
2231.00,0.0155
2230.00,0.0156
2229.00,0.0158
2228.00,0.0159
2227.00,0.0160
2226.00,0.0160
2225.00,0.0158
2224.00,0.0157
2223.00,0.0156
2222.00,0.0156
2221.00,0.0157
2220.00,0.0157
2219.00,0.0158
2218.00,0.0158
2217.00,0.0158
2216.00,0.0159
2215.00,0.0159
2214.00,0.0159
2213.00,0.0158
2212.00,0.0157
2211.00,0.0155
2210.00,0.0154
2209.00,0.0154
2208.00,0.0154
2207.00,0.0155
2206.00,0.0156
2205.00,0.0157
2204.00,0.0158
2203.00,0.0157
2202.00,0.0157
2201.00,0.0156
2200.00,0.0155
2199.00,0.0154
2198.00,0.0154
2197.00,0.0154
2196.00,0.0155
2195.00,0.0156
2194.00,0.0157
2193.00,0.0157
2192.00,0.0156
2191.00,0.0156
2190.00,0.0157
2189.00,0.0157
2188.00,0.0156
2187.00,0.0155
2186.00,0.0154
2185.00,0.0153
2184.00,0.0154
2183.00,0.0154
2182.00,0.0155
2181.00,0.0156
2180.00,0.0157
2179.00,0.0157
2178.00,0.0156
2177.00,0.0155
2176.00,0.0154
2175.00,0.0154
2174.00,0.0155
2173.00,0.0157
2172.00,0.0156
2171.00,0.0154
2170.00,0.0152
2169.00,0.0151
2168.00,0.0151
2167.00,0.0152
2166.00,0.0154
2165.00,0.0157
2164.00,0.0159
2163.00,0.0160
2162.00,0.0159
2161.00,0.0156
2160.00,0.0152
2159.00,0.0148
2158.00,0.0147
2157.00,0.0147
2156.00,0.0147
2155.00,0.0148
2154.00,0.0149
2153.00,0.0150
2152.00,0.0150
2151.00,0.0149
2150.00,0.0149
2149.00,0.0148
2148.00,0.0147
2147.00,0.0146
2146.00,0.0146
2145.00,0.0147
2144.00,0.0148
2143.00,0.0149
2142.00,0.0150
2141.00,0.0149
2140.00,0.0148
2139.00,0.0147
2138.00,0.0146
2137.00,0.0145
2136.00,0.0144
2135.00,0.0143
2134.00,0.0144
2133.00,0.0144
2132.00,0.0145
2131.00,0.0144
2130.00,0.0144
2129.00,0.0144
2128.00,0.0144
2127.00,0.0143
2126.00,0.0143
2125.00,0.0142
2124.00,0.0143
2123.00,0.0143
2122.00,0.0144
2121.00,0.0146
2120.00,0.0147
2119.00,0.0149
2118.00,0.0149
2117.00,0.0149
2116.00,0.0148
2115.00,0.0147
2114.00,0.0146
2113.00,0.0145
2112.00,0.0145
2111.00,0.0145
2110.00,0.0146
2109.00,0.0146
2108.00,0.0146
2107.00,0.0146
2106.00,0.0146
2105.00,0.0146
2104.00,0.0146
2103.00,0.0146
2102.00,0.0146
2101.00,0.0146
2100.00,0.0145
2099.00,0.0145
2098.00,0.0146
2097.00,0.0146
2096.00,0.0145
2095.00,0.0143
2094.00,0.0142
2093.00,0.0142
2092.00,0.0142
2091.00,0.0144
2090.00,0.0145
2089.00,0.0145
2088.00,0.0145
2087.00,0.0145
2086.00,0.0144
2085.00,0.0144
2084.00,0.0144
2083.00,0.0144
2082.00,0.0144
2081.00,0.0143
2080.00,0.0143
2079.00,0.0143
2078.00,0.0143
2077.00,0.0144
2076.00,0.0144
2075.00,0.0143
2074.00,0.0142
2073.00,0.0142
2072.00,0.0141
2071.00,0.0142
2070.00,0.0142
2069.00,0.0143
2068.00,0.0144
2067.00,0.0143
2066.00,0.0143
2065.00,0.0143
2064.00,0.0143
2063.00,0.0143
2062.00,0.0144
2061.00,0.0144
2060.00,0.0143
2059.00,0.0142
2058.00,0.0142
2057.00,0.0142
2056.00,0.0142
2055.00,0.0143
2054.00,0.0143
2053.00,0.0144
2052.00,0.0145
2051.00,0.0146
2050.00,0.0146
2049.00,0.0146
2048.00,0.0146
2047.00,0.0145
2046.00,0.0144
2045.00,0.0143
2044.00,0.0143
2043.00,0.0143
2042.00,0.0143
2041.00,0.0144
2040.00,0.0145
2039.00,0.0146
2038.00,0.0146
2037.00,0.0147
2036.00,0.0146
2035.00,0.0146
2034.00,0.0144
2033.00,0.0143
2032.00,0.0142
2031.00,0.0142
2030.00,0.0142
2029.00,0.0142
2028.00,0.0141
2027.00,0.0140
2026.00,0.0139
2025.00,0.0139
2024.00,0.0139
2023.00,0.0140
2022.00,0.0141
2021.00,0.0142
2020.00,0.0142
2019.00,0.0141
2018.00,0.0139
2017.00,0.0138
2016.00,0.0138
2015.00,0.0139
2014.00,0.0139
2013.00,0.0138
2012.00,0.0137
2011.00,0.0135
2010.00,0.0134
2009.00,0.0134
2008.00,0.0134
2007.00,0.0134
2006.00,0.0133
2005.00,0.0133
2004.00,0.0133
2003.00,0.0134
2002.00,0.0134
2001.00,0.0135
2000.00,0.0137
1999.00,0.0139
1998.00,0.0140
1997.00,0.0140
1996.00,0.0139
1995.00,0.0138
1994.00,0.0138
1993.00,0.0139
1992.00,0.0139
1991.00,0.0138
1990.00,0.0136
1989.00,0.0135
1988.00,0.0134
1987.00,0.0134
1986.00,0.0134
1985.00,0.0135
1984.00,0.0136
1983.00,0.0137
1982.00,0.0139
1981.00,0.0140
1980.00,0.0139
1979.00,0.0137
1978.00,0.0136
1977.00,0.0135
1976.00,0.0136
1975.00,0.0135
1974.00,0.0135
1973.00,0.0134
1972.00,0.0135
1971.00,0.0136
1970.00,0.0137
1969.00,0.0138
1968.00,0.0138
1967.00,0.0136
1966.00,0.0134
1965.00,0.0132
1964.00,0.0131
1963.00,0.0131
1962.00,0.0133
1961.00,0.0134
1960.00,0.0134
1959.00,0.0134
1958.00,0.0132
1957.00,0.0130
1956.00,0.0127
1955.00,0.0125
1954.00,0.0125
1953.00,0.0125
1952.00,0.0126
1951.00,0.0126
1950.00,0.0126
1949.00,0.0125
1948.00,0.0125
1947.00,0.0125
1946.00,0.0125
1945.00,0.0126
1944.00,0.0127
1943.00,0.0126
1942.00,0.0126
1941.00,0.0125
1940.00,0.0125
1939.00,0.0125
1938.00,0.0125
1937.00,0.0125
1936.00,0.0125
1935.00,0.0125
1934.00,0.0125
1933.00,0.0125
1932.00,0.0125
1931.00,0.0125
1930.00,0.0125
1929.00,0.0124
1928.00,0.0123
1927.00,0.0123
1926.00,0.0124
1925.00,0.0125
1924.00,0.0126
1923.00,0.0125
1922.00,0.0124
1921.00,0.0123
1920.00,0.0122
1919.00,0.0122
1918.00,0.0121
1917.00,0.0120
1916.00,0.0120
1915.00,0.0120
1914.00,0.0119
1913.00,0.0119
1912.00,0.0119
1911.00,0.0119
1910.00,0.0119
1909.00,0.0119
1908.00,0.0118
1907.00,0.0117
1906.00,0.0117
1905.00,0.0117
1904.00,0.0117
1903.00,0.0116
1902.00,0.0116
1901.00,0.0115
1900.00,0.0114
1899.00,0.0114
1898.00,0.0114
1897.00,0.0114
1896.00,0.0114
1895.00,0.0114
1894.00,0.0114
1893.00,0.0115
1892.00,0.0115
1891.00,0.0114
1890.00,0.0112
1889.00,0.0111
1888.00,0.0110
1887.00,0.0109
1886.00,0.0110
1885.00,0.0110
1884.00,0.0110
1883.00,0.0110
1882.00,0.0110
1881.00,0.0110
1880.00,0.0110
1879.00,0.0110
1878.00,0.0109
1877.00,0.0109
1876.00,0.0108
1875.00,0.0108
1874.00,0.0107
1873.00,0.0108
1872.00,0.0109
1871.00,0.0110
1870.00,0.0108
1869.00,0.0106
1868.00,0.0104
1867.00,0.0104
1866.00,0.0105
1865.00,0.0106
1864.00,0.0106
1863.00,0.0105
1862.00,0.0104
1861.00,0.0103
1860.00,0.0103
1859.00,0.0103
1858.00,0.0102
1857.00,0.0102
1856.00,0.0103
1855.00,0.0103
1854.00,0.0102
1853.00,0.0101
1852.00,0.0100
1851.00,0.0100
1850.00,0.0100
1849.00,0.0100
1848.00,0.0100
1847.00,0.0101
1846.00,0.0101
1845.00,0.0099
1844.00,0.0096
1843.00,0.0095
1842.00,0.0095
1841.00,0.0096
1840.00,0.0097
1839.00,0.0096
1838.00,0.0095
1837.00,0.0095
1836.00,0.0094
1835.00,0.0094
1834.00,0.0095
1833.00,0.0096
1832.00,0.0098
1831.00,0.0097
1830.00,0.0095
1829.00,0.0093
1828.00,0.0093
1827.00,0.0094
1826.00,0.0094
1825.00,0.0093
1824.00,0.0091
1823.00,0.0090
1822.00,0.0090
1821.00,0.0089
1820.00,0.0089
1819.00,0.0088
1818.00,0.0087
1817.00,0.0087
1816.00,0.0087
1815.00,0.0088
1814.00,0.0088
1813.00,0.0088
1812.00,0.0087
1811.00,0.0086
1810.00,0.0085
1809.00,0.0084
1808.00,0.0084
1807.00,0.0085
1806.00,0.0085
1805.00,0.0086
1804.00,0.0087
1803.00,0.0088
1802.00,0.0088
1801.00,0.0087
1800.00,0.0086
1799.00,0.0085
1798.00,0.0085
1797.00,0.0085
1796.00,0.0086
1795.00,0.0086
1794.00,0.0086
1793.00,0.0084
1792.00,0.0083
1791.00,0.0083
1790.00,0.0084
1789.00,0.0085
1788.00,0.0086
1787.00,0.0086
1786.00,0.0086
1785.00,0.0086
1784.00,0.0087
1783.00,0.0089
1782.00,0.0090
1781.00,0.0091
1780.00,0.0091
1779.00,0.0091
1778.00,0.0092
1777.00,0.0093
1776.00,0.0095
1775.00,0.0097
1774.00,0.0098
1773.00,0.0097
1772.00,0.0095
1771.00,0.0095
1770.00,0.0096
1769.00,0.0096
1768.00,0.0096
1767.00,0.0097
1766.00,0.0098
1765.00,0.0100
1764.00,0.0103
1763.00,0.0103
1762.00,0.0103
1761.00,0.0102
1760.00,0.0103
1759.00,0.0104
1758.00,0.0105
1757.00,0.0104
1756.00,0.0104
1755.00,0.0104
1754.00,0.0105
1753.00,0.0106
1752.00,0.0106
1751.00,0.0106
1750.00,0.0107
1749.00,0.0108
1748.00,0.0110
1747.00,0.0111
1746.00,0.0113
1745.00,0.0114
1744.00,0.0116
1743.00,0.0118
1742.00,0.0119
1741.00,0.0120
1740.00,0.0119
1739.00,0.0120
1738.00,0.0121
1737.00,0.0124
1736.00,0.0126
1735.00,0.0125
1734.00,0.0124
1733.00,0.0126
1732.00,0.0130
1731.00,0.0133
1730.00,0.0136
1729.00,0.0138
1728.00,0.0139
1727.00,0.0141
1726.00,0.0142
1725.00,0.0144
1724.00,0.0145
1723.00,0.0146
1722.00,0.0148
1721.00,0.0150
1720.00,0.0153
1719.00,0.0152
1718.00,0.0149
1717.00,0.0148
1716.00,0.0150
1715.00,0.0152
1714.00,0.0154
1713.00,0.0156
1712.00,0.0157
1711.00,0.0157
1710.00,0.0158
1709.00,0.0159
1708.00,0.0160
1707.00,0.0161
1706.00,0.0162
1705.00,0.0163
1704.00,0.0164
1703.00,0.0166
1702.00,0.0167
1701.00,0.0166
1700.00,0.0162
1699.00,0.0160
1698.00,0.0160
1697.00,0.0163
1696.00,0.0165
1695.00,0.0165
1694.00,0.0164
1693.00,0.0165
1692.00,0.0166
1691.00,0.0167
1690.00,0.0167
1689.00,0.0167
1688.00,0.0169
1687.00,0.0171
1686.00,0.0172
1685.00,0.0172
1684.00,0.0172
1683.00,0.0173
1682.00,0.0173
1681.00,0.0173
1680.00,0.0174
1679.00,0.0175
1678.00,0.0175
1677.00,0.0176
1676.00,0.0176
1675.00,0.0176
1674.00,0.0177
1673.00,0.0178
1672.00,0.0180
1671.00,0.0181
1670.00,0.0182
1669.00,0.0183
1668.00,0.0184
1667.00,0.0185
1666.00,0.0186
1665.00,0.0187
1664.00,0.0187
1663.00,0.0187
1662.00,0.0188
1661.00,0.0189
1660.00,0.0190
1659.00,0.0191
1658.00,0.0192
1657.00,0.0193
1656.00,0.0196
1655.00,0.0199
1654.00,0.0201
1653.00,0.0203
1652.00,0.0201
1651.00,0.0199
1650.00,0.0200
1649.00,0.0201
1648.00,0.0202
1647.00,0.0202
1646.00,0.0205
1645.00,0.0206
1644.00,0.0206
1643.00,0.0207
1642.00,0.0208
1641.00,0.0209
1640.00,0.0210
1639.00,0.0211
1638.00,0.0212
1637.00,0.0213
1636.00,0.0216
1635.00,0.0219
1634.00,0.0219
1633.00,0.0219
1632.00,0.0220
1631.00,0.0221
1630.00,0.0222
1629.00,0.0224
1628.00,0.0226
1627.00,0.0227
1626.00,0.0229
1625.00,0.0230
1624.00,0.0230
1623.00,0.0231
1622.00,0.0232
1621.00,0.0233
1620.00,0.0233
1619.00,0.0234
1618.00,0.0234
1617.00,0.0236
1616.00,0.0237
1615.00,0.0239
1614.00,0.0240
1613.00,0.0241
1612.00,0.0242
1611.00,0.0243
1610.00,0.0244
1609.00,0.0246
1608.00,0.0248
1607.00,0.0249
1606.00,0.0250
1605.00,0.0250
1604.00,0.0251
1603.00,0.0252
1602.00,0.0253
1601.00,0.0254
1600.00,0.0255
1599.00,0.0256
1598.00,0.0256
1597.00,0.0257
1596.00,0.0257
1595.00,0.0258
1594.00,0.0259
1593.00,0.0259
1592.00,0.0259
1591.00,0.0260
1590.00,0.0261
1589.00,0.0262
1588.00,0.0262
1587.00,0.0263
1586.00,0.0263
1585.00,0.0263
1584.00,0.0263
1583.00,0.0263
1582.00,0.0264
1581.00,0.0264
1580.00,0.0264
1579.00,0.0265
1578.00,0.0266
1577.00,0.0266
1576.00,0.0266
1575.00,0.0267
1574.00,0.0267
1573.00,0.0267
1572.00,0.0267
1571.00,0.0267
1570.00,0.0268
1569.00,0.0269
1568.00,0.0269
1567.00,0.0268
1566.00,0.0268
1565.00,0.0268
1564.00,0.0268
1563.00,0.0267
1562.00,0.0269
1561.00,0.0271
1560.00,0.0271
1559.00,0.0272
1558.00,0.0274
1557.00,0.0270
1556.00,0.0264
1555.00,0.0262
1554.00,0.0261
1553.00,0.0260
1552.00,0.0260
1551.00,0.0261
1550.00,0.0261
1549.00,0.0260
1548.00,0.0257
1547.00,0.0255
1546.00,0.0253
1545.00,0.0251
1544.00,0.0249
1543.00,0.0246
1542.00,0.0242
1541.00,0.0240
1540.00,0.0244
1539.00,0.0247
1538.00,0.0245
1537.00,0.0242
1536.00,0.0241
1535.00,0.0241
1534.00,0.0243
1533.00,0.0245
1532.00,0.0245
1531.00,0.0243
1530.00,0.0241
1529.00,0.0239
1528.00,0.0238
1527.00,0.0237
1526.00,0.0236
1525.00,0.0235
1524.00,0.0234
1523.00,0.0232
1522.00,0.0231
1521.00,0.0232
1520.00,0.0234
1519.00,0.0236
1518.00,0.0236
1517.00,0.0235
1516.00,0.0234
1515.00,0.0231
1514.00,0.0228
1513.00,0.0227
1512.00,0.0226
1511.00,0.0227
1510.00,0.0228
1509.00,0.0229
1508.00,0.0228
1507.00,0.0229
1506.00,0.0228
1505.00,0.0224
1504.00,0.0221
1503.00,0.0219
1502.00,0.0218
1501.00,0.0217
1500.00,0.0216
1499.00,0.0215
1498.00,0.0213
1497.00,0.0212
1496.00,0.0213
1495.00,0.0214
1494.00,0.0215
1493.00,0.0215
1492.00,0.0216
1491.00,0.0217
1490.00,0.0218
1489.00,0.0221
1488.00,0.0222
1487.00,0.0220
1486.00,0.0218
1485.00,0.0217
1484.00,0.0216
1483.00,0.0215
1482.00,0.0215
1481.00,0.0214
1480.00,0.0215
1479.00,0.0215
1478.00,0.0215
1477.00,0.0215
1476.00,0.0214
1475.00,0.0212
1474.00,0.0210
1473.00,0.0209
1472.00,0.0211
1471.00,0.0213
1470.00,0.0213
1469.00,0.0213
1468.00,0.0213
1467.00,0.0213
1466.00,0.0212
1465.00,0.0212
1464.00,0.0212
1463.00,0.0212
1462.00,0.0212
1461.00,0.0212
1460.00,0.0212
1459.00,0.0211
1458.00,0.0209
1457.00,0.0209
1456.00,0.0212
1455.00,0.0214
1454.00,0.0216
1453.00,0.0217
1452.00,0.0219
1451.00,0.0220
1450.00,0.0221
1449.00,0.0223
1448.00,0.0225
1447.00,0.0226
1446.00,0.0226
1445.00,0.0226
1444.00,0.0226
1443.00,0.0226
1442.00,0.0227
1441.00,0.0227
1440.00,0.0227
1439.00,0.0227
1438.00,0.0227
1437.00,0.0228
1436.00,0.0229
1435.00,0.0231
1434.00,0.0231
1433.00,0.0232
1432.00,0.0232
1431.00,0.0233
1430.00,0.0234
1429.00,0.0235
1428.00,0.0235
1427.00,0.0235
1426.00,0.0235
1425.00,0.0235
1424.00,0.0236
1423.00,0.0236
1422.00,0.0236
1421.00,0.0236
1420.00,0.0237
1419.00,0.0239
1418.00,0.0241
1417.00,0.0241
1416.00,0.0241
1415.00,0.0241
1414.00,0.0240
1413.00,0.0240
1412.00,0.0240
1411.00,0.0240
1410.00,0.0240
1409.00,0.0240
1408.00,0.0240
1407.00,0.0240
1406.00,0.0241
1405.00,0.0241
1404.00,0.0242
1403.00,0.0242
1402.00,0.0242
1401.00,0.0242
1400.00,0.0242
1399.00,0.0242
1398.00,0.0243
1397.00,0.0243
1396.00,0.0244
1395.00,0.0246
1394.00,0.0246
1393.00,0.0245
1392.00,0.0244
1391.00,0.0244
1390.00,0.0244
1389.00,0.0245
1388.00,0.0245
1387.00,0.0247
1386.00,0.0249
1385.00,0.0249
1384.00,0.0249
1383.00,0.0249
1382.00,0.0249
1381.00,0.0249
1380.00,0.0250
1379.00,0.0250
1378.00,0.0251
1377.00,0.0251
1376.00,0.0252
1375.00,0.0254
1374.00,0.0255
1373.00,0.0255
1372.00,0.0254
1371.00,0.0254
1370.00,0.0255
1369.00,0.0255
1368.00,0.0256
1367.00,0.0255
1366.00,0.0255
1365.00,0.0256
1364.00,0.0257
1363.00,0.0258
1362.00,0.0258
1361.00,0.0258
1360.00,0.0258
1359.00,0.0257
1358.00,0.0257
1357.00,0.0257
1356.00,0.0256
1355.00,0.0256
1354.00,0.0256
1353.00,0.0256
1352.00,0.0255
1351.00,0.0255
1350.00,0.0254
1349.00,0.0254
1348.00,0.0255
1347.00,0.0255
1346.00,0.0255
1345.00,0.0255
1344.00,0.0255
1343.00,0.0255
1342.00,0.0255
1341.00,0.0255
1340.00,0.0256
1339.00,0.0257
1338.00,0.0257
1337.00,0.0256
1336.00,0.0255
1335.00,0.0254
1334.00,0.0253
1333.00,0.0253
1332.00,0.0253
1331.00,0.0252
1330.00,0.0252
1329.00,0.0252
1328.00,0.0252
1327.00,0.0251
1326.00,0.0251
1325.00,0.0252
1324.00,0.0252
1323.00,0.0252
1322.00,0.0252
1321.00,0.0251
1320.00,0.0251
1319.00,0.0252
1318.00,0.0252
1317.00,0.0253
1316.00,0.0253
1315.00,0.0253
1314.00,0.0253
1313.00,0.0253
1312.00,0.0253
1311.00,0.0252
1310.00,0.0252
1309.00,0.0251
1308.00,0.0251
1307.00,0.0251
1306.00,0.0251
1305.00,0.0251
1304.00,0.0251
1303.00,0.0251
1302.00,0.0252
1301.00,0.0252
1300.00,0.0252
1299.00,0.0252
1298.00,0.0252
1297.00,0.0251
1296.00,0.0251
1295.00,0.0252
1294.00,0.0252
1293.00,0.0252
1292.00,0.0252
1291.00,0.0253
1290.00,0.0253
1289.00,0.0254
1288.00,0.0254
1287.00,0.0255
1286.00,0.0254
1285.00,0.0254
1284.00,0.0254
1283.00,0.0254
1282.00,0.0254
1281.00,0.0255
1280.00,0.0255
1279.00,0.0255
1278.00,0.0255
1277.00,0.0255
1276.00,0.0256
1275.00,0.0256
1274.00,0.0256
1273.00,0.0256
1272.00,0.0256
1271.00,0.0255
1270.00,0.0255
1269.00,0.0255
1268.00,0.0255
1267.00,0.0255
1266.00,0.0255
1265.00,0.0254
1264.00,0.0253
1263.00,0.0253
1262.00,0.0253
1261.00,0.0253
1260.00,0.0254
1259.00,0.0255
1258.00,0.0256
1257.00,0.0257
1256.00,0.0258
1255.00,0.0259
1254.00,0.0259
1253.00,0.0260
1252.00,0.0261
1251.00,0.0262
1250.00,0.0263
1249.00,0.0263
1248.00,0.0264
1247.00,0.0264
1246.00,0.0264
1245.00,0.0265
1244.00,0.0265
1243.00,0.0265
1242.00,0.0266
1241.00,0.0266
1240.00,0.0266
1239.00,0.0266
1238.00,0.0267
1237.00,0.0267
1236.00,0.0267
1235.00,0.0267
1234.00,0.0267
1233.00,0.0267
1232.00,0.0267
1231.00,0.0268
1230.00,0.0269
1229.00,0.0269
1228.00,0.0268
1227.00,0.0268
1226.00,0.0268
1225.00,0.0269
1224.00,0.0270
1223.00,0.0270
1222.00,0.0270
1221.00,0.0269
1220.00,0.0269
1219.00,0.0269
1218.00,0.0269
1217.00,0.0269
1216.00,0.0269
1215.00,0.0269
1214.00,0.0269
1213.00,0.0270
1212.00,0.0270
1211.00,0.0270
1210.00,0.0270
1209.00,0.0269
1208.00,0.0269
1207.00,0.0269
1206.00,0.0269
1205.00,0.0268
1204.00,0.0268
1203.00,0.0268
1202.00,0.0268
1201.00,0.0268
1200.00,0.0268
1199.00,0.0268
1198.00,0.0268
1197.00,0.0268
1196.00,0.0268
1195.00,0.0268
1194.00,0.0268
1193.00,0.0268
1192.00,0.0268
1191.00,0.0268
1190.00,0.0269
1189.00,0.0269
1188.00,0.0269
1187.00,0.0269
1186.00,0.0269
1185.00,0.0269
1184.00,0.0269
1183.00,0.0269
1182.00,0.0268
1181.00,0.0268
1180.00,0.0268
1179.00,0.0269
1178.00,0.0270
1177.00,0.0270
1176.00,0.0270
1175.00,0.0270
1174.00,0.0270
1173.00,0.0270
1172.00,0.0269
1171.00,0.0269
1170.00,0.0268
1169.00,0.0269
1168.00,0.0270
1167.00,0.0271
1166.00,0.0272
1165.00,0.0272
1164.00,0.0272
1163.00,0.0272
1162.00,0.0271
1161.00,0.0270
1160.00,0.0270
1159.00,0.0271
1158.00,0.0271
1157.00,0.0270
1156.00,0.0270
1155.00,0.0270
1154.00,0.0270
1153.00,0.0270
1152.00,0.0270
1151.00,0.0271
1150.00,0.0271
1149.00,0.0272
1148.00,0.0272
1147.00,0.0273
1146.00,0.0273
1145.00,0.0273
1144.00,0.0273
1143.00,0.0272
1142.00,0.0271
1141.00,0.0271
1140.00,0.0271
1139.00,0.0273
1138.00,0.0274
1137.00,0.0275
1136.00,0.0275
1135.00,0.0276
1134.00,0.0276
1133.00,0.0277
1132.00,0.0277
1131.00,0.0278
1130.00,0.0279
1129.00,0.0280
1128.00,0.0281
1127.00,0.0282
1126.00,0.0283
1125.00,0.0283
1124.00,0.0284
1123.00,0.0284
1122.00,0.0285
1121.00,0.0286
1120.00,0.0287
1119.00,0.0289
1118.00,0.0290
1117.00,0.0291
1116.00,0.0292
1115.00,0.0292
1114.00,0.0292
1113.00,0.0292
1112.00,0.0292
1111.00,0.0292
1110.00,0.0293
1109.00,0.0294
1108.00,0.0295
1107.00,0.0296
1106.00,0.0297
1105.00,0.0298
1104.00,0.0299
1103.00,0.0300
1102.00,0.0300
1101.00,0.0300
1100.00,0.0301
1099.00,0.0302
1098.00,0.0303
1097.00,0.0303
1096.00,0.0304
1095.00,0.0304
1094.00,0.0305
1093.00,0.0307
1092.00,0.0309
1091.00,0.0310
1090.00,0.0310
1089.00,0.0310
1088.00,0.0311
1087.00,0.0312
1086.00,0.0312
1085.00,0.0311
1084.00,0.0311
1083.00,0.0312
1082.00,0.0314
1081.00,0.0314
1080.00,0.0314
1079.00,0.0314
1078.00,0.0314
1077.00,0.0315
1076.00,0.0317
1075.00,0.0318
1074.00,0.0319
1073.00,0.0320
1072.00,0.0321
1071.00,0.0321
1070.00,0.0322
1069.00,0.0322
1068.00,0.0322
1067.00,0.0323
1066.00,0.0323
1065.00,0.0323
1064.00,0.0324
1063.00,0.0324
1062.00,0.0324
1061.00,0.0324
1060.00,0.0325
1059.00,0.0326
1058.00,0.0327
1057.00,0.0328
1056.00,0.0328
1055.00,0.0329
1054.00,0.0330
1053.00,0.0331
1052.00,0.0333
1051.00,0.0335
1050.00,0.0336
1049.00,0.0337
1048.00,0.0338
1047.00,0.0340
1046.00,0.0341
1045.00,0.0342
1044.00,0.0342
1043.00,0.0342
1042.00,0.0342
1041.00,0.0343
1040.00,0.0343
1039.00,0.0343
1038.00,0.0344
1037.00,0.0345
1036.00,0.0346
1035.00,0.0347
1034.00,0.0348
1033.00,0.0349
1032.00,0.0349
1031.00,0.0348
1030.00,0.0347
1029.00,0.0345
1028.00,0.0344
1027.00,0.0342
1026.00,0.0341
1025.00,0.0339
1024.00,0.0337
1023.00,0.0337
1022.00,0.0337
1021.00,0.0336
1020.00,0.0335
1019.00,0.0334
1018.00,0.0333
1017.00,0.0333
1016.00,0.0333
1015.00,0.0333
1014.00,0.0334
1013.00,0.0334
1012.00,0.0335
1011.00,0.0336
1010.00,0.0337
1009.00,0.0338
1008.00,0.0338
1007.00,0.0339
1006.00,0.0339
1005.00,0.0339
1004.00,0.0339
1003.00,0.0339
1002.00,0.0338
1001.00,0.0338
1000.00,0.0337
999.00,0.0336
998.00,0.0334
997.00,0.0331
996.00,0.0328
995.00,0.0325
994.00,0.0323
993.00,0.0322
992.00,0.0321
991.00,0.0320
990.00,0.0318
989.00,0.0315
988.00,0.0314
987.00,0.0313
986.00,0.0312
985.00,0.0311
984.00,0.0310
983.00,0.0308
982.00,0.0307
981.00,0.0305
980.00,0.0304
979.00,0.0302
978.00,0.0300
977.00,0.0298
976.00,0.0296
975.00,0.0294
974.00,0.0293
973.00,0.0292
972.00,0.0291
971.00,0.0291
970.00,0.0291
969.00,0.0291
968.00,0.0290
967.00,0.0289
966.00,0.0288
965.00,0.0286
964.00,0.0285
963.00,0.0283
962.00,0.0282
961.00,0.0282
960.00,0.0281
959.00,0.0281
958.00,0.0279
957.00,0.0278
956.00,0.0277
955.00,0.0278
954.00,0.0279
953.00,0.0280
952.00,0.0280
951.00,0.0280
950.00,0.0279
949.00,0.0279
948.00,0.0279
947.00,0.0280
946.00,0.0281
945.00,0.0282
944.00,0.0283
943.00,0.0283
942.00,0.0283
941.00,0.0283
940.00,0.0284
939.00,0.0284
938.00,0.0284
937.00,0.0284
936.00,0.0285
935.00,0.0285
934.00,0.0285
933.00,0.0284
932.00,0.0283
931.00,0.0283
930.00,0.0283
929.00,0.0284
928.00,0.0284
927.00,0.0285
926.00,0.0286
925.00,0.0287
924.00,0.0287
923.00,0.0288
922.00,0.0288
921.00,0.0289
920.00,0.0289
919.00,0.0291
918.00,0.0292
917.00,0.0294
916.00,0.0295
915.00,0.0295
914.00,0.0296
913.00,0.0296
912.00,0.0297
911.00,0.0297
910.00,0.0296
909.00,0.0295
908.00,0.0295
907.00,0.0294
906.00,0.0293
905.00,0.0292
904.00,0.0291
903.00,0.0290
902.00,0.0289
901.00,0.0288
900.00,0.0287
899.00,0.0287
898.00,0.0286
897.00,0.0285
896.00,0.0284
895.00,0.0283
894.00,0.0283
893.00,0.0283
892.00,0.0284
891.00,0.0284
890.00,0.0283
889.00,0.0283
888.00,0.0283
887.00,0.0282
886.00,0.0282
885.00,0.0281
884.00,0.0281
883.00,0.0280
882.00,0.0280
881.00,0.0280
880.00,0.0280
879.00,0.0279
878.00,0.0278
877.00,0.0277
876.00,0.0277
875.00,0.0277
874.00,0.0277
873.00,0.0275
872.00,0.0273
871.00,0.0271
870.00,0.0270
869.00,0.0271
868.00,0.0271
867.00,0.0271
866.00,0.0272
865.00,0.0272
864.00,0.0271
863.00,0.0270
862.00,0.0269
861.00,0.0268
860.00,0.0269
859.00,0.0270
858.00,0.0271
857.00,0.0272
856.00,0.0273
855.00,0.0274
854.00,0.0274
853.00,0.0273
852.00,0.0272
851.00,0.0271
850.00,0.0271
849.00,0.0270
848.00,0.0271
847.00,0.0272
846.00,0.0274
845.00,0.0275
844.00,0.0276
843.00,0.0277
842.00,0.0277
841.00,0.0277
840.00,0.0278
839.00,0.0279
838.00,0.0281
837.00,0.0283
836.00,0.0284
835.00,0.0284
834.00,0.0283
833.00,0.0284
832.00,0.0285
831.00,0.0287
830.00,0.0288
829.00,0.0288
828.00,0.0287
827.00,0.0286
826.00,0.0286
825.00,0.0285
824.00,0.0285
823.00,0.0287
822.00,0.0288
821.00,0.0290
820.00,0.0291
819.00,0.0291
818.00,0.0292
817.00,0.0292
816.00,0.0291
815.00,0.0290
814.00,0.0289
813.00,0.0288
812.00,0.0288
811.00,0.0290
810.00,0.0293
809.00,0.0295
808.00,0.0296
807.00,0.0296
806.00,0.0296
805.00,0.0296
804.00,0.0297
803.00,0.0298
802.00,0.0301
801.00,0.0304
800.00,0.0306
799.00,0.0307
798.00,0.0307
797.00,0.0308
796.00,0.0309
795.00,0.0311
794.00,0.0312
793.00,0.0312
792.00,0.0312
791.00,0.0312
790.00,0.0312
789.00,0.0314
788.00,0.0316
787.00,0.0317
786.00,0.0318
785.00,0.0320
784.00,0.0321
783.00,0.0322
782.00,0.0322
781.00,0.0323
780.00,0.0323
779.00,0.0322
778.00,0.0321
777.00,0.0321
776.00,0.0322
775.00,0.0323
774.00,0.0324
773.00,0.0325
772.00,0.0325
771.00,0.0326
770.00,0.0325
769.00,0.0325
768.00,0.0324
767.00,0.0322
766.00,0.0321
765.00,0.0321
764.00,0.0321
763.00,0.0323
762.00,0.0324
761.00,0.0325
760.00,0.0326
759.00,0.0328
758.00,0.0330
757.00,0.0332
756.00,0.0334
755.00,0.0334
754.00,0.0334
753.00,0.0335
752.00,0.0336
751.00,0.0338
750.00,0.0338
749.00,0.0338
748.00,0.0338
747.00,0.0336
746.00,0.0334
745.00,0.0334
744.00,0.0335
743.00,0.0336
742.00,0.0337
741.00,0.0337
740.00,0.0336
739.00,0.0334
738.00,0.0333
737.00,0.0332
736.00,0.0333
735.00,0.0333
734.00,0.0333
733.00,0.0333
732.00,0.0334
731.00,0.0335
730.00,0.0336
729.00,0.0335
728.00,0.0334
727.00,0.0334
726.00,0.0335
725.00,0.0336
724.00,0.0337
723.00,0.0337
722.00,0.0337
721.00,0.0337
720.00,0.0336
719.00,0.0335
718.00,0.0334
717.00,0.0334
716.00,0.0336
715.00,0.0339
714.00,0.0343
713.00,0.0347
712.00,0.0351
711.00,0.0352
710.00,0.0351
709.00,0.0349
708.00,0.0347
707.00,0.0348
706.00,0.0352
705.00,0.0357
704.00,0.0362
703.00,0.0363
702.00,0.0362
701.00,0.0362
700.00,0.0363
699.00,0.0365
698.00,0.0367
697.00,0.0369
696.00,0.0369
695.00,0.0368
694.00,0.0365
693.00,0.0362
692.00,0.0361
691.00,0.0361
690.00,0.0362
689.00,0.0363
688.00,0.0363
687.00,0.0362
686.00,0.0360
685.00,0.0359
684.00,0.0358
683.00,0.0360
682.00,0.0363
681.00,0.0368
680.00,0.0370
679.00,0.0371
678.00,0.0372
677.00,0.0374
676.00,0.0377
675.00,0.0379
674.00,0.0379
673.00,0.0377
672.00,0.0373
671.00,0.0368
670.00,0.0365
669.00,0.0369
668.00,0.0384
667.00,0.0394
666.00,0.0394
665.00,0.0389
664.00,0.0384
663.00,0.0380
662.00,0.0376
661.00,0.0376
660.00,0.0381
659.00,0.0388
658.00,0.0393
657.00,0.0394
656.00,0.0393
655.00,0.0393
654.00,0.0393
653.00,0.0392
652.00,0.0391
651.00,0.0389
650.00,0.0390
