Created as New Dataset,Monday, April 03 2023
cm-1,A
4000.00,0.0142
3999.00,0.0142
3998.00,0.0142
3997.00,0.0142
3996.00,0.0142
3995.00,0.0142
3994.00,0.0142
3993.00,0.0143
3992.00,0.0143
3991.00,0.0143
3990.00,0.0143
3989.00,0.0143
3988.00,0.0142
3987.00,0.0142
3986.00,0.0142
3985.00,0.0141
3984.00,0.0141
3983.00,0.0141
3982.00,0.0141
3981.00,0.0141
3980.00,0.0141
3979.00,0.0141
3978.00,0.0141
3977.00,0.0141
3976.00,0.0141
3975.00,0.0140
3974.00,0.0140
3973.00,0.0141
3972.00,0.0141
3971.00,0.0141
3970.00,0.0141
3969.00,0.0140
3968.00,0.0140
3967.00,0.0140
3966.00,0.0140
3965.00,0.0140
3964.00,0.0140
3963.00,0.0140
3962.00,0.0141
3961.00,0.0140
3960.00,0.0140
3959.00,0.0140
3958.00,0.0140
3957.00,0.0140
3956.00,0.0139
3955.00,0.0139
3954.00,0.0139
3953.00,0.0139
3952.00,0.0139
3951.00,0.0139
3950.00,0.0140
3949.00,0.0140
3948.00,0.0140
3947.00,0.0140
3946.00,0.0140
3945.00,0.0140
3944.00,0.0139
3943.00,0.0138
3942.00,0.0138
3941.00,0.0138
3940.00,0.0138
3939.00,0.0139
3938.00,0.0139
3937.00,0.0139
3936.00,0.0140
3935.00,0.0140
3934.00,0.0141
3933.00,0.0141
3932.00,0.0141
3931.00,0.0140
3930.00,0.0139
3929.00,0.0139
3928.00,0.0138
3927.00,0.0137
3926.00,0.0137
3925.00,0.0137
3924.00,0.0137
3923.00,0.0138
3922.00,0.0138
3921.00,0.0139
3920.00,0.0139
3919.00,0.0140
3918.00,0.0140
3917.00,0.0139
3916.00,0.0138
3915.00,0.0137
3914.00,0.0137
3913.00,0.0137
3912.00,0.0136
3911.00,0.0137
3910.00,0.0137
3909.00,0.0137
3908.00,0.0137
3907.00,0.0137
3906.00,0.0138
3905.00,0.0139
3904.00,0.0141
3903.00,0.0142
3902.00,0.0142
3901.00,0.0141
3900.00,0.0140
3899.00,0.0139
3898.00,0.0139
3897.00,0.0139
3896.00,0.0139
3895.00,0.0138
3894.00,0.0138
3893.00,0.0137
3892.00,0.0137
3891.00,0.0137
3890.00,0.0137
3889.00,0.0138
3888.00,0.0138
3887.00,0.0139
3886.00,0.0139
3885.00,0.0138
3884.00,0.0138
3883.00,0.0138
3882.00,0.0136
3881.00,0.0135
3880.00,0.0135
3879.00,0.0136
3878.00,0.0136
3877.00,0.0136
3876.00,0.0136
3875.00,0.0135
3874.00,0.0135
3873.00,0.0136
3872.00,0.0137
3871.00,0.0137
3870.00,0.0137
3869.00,0.0137
3868.00,0.0137
3867.00,0.0138
3866.00,0.0138
3865.00,0.0137
3864.00,0.0135
3863.00,0.0135
3862.00,0.0136
3861.00,0.0136
3860.00,0.0136
3859.00,0.0136
3858.00,0.0135
3857.00,0.0135
3856.00,0.0136
3855.00,0.0137
3854.00,0.0137
3853.00,0.0136
3852.00,0.0135
3851.00,0.0135
3850.00,0.0136
3849.00,0.0136
3848.00,0.0136
3847.00,0.0135
3846.00,0.0135
3845.00,0.0135
3844.00,0.0134
3843.00,0.0135
3842.00,0.0135
3841.00,0.0135
3840.00,0.0135
3839.00,0.0135
3838.00,0.0135
3837.00,0.0134
3836.00,0.0134
3835.00,0.0134
3834.00,0.0134
3833.00,0.0134
3832.00,0.0135
3831.00,0.0135
3830.00,0.0135
3829.00,0.0135
3828.00,0.0134
3827.00,0.0134
3826.00,0.0133
3825.00,0.0134
3824.00,0.0135
3823.00,0.0136
3822.00,0.0136
3821.00,0.0135
3820.00,0.0135
3819.00,0.0135
3818.00,0.0135
3817.00,0.0134
3816.00,0.0133
3815.00,0.0132
3814.00,0.0132
3813.00,0.0133
3812.00,0.0133
3811.00,0.0133
3810.00,0.0133
3809.00,0.0133
3808.00,0.0133
3807.00,0.0134
3806.00,0.0134
3805.00,0.0134
3804.00,0.0134
3803.00,0.0134
3802.00,0.0133
3801.00,0.0132
3800.00,0.0131
3799.00,0.0132
3798.00,0.0132
3797.00,0.0132
3796.00,0.0132
3795.00,0.0132
3794.00,0.0132
3793.00,0.0132
3792.00,0.0131
3791.00,0.0131
3790.00,0.0131
3789.00,0.0131
3788.00,0.0131
3787.00,0.0130
3786.00,0.0130
3785.00,0.0130
3784.00,0.0130
3783.00,0.0130
3782.00,0.0131
3781.00,0.0130
3780.00,0.0130
3779.00,0.0129
3778.00,0.0130
3777.00,0.0130
3776.00,0.0131
3775.00,0.0131
3774.00,0.0131
3773.00,0.0131
3772.00,0.0132
3771.00,0.0132
3770.00,0.0132
3769.00,0.0132
3768.00,0.0132
3767.00,0.0131
3766.00,0.0131
3765.00,0.0131
3764.00,0.0132
3763.00,0.0132
3762.00,0.0132
3761.00,0.0131
3760.00,0.0131
3759.00,0.0130
3758.00,0.0131
3757.00,0.0132
3756.00,0.0133
3755.00,0.0133
3754.00,0.0135
3753.00,0.0136
3752.00,0.0137
3751.00,0.0138
3750.00,0.0138
3749.00,0.0137
3748.00,0.0136
3747.00,0.0135
3746.00,0.0134
3745.00,0.0134
3744.00,0.0134
3743.00,0.0133
3742.00,0.0134
3741.00,0.0134
3740.00,0.0135
3739.00,0.0135
3738.00,0.0136
3737.00,0.0136
3736.00,0.0136
3735.00,0.0136
3734.00,0.0135
3733.00,0.0135
3732.00,0.0135
3731.00,0.0134
3730.00,0.0133
3729.00,0.0133
3728.00,0.0133
3727.00,0.0134
3726.00,0.0133
3725.00,0.0132
3724.00,0.0131
3723.00,0.0131
3722.00,0.0130
3721.00,0.0129
3720.00,0.0129
3719.00,0.0129
3718.00,0.0129
3717.00,0.0130
3716.00,0.0131
3715.00,0.0132
3714.00,0.0133
3713.00,0.0133
3712.00,0.0132
3711.00,0.0131
3710.00,0.0131
3709.00,0.0131
3708.00,0.0131
3707.00,0.0131
3706.00,0.0131
3705.00,0.0131
3704.00,0.0130
3703.00,0.0130
3702.00,0.0130
3701.00,0.0130
3700.00,0.0130
3699.00,0.0131
3698.00,0.0131
3697.00,0.0131
3696.00,0.0130
3695.00,0.0130
3694.00,0.0131
3693.00,0.0131
3692.00,0.0131
3691.00,0.0131
3690.00,0.0131
3689.00,0.0131
3688.00,0.0132
3687.00,0.0132
3686.00,0.0133
3685.00,0.0133
3684.00,0.0133
3683.00,0.0133
3682.00,0.0133
3681.00,0.0133
3680.00,0.0133
3679.00,0.0133
3678.00,0.0134
3677.00,0.0135
3676.00,0.0135
3675.00,0.0136
3674.00,0.0137
3673.00,0.0139
3672.00,0.0140
3671.00,0.0140
3670.00,0.0138
3669.00,0.0137
3668.00,0.0138
3667.00,0.0138
3666.00,0.0139
3665.00,0.0139
3664.00,0.0139
3663.00,0.0139
3662.00,0.0140
3661.00,0.0140
3660.00,0.0140
3659.00,0.0141
3658.00,0.0142
3657.00,0.0143
3656.00,0.0144
3655.00,0.0145
3654.00,0.0145
3653.00,0.0146
3652.00,0.0147
3651.00,0.0148
3650.00,0.0150
3649.00,0.0151
3648.00,0.0150
3647.00,0.0150
3646.00,0.0150
3645.00,0.0150
3644.00,0.0150
3643.00,0.0150
3642.00,0.0150
3641.00,0.0150
3640.00,0.0150
3639.00,0.0150
3638.00,0.0150
3637.00,0.0151
3636.00,0.0152
3635.00,0.0152
3634.00,0.0153
3633.00,0.0154
3632.00,0.0155
3631.00,0.0157
3630.00,0.0159
3629.00,0.0160
3628.00,0.0161
3627.00,0.0160
3626.00,0.0160
3625.00,0.0159
3624.00,0.0159
3623.00,0.0158
3622.00,0.0158
3621.00,0.0159
3620.00,0.0160
3619.00,0.0161
3618.00,0.0161
3617.00,0.0161
3616.00,0.0161
3615.00,0.0161
3614.00,0.0162
3613.00,0.0163
3612.00,0.0164
3611.00,0.0166
3610.00,0.0166
3609.00,0.0166
3608.00,0.0166
3607.00,0.0165
3606.00,0.0165
3605.00,0.0165
3604.00,0.0165
3603.00,0.0164
3602.00,0.0164
3601.00,0.0164
3600.00,0.0165
3599.00,0.0165
3598.00,0.0165
3597.00,0.0165
3596.00,0.0165
3595.00,0.0166
3594.00,0.0167
3593.00,0.0168
3592.00,0.0169
3591.00,0.0169
3590.00,0.0169
3589.00,0.0169
3588.00,0.0169
3587.00,0.0169
3586.00,0.0170
3585.00,0.0170
3584.00,0.0169
3583.00,0.0169
3582.00,0.0169
3581.00,0.0169
3580.00,0.0169
3579.00,0.0169
3578.00,0.0169
3577.00,0.0169
3576.00,0.0169
3575.00,0.0169
3574.00,0.0170
3573.00,0.0171
3572.00,0.0172
3571.00,0.0172
3570.00,0.0173
3569.00,0.0173
3568.00,0.0174
3567.00,0.0175
3566.00,0.0176
3565.00,0.0176
3564.00,0.0176
3563.00,0.0175
3562.00,0.0175
3561.00,0.0175
3560.00,0.0175
3559.00,0.0175
3558.00,0.0175
3557.00,0.0175
3556.00,0.0175
3555.00,0.0176
3554.00,0.0176
3553.00,0.0177
3552.00,0.0177
3551.00,0.0178
3550.00,0.0178
3549.00,0.0179
3548.00,0.0180
3547.00,0.0181
3546.00,0.0181
3545.00,0.0181
3544.00,0.0181
3543.00,0.0180
3542.00,0.0180
3541.00,0.0180
3540.00,0.0180
3539.00,0.0180
3538.00,0.0181
3537.00,0.0181
3536.00,0.0182
3535.00,0.0182
3534.00,0.0182
3533.00,0.0182
3532.00,0.0182
3531.00,0.0182
3530.00,0.0182
3529.00,0.0183
3528.00,0.0184
3527.00,0.0184
3526.00,0.0185
3525.00,0.0186
3524.00,0.0186
3523.00,0.0186
3522.00,0.0186
3521.00,0.0186
3520.00,0.0186
3519.00,0.0186
3518.00,0.0186
3517.00,0.0187
3516.00,0.0187
3515.00,0.0187
3514.00,0.0187
3513.00,0.0187
3512.00,0.0187
3511.00,0.0187
3510.00,0.0187
3509.00,0.0188
3508.00,0.0188
3507.00,0.0189
3506.00,0.0189
3505.00,0.0189
3504.00,0.0189
3503.00,0.0190
3502.00,0.0191
3501.00,0.0191
3500.00,0.0191
3499.00,0.0192
3498.00,0.0192
3497.00,0.0192
3496.00,0.0192
3495.00,0.0192
3494.00,0.0192
3493.00,0.0192
3492.00,0.0192
3491.00,0.0192
3490.00,0.0193
3489.00,0.0193
3488.00,0.0194
3487.00,0.0194
3486.00,0.0194
3485.00,0.0194
3484.00,0.0194
3483.00,0.0194
3482.00,0.0194
3481.00,0.0195
3480.00,0.0195
3479.00,0.0196
3478.00,0.0196
3477.00,0.0197
3476.00,0.0197
3475.00,0.0197
3474.00,0.0198
3473.00,0.0198
3472.00,0.0198
3471.00,0.0197
3470.00,0.0197
3469.00,0.0197
3468.00,0.0197
3467.00,0.0197
3466.00,0.0198
3465.00,0.0198
3464.00,0.0198
3463.00,0.0198
3462.00,0.0198
3461.00,0.0199
3460.00,0.0199
3459.00,0.0199
3458.00,0.0199
3457.00,0.0199
3456.00,0.0199
3455.00,0.0200
3454.00,0.0200
3453.00,0.0200
3452.00,0.0201
3451.00,0.0201
3450.00,0.0202
3449.00,0.0202
3448.00,0.0202
3447.00,0.0202
3446.00,0.0202
3445.00,0.0202
3444.00,0.0202
3443.00,0.0202
3442.00,0.0202
3441.00,0.0202
3440.00,0.0202
3439.00,0.0203
3438.00,0.0203
3437.00,0.0204
3436.00,0.0204
3435.00,0.0204
3434.00,0.0204
3433.00,0.0204
3432.00,0.0204
3431.00,0.0204
3430.00,0.0204
3429.00,0.0204
3428.00,0.0204
3427.00,0.0204
3426.00,0.0204
3425.00,0.0205
3424.00,0.0205
3423.00,0.0206
3422.00,0.0206
3421.00,0.0207
3420.00,0.0207
3419.00,0.0206
3418.00,0.0206
3417.00,0.0206
3416.00,0.0206
3415.00,0.0206
3414.00,0.0206
3413.00,0.0207
3412.00,0.0207
3411.00,0.0206
3410.00,0.0206
3409.00,0.0206
3408.00,0.0206
3407.00,0.0207
3406.00,0.0207
3405.00,0.0207
3404.00,0.0208
3403.00,0.0208
3402.00,0.0208
3401.00,0.0208
3400.00,0.0208
3399.00,0.0207
3398.00,0.0208
3397.00,0.0208
3396.00,0.0209
3395.00,0.0209
3394.00,0.0210
3393.00,0.0210
3392.00,0.0210
3391.00,0.0210
3390.00,0.0209
3389.00,0.0209
3388.00,0.0209
3387.00,0.0210
3386.00,0.0210
3385.00,0.0210
3384.00,0.0210
3383.00,0.0210
3382.00,0.0210
3381.00,0.0210
3380.00,0.0210
3379.00,0.0210
3378.00,0.0211
3377.00,0.0211
3376.00,0.0211
3375.00,0.0211
3374.00,0.0211
3373.00,0.0211
3372.00,0.0211
3371.00,0.0210
3370.00,0.0210
3369.00,0.0210
3368.00,0.0210
3367.00,0.0210
3366.00,0.0210
3365.00,0.0210
3364.00,0.0210
3363.00,0.0210
3362.00,0.0211
3361.00,0.0211
3360.00,0.0211
3359.00,0.0211
3358.00,0.0210
3357.00,0.0211
3356.00,0.0211
3355.00,0.0211
3354.00,0.0211
3353.00,0.0212
3352.00,0.0212
3351.00,0.0213
3350.00,0.0213
3349.00,0.0212
3348.00,0.0212
3347.00,0.0211
3346.00,0.0211
3345.00,0.0211
3344.00,0.0211
3343.00,0.0211
3342.00,0.0211
3341.00,0.0211
3340.00,0.0212
3339.00,0.0212
3338.00,0.0212
3337.00,0.0212
3336.00,0.0212
3335.00,0.0212
3334.00,0.0212
3333.00,0.0212
3332.00,0.0212
3331.00,0.0212
3330.00,0.0212
3329.00,0.0212
3328.00,0.0211
3327.00,0.0211
3326.00,0.0211
3325.00,0.0211
3324.00,0.0211
3323.00,0.0211
3322.00,0.0211
3321.00,0.0211
3320.00,0.0211
3319.00,0.0212
3318.00,0.0212
3317.00,0.0212
3316.00,0.0212
3315.00,0.0212
3314.00,0.0212
3313.00,0.0212
3312.00,0.0212
3311.00,0.0212
3310.00,0.0212
3309.00,0.0212
3308.00,0.0212
3307.00,0.0212
3306.00,0.0212
3305.00,0.0212
3304.00,0.0212
3303.00,0.0212
3302.00,0.0212
3301.00,0.0212
3300.00,0.0212
3299.00,0.0212
3298.00,0.0212
3297.00,0.0212
3296.00,0.0212
3295.00,0.0212
3294.00,0.0212
3293.00,0.0212
3292.00,0.0212
3291.00,0.0212
3290.00,0.0213
3289.00,0.0213
3288.00,0.0213
3287.00,0.0213
3286.00,0.0212
3285.00,0.0212
3284.00,0.0212
3283.00,0.0212
3282.00,0.0212
3281.00,0.0212
3280.00,0.0212
3279.00,0.0212
3278.00,0.0212
3277.00,0.0212
3276.00,0.0212
3275.00,0.0212
3274.00,0.0213
3273.00,0.0213
3272.00,0.0213
3271.00,0.0213
3270.00,0.0212
3269.00,0.0212
3268.00,0.0212
3267.00,0.0212
3266.00,0.0212
3265.00,0.0212
3264.00,0.0212
3263.00,0.0212
3262.00,0.0212
3261.00,0.0211
3260.00,0.0211
3259.00,0.0212
3258.00,0.0212
3257.00,0.0212
3256.00,0.0212
3255.00,0.0212
3254.00,0.0212
3253.00,0.0212
3252.00,0.0212
3251.00,0.0212
3250.00,0.0212
3249.00,0.0212
3248.00,0.0212
3247.00,0.0212
3246.00,0.0212
3245.00,0.0212
3244.00,0.0212
3243.00,0.0212
3242.00,0.0212
3241.00,0.0212
3240.00,0.0212
3239.00,0.0212
3238.00,0.0212
3237.00,0.0212
3236.00,0.0212
3235.00,0.0212
3234.00,0.0212
3233.00,0.0212
3232.00,0.0212
3231.00,0.0212
3230.00,0.0212
3229.00,0.0212
3228.00,0.0212
3227.00,0.0212
3226.00,0.0212
3225.00,0.0211
3224.00,0.0211
3223.00,0.0211
3222.00,0.0211
3221.00,0.0211
3220.00,0.0211
3219.00,0.0211
3218.00,0.0211
3217.00,0.0211
3216.00,0.0211
3215.00,0.0210
3214.00,0.0210
3213.00,0.0210
3212.00,0.0210
3211.00,0.0210
3210.00,0.0210
3209.00,0.0210
3208.00,0.0210
3207.00,0.0210
3206.00,0.0210
3205.00,0.0210
3204.00,0.0210
3203.00,0.0210
3202.00,0.0210
3201.00,0.0210
3200.00,0.0210
3199.00,0.0210
3198.00,0.0210
3197.00,0.0210
3196.00,0.0210
3195.00,0.0210
3194.00,0.0209
3193.00,0.0209
3192.00,0.0209
3191.00,0.0209
3190.00,0.0209
3189.00,0.0209
3188.00,0.0208
3187.00,0.0208
3186.00,0.0208
3185.00,0.0208
3184.00,0.0208
3183.00,0.0208
3182.00,0.0207
3181.00,0.0207
3180.00,0.0207
3179.00,0.0207
3178.00,0.0207
3177.00,0.0206
3176.00,0.0206
3175.00,0.0206
3174.00,0.0206
3173.00,0.0207
3172.00,0.0207
3171.00,0.0207
3170.00,0.0207
3169.00,0.0207
3168.00,0.0206
3167.00,0.0206
3166.00,0.0205
3165.00,0.0205
3164.00,0.0205
3163.00,0.0205
3162.00,0.0205
3161.00,0.0205
3160.00,0.0205
3159.00,0.0205
3158.00,0.0205
3157.00,0.0205
3156.00,0.0204
3155.00,0.0204
3154.00,0.0204
3153.00,0.0204
3152.00,0.0204
3151.00,0.0204
3150.00,0.0204
3149.00,0.0204
3148.00,0.0204
3147.00,0.0204
3146.00,0.0204
3145.00,0.0204
3144.00,0.0204
3143.00,0.0203
3142.00,0.0203
3141.00,0.0203
3140.00,0.0203
3139.00,0.0203
3138.00,0.0204
3137.00,0.0203
3136.00,0.0203
3135.00,0.0202
3134.00,0.0202
3133.00,0.0201
3132.00,0.0201
3131.00,0.0201
3130.00,0.0201
3129.00,0.0201
3128.00,0.0201
3127.00,0.0201
3126.00,0.0200
3125.00,0.0200
3124.00,0.0200
3123.00,0.0200
3122.00,0.0200
3121.00,0.0200
3120.00,0.0200
3119.00,0.0200
3118.00,0.0201
3117.00,0.0201
3116.00,0.0201
3115.00,0.0200
3114.00,0.0200
3113.00,0.0200
3112.00,0.0200
3111.00,0.0199
3110.00,0.0199
3109.00,0.0199
3108.00,0.0199
3107.00,0.0199
3106.00,0.0199
3105.00,0.0199
3104.00,0.0199
3103.00,0.0198
3102.00,0.0198
3101.00,0.0198
3100.00,0.0198
3099.00,0.0198
3098.00,0.0197
3097.00,0.0197
3096.00,0.0197
3095.00,0.0197
3094.00,0.0197
3093.00,0.0197
3092.00,0.0197
3091.00,0.0198
3090.00,0.0198
3089.00,0.0198
3088.00,0.0197
3087.00,0.0197
3086.00,0.0196
3085.00,0.0196
3084.00,0.0196
3083.00,0.0196
3082.00,0.0196
3081.00,0.0196
3080.00,0.0196
3079.00,0.0197
3078.00,0.0197
3077.00,0.0196
3076.00,0.0196
3075.00,0.0195
3074.00,0.0195
3073.00,0.0195
3072.00,0.0195
3071.00,0.0194
3070.00,0.0194
3069.00,0.0194
3068.00,0.0194
3067.00,0.0194
3066.00,0.0195
3065.00,0.0195
3064.00,0.0195
3063.00,0.0195
3062.00,0.0195
3061.00,0.0195
3060.00,0.0195
3059.00,0.0194
3058.00,0.0194
3057.00,0.0194
3056.00,0.0194
3055.00,0.0194
3054.00,0.0193
3053.00,0.0193
3052.00,0.0193
3051.00,0.0192
3050.00,0.0192
3049.00,0.0192
3048.00,0.0192
3047.00,0.0192
3046.00,0.0192
3045.00,0.0192
3044.00,0.0192
3043.00,0.0192
3042.00,0.0192
3041.00,0.0192
3040.00,0.0191
3039.00,0.0191
3038.00,0.0191
3037.00,0.0190
3036.00,0.0190
3035.00,0.0190
3034.00,0.0190
3033.00,0.0190
3032.00,0.0189
3031.00,0.0189
3030.00,0.0189
3029.00,0.0189
3028.00,0.0189
3027.00,0.0189
3026.00,0.0189
3025.00,0.0189
3024.00,0.0189
3023.00,0.0188
3022.00,0.0188
3021.00,0.0188
3020.00,0.0187
3019.00,0.0187
3018.00,0.0187
3017.00,0.0187
3016.00,0.0187
3015.00,0.0188
3014.00,0.0188
3013.00,0.0188
3012.00,0.0188
3011.00,0.0188
3010.00,0.0188
3009.00,0.0188
3008.00,0.0188
3007.00,0.0188
3006.00,0.0188
3005.00,0.0188
3004.00,0.0189
3003.00,0.0189
3002.00,0.0189
3001.00,0.0190
3000.00,0.0190
2999.00,0.0190
2998.00,0.0190
2997.00,0.0190
2996.00,0.0190
2995.00,0.0190
2994.00,0.0191
2993.00,0.0191
2992.00,0.0191
2991.00,0.0191
2990.00,0.0191
2989.00,0.0191
2988.00,0.0191
2987.00,0.0191
2986.00,0.0191
2985.00,0.0192
2984.00,0.0193
2983.00,0.0194
2982.00,0.0194
2981.00,0.0194
2980.00,0.0193
2979.00,0.0192
2978.00,0.0191
2977.00,0.0191
2976.00,0.0190
2975.00,0.0190
2974.00,0.0190
2973.00,0.0190
2972.00,0.0190
2971.00,0.0189
2970.00,0.0188
2969.00,0.0187
2968.00,0.0186
2967.00,0.0185
2966.00,0.0184
2965.00,0.0183
2964.00,0.0183
2963.00,0.0182
2962.00,0.0182
2961.00,0.0181
2960.00,0.0180
2959.00,0.0179
2958.00,0.0179
2957.00,0.0179
2956.00,0.0178
2955.00,0.0178
2954.00,0.0178
2953.00,0.0178
2952.00,0.0178
2951.00,0.0178
2950.00,0.0178
2949.00,0.0178
2948.00,0.0177
2947.00,0.0177
2946.00,0.0177
2945.00,0.0177
2944.00,0.0177
2943.00,0.0176
2942.00,0.0175
2941.00,0.0174
2940.00,0.0174
2939.00,0.0173
2938.00,0.0172
2937.00,0.0172
2936.00,0.0171
2935.00,0.0170
2934.00,0.0169
2933.00,0.0168
2932.00,0.0167
2931.00,0.0166
2930.00,0.0164
2929.00,0.0163
2928.00,0.0162
2927.00,0.0161
2926.00,0.0161
2925.00,0.0160
2924.00,0.0160
2923.00,0.0160
2922.00,0.0159
2921.00,0.0159
2920.00,0.0159
2919.00,0.0159
2918.00,0.0159
2917.00,0.0159
2916.00,0.0159
2915.00,0.0160
2914.00,0.0162
2913.00,0.0164
2912.00,0.0166
2911.00,0.0167
2910.00,0.0168
2909.00,0.0168
2908.00,0.0169
2907.00,0.0169
2906.00,0.0170
2905.00,0.0170
2904.00,0.0171
2903.00,0.0171
2902.00,0.0171
2901.00,0.0171
2900.00,0.0172
2899.00,0.0172
2898.00,0.0172
2897.00,0.0172
2896.00,0.0172
2895.00,0.0173
2894.00,0.0173
2893.00,0.0173
2892.00,0.0173
2891.00,0.0173
2890.00,0.0173
2889.00,0.0173
2888.00,0.0173
2887.00,0.0174
2886.00,0.0174
2885.00,0.0174
2884.00,0.0174
2883.00,0.0174
2882.00,0.0173
2881.00,0.0173
2880.00,0.0173
2879.00,0.0172
2878.00,0.0172
2877.00,0.0171
2876.00,0.0171
2875.00,0.0171
2874.00,0.0170
2873.00,0.0170
2872.00,0.0169
2871.00,0.0169
2870.00,0.0168
2869.00,0.0168
2868.00,0.0168
2867.00,0.0167
2866.00,0.0167
2865.00,0.0166
2864.00,0.0166
2863.00,0.0165
2862.00,0.0164
2861.00,0.0164
2860.00,0.0163
2859.00,0.0162
2858.00,0.0161
2857.00,0.0160
2856.00,0.0159
2855.00,0.0158
2854.00,0.0158
2853.00,0.0158
2852.00,0.0158
2851.00,0.0158
2850.00,0.0158
2849.00,0.0159
2848.00,0.0159
2847.00,0.0160
2846.00,0.0161
2845.00,0.0162
2844.00,0.0162
2843.00,0.0163
2842.00,0.0164
2841.00,0.0164
2840.00,0.0164
2839.00,0.0165
2838.00,0.0165
2837.00,0.0165
2836.00,0.0165
2835.00,0.0164
2834.00,0.0164
2833.00,0.0164
2832.00,0.0164
2831.00,0.0164
2830.00,0.0164
2829.00,0.0164
2828.00,0.0164
2827.00,0.0164
2826.00,0.0164
2825.00,0.0164
2824.00,0.0164
2823.00,0.0164
2822.00,0.0164
2821.00,0.0163
2820.00,0.0163
2819.00,0.0163
2818.00,0.0163
2817.00,0.0163
2816.00,0.0163
2815.00,0.0163
2814.00,0.0163
2813.00,0.0163
2812.00,0.0162
2811.00,0.0162
2810.00,0.0162
2809.00,0.0161
2808.00,0.0161
2807.00,0.0161
2806.00,0.0161
2805.00,0.0161
2804.00,0.0161
2803.00,0.0161
2802.00,0.0161
2801.00,0.0161
2800.00,0.0161
2799.00,0.0160
2798.00,0.0160
2797.00,0.0159
2796.00,0.0159
2795.00,0.0159
2794.00,0.0159
2793.00,0.0159
2792.00,0.0159
2791.00,0.0159
2790.00,0.0159
2789.00,0.0159
2788.00,0.0159
2787.00,0.0159
2786.00,0.0158
2785.00,0.0158
2784.00,0.0158
2783.00,0.0158
2782.00,0.0158
2781.00,0.0158
2780.00,0.0157
2779.00,0.0157
2778.00,0.0157
2777.00,0.0157
2776.00,0.0156
2775.00,0.0156
2774.00,0.0156
2773.00,0.0156
2772.00,0.0156
2771.00,0.0156
2770.00,0.0156
2769.00,0.0156
2768.00,0.0156
2767.00,0.0155
2766.00,0.0155
2765.00,0.0155
2764.00,0.0155
2763.00,0.0155
2762.00,0.0155
2761.00,0.0155
2760.00,0.0155
2759.00,0.0154
2758.00,0.0154
2757.00,0.0154
2756.00,0.0154
2755.00,0.0154
2754.00,0.0154
2753.00,0.0154
2752.00,0.0153
2751.00,0.0153
2750.00,0.0153
2749.00,0.0153
2748.00,0.0153
2747.00,0.0152
2746.00,0.0152
2745.00,0.0152
2744.00,0.0152
2743.00,0.0152
2742.00,0.0152
2741.00,0.0151
2740.00,0.0151
2739.00,0.0151
2738.00,0.0151
2737.00,0.0151
2736.00,0.0151
2735.00,0.0151
2734.00,0.0150
2733.00,0.0150
2732.00,0.0150
2731.00,0.0150
2730.00,0.0150
2729.00,0.0150
2728.00,0.0150
2727.00,0.0150
2726.00,0.0150
2725.00,0.0150
2724.00,0.0150
2723.00,0.0150
2722.00,0.0150
2721.00,0.0150
2720.00,0.0150
2719.00,0.0150
2718.00,0.0150
2717.00,0.0149
2716.00,0.0149
2715.00,0.0149
2714.00,0.0148
2713.00,0.0148
2712.00,0.0148
2711.00,0.0148
2710.00,0.0148
2709.00,0.0148
2708.00,0.0148
2707.00,0.0148
2706.00,0.0148
2705.00,0.0148
2704.00,0.0147
2703.00,0.0147
2702.00,0.0147
2701.00,0.0146
2700.00,0.0146
2699.00,0.0147
2698.00,0.0147
2697.00,0.0147
2696.00,0.0147
2695.00,0.0147
2694.00,0.0147
2693.00,0.0147
2692.00,0.0146
2691.00,0.0146
2690.00,0.0146
2689.00,0.0145
2688.00,0.0145
2687.00,0.0145
2686.00,0.0145
2685.00,0.0145
2684.00,0.0145
2683.00,0.0146
2682.00,0.0146
2681.00,0.0145
2680.00,0.0145
2679.00,0.0145
2678.00,0.0145
2677.00,0.0145
2676.00,0.0144
2675.00,0.0144
2674.00,0.0144
2673.00,0.0144
2672.00,0.0144
2671.00,0.0144
2670.00,0.0143
2669.00,0.0143
2668.00,0.0143
2667.00,0.0143
2666.00,0.0144
2665.00,0.0144
2664.00,0.0145
2663.00,0.0145
2662.00,0.0145
2661.00,0.0144
2660.00,0.0144
2659.00,0.0144
2658.00,0.0144
2657.00,0.0145
2656.00,0.0145
2655.00,0.0145
2654.00,0.0145
2653.00,0.0145
2652.00,0.0145
2651.00,0.0145
2650.00,0.0144
2649.00,0.0144
2648.00,0.0144
2647.00,0.0144
2646.00,0.0144
2645.00,0.0144
2644.00,0.0144
2643.00,0.0144
2642.00,0.0144
2641.00,0.0144
2640.00,0.0144
2639.00,0.0144
2638.00,0.0143
2637.00,0.0143
2636.00,0.0143
2635.00,0.0143
2634.00,0.0143
2633.00,0.0143
2632.00,0.0143
2631.00,0.0143
2630.00,0.0143
2629.00,0.0144
2628.00,0.0144
2627.00,0.0144
2626.00,0.0143
2625.00,0.0143
2624.00,0.0143
2623.00,0.0142
2622.00,0.0142
2621.00,0.0143
2620.00,0.0142
2619.00,0.0142
2618.00,0.0142
2617.00,0.0142
2616.00,0.0142
2615.00,0.0142
2614.00,0.0143
2613.00,0.0143
2612.00,0.0142
2611.00,0.0142
2610.00,0.0142
2609.00,0.0141
2608.00,0.0142
2607.00,0.0142
2606.00,0.0142
2605.00,0.0142
2604.00,0.0142
2603.00,0.0142
2602.00,0.0142
2601.00,0.0141
2600.00,0.0141
2599.00,0.0141
2598.00,0.0141
2597.00,0.0141
2596.00,0.0140
2595.00,0.0140
2594.00,0.0140
2593.00,0.0140
2592.00,0.0140
2591.00,0.0141
2590.00,0.0141
2589.00,0.0141
2588.00,0.0141
2587.00,0.0141
2586.00,0.0141
2585.00,0.0140
2584.00,0.0140
2583.00,0.0140
2582.00,0.0140
2581.00,0.0140
2580.00,0.0140
2579.00,0.0141
2578.00,0.0141
2577.00,0.0140
2576.00,0.0140
2575.00,0.0140
2574.00,0.0140
2573.00,0.0139
2572.00,0.0139
2571.00,0.0139
2570.00,0.0139
2569.00,0.0139
2568.00,0.0139
2567.00,0.0139
2566.00,0.0139
2565.00,0.0139
2564.00,0.0139
2563.00,0.0139
2562.00,0.0139
2561.00,0.0138
2560.00,0.0138
2559.00,0.0138
2558.00,0.0138
2557.00,0.0138
2556.00,0.0138
2555.00,0.0138
2554.00,0.0138
2553.00,0.0139
2552.00,0.0139
2551.00,0.0139
2550.00,0.0139
2549.00,0.0138
2548.00,0.0138
2547.00,0.0138
2546.00,0.0138
2545.00,0.0138
2544.00,0.0137
2543.00,0.0137
2542.00,0.0137
2541.00,0.0136
2540.00,0.0136
2539.00,0.0137
2538.00,0.0137
2537.00,0.0137
2536.00,0.0136
2535.00,0.0136
2534.00,0.0136
2533.00,0.0136
2532.00,0.0136
2531.00,0.0135
2530.00,0.0135
2529.00,0.0135
2528.00,0.0135
2527.00,0.0136
2526.00,0.0136
2525.00,0.0136
2524.00,0.0136
2523.00,0.0135
2522.00,0.0135
2521.00,0.0135
2520.00,0.0135
2519.00,0.0135
2518.00,0.0135
2517.00,0.0135
2516.00,0.0135
2515.00,0.0135
2514.00,0.0135
2513.00,0.0135
2512.00,0.0135
2511.00,0.0135
2510.00,0.0134
2509.00,0.0133
2508.00,0.0133
2507.00,0.0133
2506.00,0.0133
2505.00,0.0134
2504.00,0.0134
2503.00,0.0134
2502.00,0.0134
2501.00,0.0134
2500.00,0.0134
2499.00,0.0134
2498.00,0.0134
2497.00,0.0134
2496.00,0.0135
2495.00,0.0135
2494.00,0.0135
2493.00,0.0135
2492.00,0.0135
2491.00,0.0134
2490.00,0.0134
2489.00,0.0134
2488.00,0.0133
2487.00,0.0133
2486.00,0.0133
2485.00,0.0133
2484.00,0.0133
2483.00,0.0133
2482.00,0.0133
2481.00,0.0133
2480.00,0.0133
2479.00,0.0133
2478.00,0.0132
2477.00,0.0132
2476.00,0.0132
2475.00,0.0132
2474.00,0.0132
2473.00,0.0132
2472.00,0.0131
2471.00,0.0131
2470.00,0.0131
2469.00,0.0131
2468.00,0.0132
2467.00,0.0132
2466.00,0.0132
2465.00,0.0132
2464.00,0.0132
2463.00,0.0132
2462.00,0.0132
2461.00,0.0132
2460.00,0.0132
2459.00,0.0132
2458.00,0.0132
2457.00,0.0132
2456.00,0.0132
2455.00,0.0132
2454.00,0.0132
2453.00,0.0132
2452.00,0.0132
2451.00,0.0131
2450.00,0.0131
2449.00,0.0131
2448.00,0.0131
2447.00,0.0131
2446.00,0.0131
2445.00,0.0131
2444.00,0.0131
2443.00,0.0131
2442.00,0.0130
2441.00,0.0130
2440.00,0.0129
2439.00,0.0129
2438.00,0.0128
2437.00,0.0128
2436.00,0.0128
2435.00,0.0128
2434.00,0.0128
2433.00,0.0128
2432.00,0.0128
2431.00,0.0128
2430.00,0.0128
2429.00,0.0128
2428.00,0.0129
2427.00,0.0129
2426.00,0.0129
2425.00,0.0129
2424.00,0.0129
2423.00,0.0128
2422.00,0.0128
2421.00,0.0128
2420.00,0.0128
2419.00,0.0128
2418.00,0.0128
2417.00,0.0127
2416.00,0.0127
2415.00,0.0127
2414.00,0.0127
2413.00,0.0127
2412.00,0.0127
2411.00,0.0127
2410.00,0.0126
2409.00,0.0126
2408.00,0.0126
2407.00,0.0126
2406.00,0.0126
2405.00,0.0126
2404.00,0.0126
2403.00,0.0126
2402.00,0.0127
2401.00,0.0126
2400.00,0.0126
2399.00,0.0125
2398.00,0.0125
2397.00,0.0125
2396.00,0.0125
2395.00,0.0125
2394.00,0.0125
2393.00,0.0124
2392.00,0.0124
2391.00,0.0124
2390.00,0.0124
2389.00,0.0124
2388.00,0.0124
2387.00,0.0124
2386.00,0.0124
2385.00,0.0124
2384.00,0.0124
2383.00,0.0124
2382.00,0.0123
2381.00,0.0122
2380.00,0.0121
2379.00,0.0120
2378.00,0.0119
2377.00,0.0118
2376.00,0.0118
2375.00,0.0118
2374.00,0.0118
2373.00,0.0118
2372.00,0.0118
2371.00,0.0119
2370.00,0.0119
2369.00,0.0120
2368.00,0.0119
2367.00,0.0118
2366.00,0.0118
2365.00,0.0118
2364.00,0.0118
2363.00,0.0119
2362.00,0.0119
2361.00,0.0119
2360.00,0.0119
2359.00,0.0119
2358.00,0.0119
2357.00,0.0118
2356.00,0.0118
2355.00,0.0118
2354.00,0.0118
2353.00,0.0117
2352.00,0.0117
2351.00,0.0117
2350.00,0.0118
2349.00,0.0118
2348.00,0.0117
2347.00,0.0118
2346.00,0.0118
2345.00,0.0119
2344.00,0.0119
2343.00,0.0118
2342.00,0.0117
2341.00,0.0117
2340.00,0.0117
2339.00,0.0117
2338.00,0.0117
2337.00,0.0117
2336.00,0.0117
2335.00,0.0117
2334.00,0.0117
2333.00,0.0118
2332.00,0.0117
2331.00,0.0117
2330.00,0.0116
2329.00,0.0116
2328.00,0.0118
2327.00,0.0119
2326.00,0.0121
2325.00,0.0122
2324.00,0.0121
2323.00,0.0120
2322.00,0.0119
2321.00,0.0119
2320.00,0.0119
2319.00,0.0119
2318.00,0.0119
2317.00,0.0119
2316.00,0.0119
2315.00,0.0118
2314.00,0.0117
2313.00,0.0116
2312.00,0.0116
2311.00,0.0117
2310.00,0.0117
2309.00,0.0118
2308.00,0.0118
2307.00,0.0119
2306.00,0.0119
2305.00,0.0119
2304.00,0.0119
2303.00,0.0119
2302.00,0.0120
2301.00,0.0120
2300.00,0.0120
2299.00,0.0119
2298.00,0.0119
2297.00,0.0119
2296.00,0.0119
2295.00,0.0119
2294.00,0.0120
2293.00,0.0121
2292.00,0.0121
2291.00,0.0122
2290.00,0.0122
2289.00,0.0122
2288.00,0.0122
2287.00,0.0122
2286.00,0.0122
2285.00,0.0122
2284.00,0.0121
2283.00,0.0121
2282.00,0.0120
2281.00,0.0120
2280.00,0.0119
2279.00,0.0119
2278.00,0.0118
2277.00,0.0118
2276.00,0.0118
2275.00,0.0118
2274.00,0.0119
2273.00,0.0119
2272.00,0.0118
2271.00,0.0118
2270.00,0.0118
2269.00,0.0118
2268.00,0.0118
2267.00,0.0118
2266.00,0.0119
2265.00,0.0119
2264.00,0.0119
2263.00,0.0119
2262.00,0.0118
2261.00,0.0119
2260.00,0.0119
2259.00,0.0120
2258.00,0.0120
2257.00,0.0119
2256.00,0.0117
2255.00,0.0116
2254.00,0.0117
2253.00,0.0117
2252.00,0.0118
2251.00,0.0118
2250.00,0.0117
2249.00,0.0117
2248.00,0.0116
2247.00,0.0116
2246.00,0.0116
2245.00,0.0116
2244.00,0.0116
2243.00,0.0117
2242.00,0.0117
2241.00,0.0117
2240.00,0.0118
2239.00,0.0118
2238.00,0.0118
2237.00,0.0118
2236.00,0.0118
2235.00,0.0117
2234.00,0.0118
2233.00,0.0118
2232.00,0.0118
2231.00,0.0118
2230.00,0.0118
2229.00,0.0117
2228.00,0.0117
2227.00,0.0117
2226.00,0.0116
2225.00,0.0115
2224.00,0.0114
2223.00,0.0113
2222.00,0.0113
2221.00,0.0114
2220.00,0.0115
2219.00,0.0115
2218.00,0.0115
2217.00,0.0116
2216.00,0.0116
2215.00,0.0117
2214.00,0.0118
2213.00,0.0118
2212.00,0.0117
2211.00,0.0116
2210.00,0.0115
2209.00,0.0114
2208.00,0.0113
2207.00,0.0112
2206.00,0.0111
2205.00,0.0110
2204.00,0.0111
2203.00,0.0112
2202.00,0.0114
2201.00,0.0115
2200.00,0.0117
2199.00,0.0117
2198.00,0.0118
2197.00,0.0117
2196.00,0.0117
2195.00,0.0116
2194.00,0.0116
2193.00,0.0116
2192.00,0.0116
2191.00,0.0116
2190.00,0.0116
2189.00,0.0117
2188.00,0.0118
2187.00,0.0119
2186.00,0.0119
2185.00,0.0119
2184.00,0.0116
2183.00,0.0114
2182.00,0.0113
2181.00,0.0113
2180.00,0.0113
2179.00,0.0114
2178.00,0.0114
2177.00,0.0113
2176.00,0.0112
2175.00,0.0113
2174.00,0.0114
2173.00,0.0115
2172.00,0.0116
2171.00,0.0116
2170.00,0.0117
2169.00,0.0118
2168.00,0.0119
2167.00,0.0118
2166.00,0.0118
2165.00,0.0118
2164.00,0.0119
2163.00,0.0120
2162.00,0.0119
2161.00,0.0115
2160.00,0.0110
2159.00,0.0106
2158.00,0.0105
2157.00,0.0106
2156.00,0.0107
2155.00,0.0107
2154.00,0.0106
2153.00,0.0106
2152.00,0.0106
2151.00,0.0105
2150.00,0.0105
2149.00,0.0104
2148.00,0.0103
2147.00,0.0103
2146.00,0.0103
2145.00,0.0104
2144.00,0.0104
2143.00,0.0105
2142.00,0.0105
2141.00,0.0104
2140.00,0.0104
2139.00,0.0104
2138.00,0.0104
2137.00,0.0103
2136.00,0.0101
2135.00,0.0100
2134.00,0.0099
2133.00,0.0100
2132.00,0.0100
2131.00,0.0101
2130.00,0.0101
2129.00,0.0101
2128.00,0.0102
2127.00,0.0103
2126.00,0.0103
2125.00,0.0103
2124.00,0.0103
2123.00,0.0103
2122.00,0.0103
2121.00,0.0103
2120.00,0.0104
2119.00,0.0105
2118.00,0.0106
2117.00,0.0106
2116.00,0.0105
2115.00,0.0104
2114.00,0.0103
2113.00,0.0103
2112.00,0.0103
2111.00,0.0104
2110.00,0.0105
2109.00,0.0105
2108.00,0.0106
2107.00,0.0105
2106.00,0.0104
2105.00,0.0103
2104.00,0.0103
2103.00,0.0102
2102.00,0.0103
2101.00,0.0103
2100.00,0.0103
2099.00,0.0103
2098.00,0.0103
2097.00,0.0102
2096.00,0.0102
2095.00,0.0101
2094.00,0.0100
2093.00,0.0101
2092.00,0.0101
2091.00,0.0101
2090.00,0.0100
2089.00,0.0099
2088.00,0.0099
2087.00,0.0099
2086.00,0.0100
2085.00,0.0100
2084.00,0.0101
2083.00,0.0101
2082.00,0.0100
2081.00,0.0100
2080.00,0.0099
2079.00,0.0100
2078.00,0.0101
2077.00,0.0102
2076.00,0.0102
2075.00,0.0102
2074.00,0.0101
2073.00,0.0100
2072.00,0.0100
2071.00,0.0100
2070.00,0.0100
2069.00,0.0100
2068.00,0.0099
2067.00,0.0098
2066.00,0.0098
2065.00,0.0098
2064.00,0.0097
2063.00,0.0096
2062.00,0.0096
2061.00,0.0096
2060.00,0.0096
2059.00,0.0096
2058.00,0.0097
2057.00,0.0097
2056.00,0.0098
2055.00,0.0098
2054.00,0.0100
2053.00,0.0101
2052.00,0.0101
2051.00,0.0101
2050.00,0.0100
2049.00,0.0099
2048.00,0.0098
2047.00,0.0097
2046.00,0.0098
2045.00,0.0099
2044.00,0.0100
2043.00,0.0100
2042.00,0.0099
2041.00,0.0099
2040.00,0.0099
2039.00,0.0100
2038.00,0.0103
2037.00,0.0104
2036.00,0.0105
2035.00,0.0105
2034.00,0.0104
2033.00,0.0102
2032.00,0.0101
2031.00,0.0100
2030.00,0.0100
2029.00,0.0101
2028.00,0.0101
2027.00,0.0101
2026.00,0.0099
2025.00,0.0097
2024.00,0.0096
2023.00,0.0097
2022.00,0.0097
2021.00,0.0098
2020.00,0.0098
2019.00,0.0097
2018.00,0.0098
2017.00,0.0098
2016.00,0.0098
2015.00,0.0098
2014.00,0.0097
2013.00,0.0096
2012.00,0.0095
2011.00,0.0094
2010.00,0.0094
2009.00,0.0095
2008.00,0.0096
2007.00,0.0096
2006.00,0.0096
2005.00,0.0095
2004.00,0.0095
2003.00,0.0095
2002.00,0.0096
2001.00,0.0096
2000.00,0.0095
1999.00,0.0094
1998.00,0.0094
1997.00,0.0094
1996.00,0.0095
1995.00,0.0095
1994.00,0.0095
1993.00,0.0096
1992.00,0.0097
1991.00,0.0097
1990.00,0.0098
1989.00,0.0097
1988.00,0.0095
1987.00,0.0093
1986.00,0.0092
1985.00,0.0093
1984.00,0.0094
1983.00,0.0096
1982.00,0.0097
1981.00,0.0098
1980.00,0.0098
1979.00,0.0096
1978.00,0.0093
1977.00,0.0091
1976.00,0.0089
1975.00,0.0089
1974.00,0.0089
1973.00,0.0089
1972.00,0.0091
1971.00,0.0092
1970.00,0.0093
1969.00,0.0092
1968.00,0.0091
1967.00,0.0090
1966.00,0.0090
1965.00,0.0091
1964.00,0.0092
1963.00,0.0091
1962.00,0.0090
1961.00,0.0088
1960.00,0.0087
1959.00,0.0087
1958.00,0.0087
1957.00,0.0087
1956.00,0.0087
1955.00,0.0086
1954.00,0.0086
1953.00,0.0085
1952.00,0.0085
1951.00,0.0085
1950.00,0.0086
1949.00,0.0086
1948.00,0.0087
1947.00,0.0087
1946.00,0.0087
1945.00,0.0087
1944.00,0.0086
1943.00,0.0085
1942.00,0.0084
1941.00,0.0083
1940.00,0.0083
1939.00,0.0082
1938.00,0.0081
1937.00,0.0081
1936.00,0.0082
1935.00,0.0083
1934.00,0.0083
1933.00,0.0083
1932.00,0.0083
1931.00,0.0083
1930.00,0.0082
1929.00,0.0081
1928.00,0.0080
1927.00,0.0080
1926.00,0.0080
1925.00,0.0081
1924.00,0.0081
1923.00,0.0081
1922.00,0.0081
1921.00,0.0082
1920.00,0.0082
1919.00,0.0082
1918.00,0.0082
1917.00,0.0081
1916.00,0.0081
1915.00,0.0081
1914.00,0.0081
1913.00,0.0080
1912.00,0.0080
1911.00,0.0079
1910.00,0.0078
1909.00,0.0078
1908.00,0.0077
1907.00,0.0077
1906.00,0.0077
1905.00,0.0077
1904.00,0.0077
1903.00,0.0077
1902.00,0.0077
1901.00,0.0077
1900.00,0.0077
1899.00,0.0077
1898.00,0.0077
1897.00,0.0077
1896.00,0.0077
1895.00,0.0076
1894.00,0.0076
1893.00,0.0076
1892.00,0.0077
1891.00,0.0077
1890.00,0.0076
1889.00,0.0075
1888.00,0.0074
1887.00,0.0074
1886.00,0.0075
1885.00,0.0075
1884.00,0.0075
1883.00,0.0075
1882.00,0.0075
1881.00,0.0075
1880.00,0.0074
1879.00,0.0074
1878.00,0.0074
1877.00,0.0074
1876.00,0.0074
1875.00,0.0074
1874.00,0.0074
1873.00,0.0074
1872.00,0.0075
1871.00,0.0075
1870.00,0.0075
1869.00,0.0074
1868.00,0.0072
1867.00,0.0071
1866.00,0.0072
1865.00,0.0073
1864.00,0.0073
1863.00,0.0073
1862.00,0.0072
1861.00,0.0071
1860.00,0.0070
1859.00,0.0070
1858.00,0.0070
1857.00,0.0070
1856.00,0.0070
1855.00,0.0070
1854.00,0.0070
1853.00,0.0070
1852.00,0.0070
1851.00,0.0071
1850.00,0.0071
1849.00,0.0071
1848.00,0.0071
1847.00,0.0071
1846.00,0.0071
1845.00,0.0070
1844.00,0.0068
1843.00,0.0067
1842.00,0.0068
1841.00,0.0069
1840.00,0.0070
1839.00,0.0070
1838.00,0.0070
1837.00,0.0069
1836.00,0.0069
1835.00,0.0069
1834.00,0.0069
1833.00,0.0070
1832.00,0.0070
1831.00,0.0069
1830.00,0.0068
1829.00,0.0066
1828.00,0.0066
1827.00,0.0065
1826.00,0.0065
1825.00,0.0065
1824.00,0.0064
1823.00,0.0065
1822.00,0.0066
1821.00,0.0066
1820.00,0.0067
1819.00,0.0067
1818.00,0.0066
1817.00,0.0066
1816.00,0.0066
1815.00,0.0066
1814.00,0.0066
1813.00,0.0066
1812.00,0.0066
1811.00,0.0065
1810.00,0.0065
1809.00,0.0066
1808.00,0.0066
1807.00,0.0066
1806.00,0.0067
1805.00,0.0067
1804.00,0.0067
1803.00,0.0067
1802.00,0.0067
1801.00,0.0067
1800.00,0.0067
1799.00,0.0067
1798.00,0.0068
1797.00,0.0069
1796.00,0.0069
1795.00,0.0070
1794.00,0.0071
1793.00,0.0072
1792.00,0.0070
1791.00,0.0069
1790.00,0.0068
1789.00,0.0069
1788.00,0.0070
1787.00,0.0070
1786.00,0.0070
1785.00,0.0071
1784.00,0.0072
1783.00,0.0072
1782.00,0.0072
1781.00,0.0072
1780.00,0.0072
1779.00,0.0073
1778.00,0.0074
1777.00,0.0076
1776.00,0.0078
1775.00,0.0079
1774.00,0.0080
1773.00,0.0080
1772.00,0.0079
1771.00,0.0078
1770.00,0.0078
1769.00,0.0079
1768.00,0.0079
1767.00,0.0080
1766.00,0.0081
1765.00,0.0082
1764.00,0.0083
1763.00,0.0083
1762.00,0.0082
1761.00,0.0082
1760.00,0.0082
1759.00,0.0083
1758.00,0.0084
1757.00,0.0084
1756.00,0.0085
1755.00,0.0086
1754.00,0.0087
1753.00,0.0089
1752.00,0.0091
1751.00,0.0092
1750.00,0.0092
1749.00,0.0092
1748.00,0.0092
1747.00,0.0092
1746.00,0.0092
1745.00,0.0093
1744.00,0.0094
1743.00,0.0095
1742.00,0.0096
1741.00,0.0098
1740.00,0.0100
1739.00,0.0101
1738.00,0.0102
1737.00,0.0104
1736.00,0.0107
1735.00,0.0110
1734.00,0.0110
1733.00,0.0109
1732.00,0.0109
1731.00,0.0109
1730.00,0.0109
1729.00,0.0110
1728.00,0.0112
1727.00,0.0114
1726.00,0.0116
1725.00,0.0117
1724.00,0.0119
1723.00,0.0120
1722.00,0.0121
1721.00,0.0122
1720.00,0.0123
1719.00,0.0124
1718.00,0.0125
1717.00,0.0126
1716.00,0.0126
1715.00,0.0126
1714.00,0.0126
1713.00,0.0127
1712.00,0.0129
1711.00,0.0130
1710.00,0.0131
1709.00,0.0133
1708.00,0.0134
1707.00,0.0135
1706.00,0.0135
1705.00,0.0136
1704.00,0.0137
1703.00,0.0138
1702.00,0.0140
1701.00,0.0143
1700.00,0.0144
1699.00,0.0144
1698.00,0.0144
1697.00,0.0142
1696.00,0.0140
1695.00,0.0139
1694.00,0.0141
1693.00,0.0143
1692.00,0.0144
1691.00,0.0145
1690.00,0.0145
1689.00,0.0146
1688.00,0.0147
1687.00,0.0147
1686.00,0.0147
1685.00,0.0146
1684.00,0.0145
1683.00,0.0146
1682.00,0.0148
1681.00,0.0150
1680.00,0.0151
1679.00,0.0153
1678.00,0.0154
1677.00,0.0156
1676.00,0.0158
1675.00,0.0160
1674.00,0.0161
1673.00,0.0161
1672.00,0.0162
1671.00,0.0164
1670.00,0.0165
1669.00,0.0165
1668.00,0.0165
1667.00,0.0166
1666.00,0.0168
1665.00,0.0170
1664.00,0.0171
1663.00,0.0173
1662.00,0.0173
1661.00,0.0174
1660.00,0.0176
1659.00,0.0177
1658.00,0.0178
1657.00,0.0178
1656.00,0.0177
1655.00,0.0177
1654.00,0.0178
1653.00,0.0179
1652.00,0.0182
1651.00,0.0185
1650.00,0.0187
1649.00,0.0189
1648.00,0.0192
1647.00,0.0194
1646.00,0.0195
1645.00,0.0196
1644.00,0.0197
1643.00,0.0198
1642.00,0.0198
1641.00,0.0199
1640.00,0.0200
1639.00,0.0202
1638.00,0.0203
1637.00,0.0205
1636.00,0.0207
1635.00,0.0207
1634.00,0.0208
1633.00,0.0210
1632.00,0.0211
1631.00,0.0212
1630.00,0.0212
1629.00,0.0213
1628.00,0.0214
1627.00,0.0216
1626.00,0.0218
1625.00,0.0220
1624.00,0.0222
1623.00,0.0223
1622.00,0.0224
1621.00,0.0225
1620.00,0.0225
1619.00,0.0226
1618.00,0.0227
1617.00,0.0229
1616.00,0.0230
1615.00,0.0230
1614.00,0.0231
1613.00,0.0232
1612.00,0.0233
1611.00,0.0235
1610.00,0.0236
1609.00,0.0237
1608.00,0.0238
1607.00,0.0239
1606.00,0.0239
1605.00,0.0240
1604.00,0.0240
1603.00,0.0242
1602.00,0.0242
1601.00,0.0243
1600.00,0.0243
1599.00,0.0244
1598.00,0.0244
1597.00,0.0245
1596.00,0.0245
1595.00,0.0246
1594.00,0.0246
1593.00,0.0247
1592.00,0.0247
1591.00,0.0248
1590.00,0.0248
1589.00,0.0248
1588.00,0.0249
1587.00,0.0249
1586.00,0.0249
1585.00,0.0250
1584.00,0.0250
1583.00,0.0250
1582.00,0.0251
1581.00,0.0251
1580.00,0.0251
1579.00,0.0250
1578.00,0.0250
1577.00,0.0251
1576.00,0.0251
1575.00,0.0252
1574.00,0.0252
1573.00,0.0251
1572.00,0.0251
1571.00,0.0251
1570.00,0.0251
1569.00,0.0251
1568.00,0.0251
1567.00,0.0251
1566.00,0.0251
1565.00,0.0250
1564.00,0.0250
1563.00,0.0248
1562.00,0.0245
1561.00,0.0241
1560.00,0.0241
1559.00,0.0245
1558.00,0.0247
1557.00,0.0248
1556.00,0.0248
1555.00,0.0247
1554.00,0.0245
1553.00,0.0243
1552.00,0.0241
1551.00,0.0239
1550.00,0.0238
1549.00,0.0237
1548.00,0.0237
1547.00,0.0236
1546.00,0.0236
1545.00,0.0235
1544.00,0.0235
1543.00,0.0236
1542.00,0.0236
1541.00,0.0234
1540.00,0.0229
1539.00,0.0224
1538.00,0.0223
1537.00,0.0223
1536.00,0.0223
1535.00,0.0223
1534.00,0.0222
1533.00,0.0221
1532.00,0.0220
1531.00,0.0220
1530.00,0.0220
1529.00,0.0220
1528.00,0.0220
1527.00,0.0220
1526.00,0.0220
1525.00,0.0221
1524.00,0.0220
1523.00,0.0219
1522.00,0.0218
1521.00,0.0216
1520.00,0.0214
1519.00,0.0212
1518.00,0.0211
1517.00,0.0210
1516.00,0.0209
1515.00,0.0209
1514.00,0.0210
1513.00,0.0210
1512.00,0.0210
1511.00,0.0209
1510.00,0.0207
1509.00,0.0207
1508.00,0.0207
1507.00,0.0206
1506.00,0.0203
1505.00,0.0203
1504.00,0.0204
1503.00,0.0203
1502.00,0.0203
1501.00,0.0203
1500.00,0.0202
1499.00,0.0202
1498.00,0.0202
1497.00,0.0201
1496.00,0.0200
1495.00,0.0199
1494.00,0.0199
1493.00,0.0200
1492.00,0.0200
1491.00,0.0200
1490.00,0.0199
1489.00,0.0197
1488.00,0.0195
1487.00,0.0194
1486.00,0.0194
1485.00,0.0194
1484.00,0.0194
1483.00,0.0194
1482.00,0.0194
1481.00,0.0194
1480.00,0.0193
1479.00,0.0193
1478.00,0.0193
1477.00,0.0193
1476.00,0.0194
1475.00,0.0197
1474.00,0.0199
1473.00,0.0200
1472.00,0.0198
1471.00,0.0195
1470.00,0.0194
1469.00,0.0193
1468.00,0.0193
1467.00,0.0193
1466.00,0.0194
1465.00,0.0195
1464.00,0.0195
1463.00,0.0195
1462.00,0.0194
1461.00,0.0194
1460.00,0.0194
1459.00,0.0196
1458.00,0.0198
1457.00,0.0199
1456.00,0.0198
1455.00,0.0198
1454.00,0.0197
1453.00,0.0198
1452.00,0.0198
1451.00,0.0199
1450.00,0.0200
1449.00,0.0200
1448.00,0.0201
1447.00,0.0201
1446.00,0.0201
1445.00,0.0202
1444.00,0.0202
1443.00,0.0202
1442.00,0.0203
1441.00,0.0203
1440.00,0.0204
1439.00,0.0205
1438.00,0.0205
1437.00,0.0206
1436.00,0.0206
1435.00,0.0206
1434.00,0.0207
1433.00,0.0207
1432.00,0.0208
1431.00,0.0208
1430.00,0.0208
1429.00,0.0208
1428.00,0.0208
1427.00,0.0208
1426.00,0.0208
1425.00,0.0209
1424.00,0.0209
1423.00,0.0209
1422.00,0.0209
1421.00,0.0209
1420.00,0.0209
1419.00,0.0210
1418.00,0.0210
1417.00,0.0211
1416.00,0.0212
1415.00,0.0213
1414.00,0.0213
1413.00,0.0213
1412.00,0.0213
1411.00,0.0213
1410.00,0.0213
1409.00,0.0214
1408.00,0.0214
1407.00,0.0215
1406.00,0.0215
1405.00,0.0216
1404.00,0.0217
1403.00,0.0219
1402.00,0.0219
1401.00,0.0220
1400.00,0.0221
1399.00,0.0222
1398.00,0.0223
1397.00,0.0224
1396.00,0.0224
1395.00,0.0225
1394.00,0.0225
1393.00,0.0226
1392.00,0.0227
1391.00,0.0227
1390.00,0.0228
1389.00,0.0228
1388.00,0.0229
1387.00,0.0229
1386.00,0.0230
1385.00,0.0230
1384.00,0.0231
1383.00,0.0231
1382.00,0.0231
1381.00,0.0231
1380.00,0.0231
1379.00,0.0231
1378.00,0.0231
1377.00,0.0231
1376.00,0.0231
1375.00,0.0231
1374.00,0.0230
1373.00,0.0230
1372.00,0.0231
1371.00,0.0231
1370.00,0.0231
1369.00,0.0230
1368.00,0.0230
1367.00,0.0230
1366.00,0.0230
1365.00,0.0229
1364.00,0.0228
1363.00,0.0228
1362.00,0.0228
1361.00,0.0229
1360.00,0.0229
1359.00,0.0229
1358.00,0.0228
1357.00,0.0228
1356.00,0.0227
1355.00,0.0227
1354.00,0.0227
1353.00,0.0227
1352.00,0.0227
1351.00,0.0227
1350.00,0.0227
1349.00,0.0227
1348.00,0.0227
1347.00,0.0226
1346.00,0.0226
1345.00,0.0226
1344.00,0.0225
1343.00,0.0225
1342.00,0.0224
1341.00,0.0224
1340.00,0.0223
1339.00,0.0223
1338.00,0.0222
1337.00,0.0222
1336.00,0.0223
1335.00,0.0223
1334.00,0.0223
1333.00,0.0223
1332.00,0.0223
1331.00,0.0222
1330.00,0.0222
1329.00,0.0222
1328.00,0.0222
1327.00,0.0221
1326.00,0.0221
1325.00,0.0221
1324.00,0.0221
1323.00,0.0221
1322.00,0.0221
1321.00,0.0221
1320.00,0.0222
1319.00,0.0222
1318.00,0.0222
1317.00,0.0222
1316.00,0.0222
1315.00,0.0222
1314.00,0.0222
1313.00,0.0222
1312.00,0.0222
1311.00,0.0222
1310.00,0.0222
1309.00,0.0223
1308.00,0.0223
1307.00,0.0223
1306.00,0.0224
1305.00,0.0224
1304.00,0.0225
1303.00,0.0225
1302.00,0.0226
1301.00,0.0226
1300.00,0.0225
1299.00,0.0225
1298.00,0.0226
1297.00,0.0226
1296.00,0.0227
1295.00,0.0227
1294.00,0.0228
1293.00,0.0228
1292.00,0.0229
1291.00,0.0229
1290.00,0.0229
1289.00,0.0229
1288.00,0.0229
1287.00,0.0230
1286.00,0.0230
1285.00,0.0230
1284.00,0.0230
1283.00,0.0231
1282.00,0.0231
1281.00,0.0231
1280.00,0.0232
1279.00,0.0233
1278.00,0.0233
1277.00,0.0233
1276.00,0.0234
1275.00,0.0235
1274.00,0.0235
1273.00,0.0235
1272.00,0.0236
1271.00,0.0236
1270.00,0.0237
1269.00,0.0237
1268.00,0.0237
1267.00,0.0238
1266.00,0.0238
1265.00,0.0238
1264.00,0.0239
1263.00,0.0240
1262.00,0.0240
1261.00,0.0240
1260.00,0.0241
1259.00,0.0241
1258.00,0.0242
1257.00,0.0242
1256.00,0.0243
1255.00,0.0243
1254.00,0.0244
1253.00,0.0244
1252.00,0.0244
1251.00,0.0245
1250.00,0.0245
1249.00,0.0246
1248.00,0.0247
1247.00,0.0248
1246.00,0.0248
1245.00,0.0248
1244.00,0.0248
1243.00,0.0249
1242.00,0.0249
1241.00,0.0250
1240.00,0.0251
1239.00,0.0252
1238.00,0.0252
1237.00,0.0253
1236.00,0.0253
1235.00,0.0254
1234.00,0.0254
1233.00,0.0254
1232.00,0.0255
1231.00,0.0255
1230.00,0.0255
1229.00,0.0256
1228.00,0.0257
1227.00,0.0257
1226.00,0.0258
1225.00,0.0258
1224.00,0.0259
1223.00,0.0259
1222.00,0.0259
1221.00,0.0258
1220.00,0.0258
1219.00,0.0259
1218.00,0.0259
1217.00,0.0258
1216.00,0.0258
1215.00,0.0259
1214.00,0.0259
1213.00,0.0260
1212.00,0.0261
1211.00,0.0261
1210.00,0.0261
1209.00,0.0262
1208.00,0.0262
1207.00,0.0262
1206.00,0.0262
1205.00,0.0262
1204.00,0.0263
1203.00,0.0264
1202.00,0.0264
1201.00,0.0265
1200.00,0.0265
1199.00,0.0265
1198.00,0.0266
1197.00,0.0266
1196.00,0.0266
1195.00,0.0266
1194.00,0.0266
1193.00,0.0266
1192.00,0.0267
1191.00,0.0267
1190.00,0.0267
1189.00,0.0267
1188.00,0.0267
1187.00,0.0267
1186.00,0.0268
1185.00,0.0269
1184.00,0.0270
1183.00,0.0271
1182.00,0.0271
1181.00,0.0271
1180.00,0.0271
1179.00,0.0272
1178.00,0.0273
1177.00,0.0274
1176.00,0.0274
1175.00,0.0274
1174.00,0.0274
1173.00,0.0274
1172.00,0.0274
1171.00,0.0274
1170.00,0.0275
1169.00,0.0276
1168.00,0.0276
1167.00,0.0277
1166.00,0.0277
1165.00,0.0277
1164.00,0.0277
1163.00,0.0277
1162.00,0.0278
1161.00,0.0278
1160.00,0.0278
1159.00,0.0278
1158.00,0.0278
1157.00,0.0279
1156.00,0.0280
1155.00,0.0281
1154.00,0.0281
1153.00,0.0281
1152.00,0.0281
1151.00,0.0281
1150.00,0.0281
1149.00,0.0281
1148.00,0.0282
1147.00,0.0282
1146.00,0.0283
1145.00,0.0284
1144.00,0.0284
1143.00,0.0285
1142.00,0.0285
1141.00,0.0285
1140.00,0.0285
1139.00,0.0285
1138.00,0.0286
1137.00,0.0286
1136.00,0.0286
1135.00,0.0287
1134.00,0.0288
1133.00,0.0289
1132.00,0.0289
1131.00,0.0288
1130.00,0.0288
1129.00,0.0288
1128.00,0.0288
1127.00,0.0289
1126.00,0.0289
1125.00,0.0290
1124.00,0.0291
1123.00,0.0291
1122.00,0.0292
1121.00,0.0294
1120.00,0.0295
1119.00,0.0296
1118.00,0.0298
1117.00,0.0299
1116.00,0.0301
1115.00,0.0302
1114.00,0.0303
1113.00,0.0303
1112.00,0.0304
1111.00,0.0306
1110.00,0.0307
1109.00,0.0308
1108.00,0.0308
1107.00,0.0309
1106.00,0.0309
1105.00,0.0310
1104.00,0.0312
1103.00,0.0314
1102.00,0.0316
1101.00,0.0317
1100.00,0.0318
1099.00,0.0319
1098.00,0.0320
1097.00,0.0321
1096.00,0.0322
1095.00,0.0324
1094.00,0.0325
1093.00,0.0325
1092.00,0.0326
1091.00,0.0327
1090.00,0.0328
1089.00,0.0330
1088.00,0.0331
1087.00,0.0332
1086.00,0.0333
1085.00,0.0334
1084.00,0.0335
1083.00,0.0336
1082.00,0.0336
1081.00,0.0337
1080.00,0.0338
1079.00,0.0339
1078.00,0.0340
1077.00,0.0341
1076.00,0.0342
1075.00,0.0343
1074.00,0.0344
1073.00,0.0345
1072.00,0.0345
1071.00,0.0345
1070.00,0.0345
1069.00,0.0346
1068.00,0.0347
1067.00,0.0348
1066.00,0.0348
1065.00,0.0348
1064.00,0.0349
1063.00,0.0349
1062.00,0.0349
1061.00,0.0349
1060.00,0.0349
1059.00,0.0349
1058.00,0.0350
1057.00,0.0350
1056.00,0.0350
1055.00,0.0350
1054.00,0.0350
1053.00,0.0350
1052.00,0.0351
1051.00,0.0352
1050.00,0.0353
1049.00,0.0353
1048.00,0.0353
1047.00,0.0353
1046.00,0.0352
1045.00,0.0352
1044.00,0.0351
1043.00,0.0351
1042.00,0.0350
1041.00,0.0350
1040.00,0.0349
1039.00,0.0350
1038.00,0.0350
1037.00,0.0350
1036.00,0.0351
1035.00,0.0350
1034.00,0.0349
1033.00,0.0348
1032.00,0.0347
1031.00,0.0347
1030.00,0.0346
1029.00,0.0346
1028.00,0.0345
1027.00,0.0344
1026.00,0.0342
1025.00,0.0340
1024.00,0.0339
1023.00,0.0338
1022.00,0.0338
1021.00,0.0337
1020.00,0.0336
1019.00,0.0335
1018.00,0.0333
1017.00,0.0331
1016.00,0.0329
1015.00,0.0328
1014.00,0.0327
1013.00,0.0326
1012.00,0.0325
1011.00,0.0324
1010.00,0.0323
1009.00,0.0322
1008.00,0.0321
1007.00,0.0319
1006.00,0.0317
1005.00,0.0316
1004.00,0.0314
1003.00,0.0312
1002.00,0.0311
1001.00,0.0310
1000.00,0.0309
999.00,0.0308
998.00,0.0307
997.00,0.0306
996.00,0.0305
995.00,0.0303
994.00,0.0301
993.00,0.0300
992.00,0.0300
991.00,0.0299
990.00,0.0297
989.00,0.0296
988.00,0.0294
987.00,0.0292
986.00,0.0292
985.00,0.0291
984.00,0.0290
983.00,0.0288
982.00,0.0287
981.00,0.0286
980.00,0.0285
979.00,0.0285
978.00,0.0284
977.00,0.0283
976.00,0.0282
975.00,0.0281
974.00,0.0280
973.00,0.0279
972.00,0.0279
971.00,0.0279
970.00,0.0278
969.00,0.0278
968.00,0.0277
967.00,0.0276
966.00,0.0275
965.00,0.0274
964.00,0.0272
963.00,0.0271
962.00,0.0270
961.00,0.0269
960.00,0.0269
959.00,0.0269
958.00,0.0269
957.00,0.0268
956.00,0.0268
955.00,0.0268
954.00,0.0267
953.00,0.0266
952.00,0.0265
951.00,0.0264
950.00,0.0264
949.00,0.0263
948.00,0.0263
947.00,0.0263
946.00,0.0263
945.00,0.0262
944.00,0.0262
943.00,0.0261
942.00,0.0260
941.00,0.0260
940.00,0.0259
939.00,0.0259
938.00,0.0259
937.00,0.0259
936.00,0.0259
935.00,0.0259
934.00,0.0258
933.00,0.0258
932.00,0.0257
931.00,0.0257
930.00,0.0256
929.00,0.0255
928.00,0.0254
927.00,0.0253
926.00,0.0252
925.00,0.0252
924.00,0.0253
923.00,0.0253
922.00,0.0253
921.00,0.0252
920.00,0.0252
919.00,0.0252
918.00,0.0254
917.00,0.0255
916.00,0.0256
915.00,0.0255
914.00,0.0254
913.00,0.0252
912.00,0.0251
911.00,0.0251
910.00,0.0252
909.00,0.0252
908.00,0.0253
907.00,0.0253
906.00,0.0253
905.00,0.0253
904.00,0.0253
903.00,0.0253
902.00,0.0253
901.00,0.0253
900.00,0.0253
899.00,0.0252
898.00,0.0251
897.00,0.0251
896.00,0.0251
895.00,0.0251
894.00,0.0252
893.00,0.0252
892.00,0.0252
891.00,0.0252
890.00,0.0252
889.00,0.0251
888.00,0.0251
887.00,0.0252
886.00,0.0252
885.00,0.0252
884.00,0.0251
883.00,0.0251
882.00,0.0250
881.00,0.0250
880.00,0.0249
879.00,0.0249
878.00,0.0249
877.00,0.0249
876.00,0.0247
875.00,0.0247
874.00,0.0247
873.00,0.0248
872.00,0.0249
871.00,0.0249
870.00,0.0249
869.00,0.0248
868.00,0.0247
867.00,0.0246
866.00,0.0245
865.00,0.0245
864.00,0.0246
863.00,0.0246
862.00,0.0246
861.00,0.0246
860.00,0.0245
859.00,0.0245
858.00,0.0246
857.00,0.0246
856.00,0.0246
855.00,0.0246
854.00,0.0245
853.00,0.0245
852.00,0.0245
851.00,0.0245
850.00,0.0246
849.00,0.0246
848.00,0.0246
847.00,0.0245
846.00,0.0245
845.00,0.0246
844.00,0.0248
843.00,0.0249
842.00,0.0250
841.00,0.0251
840.00,0.0252
839.00,0.0255
838.00,0.0257
837.00,0.0257
836.00,0.0257
835.00,0.0256
834.00,0.0255
833.00,0.0254
832.00,0.0255
831.00,0.0257
830.00,0.0259
829.00,0.0261
828.00,0.0262
827.00,0.0263
826.00,0.0264
825.00,0.0265
824.00,0.0267
823.00,0.0268
822.00,0.0270
821.00,0.0272
820.00,0.0273
819.00,0.0273
818.00,0.0273
817.00,0.0273
816.00,0.0274
815.00,0.0274
814.00,0.0275
813.00,0.0276
812.00,0.0276
811.00,0.0275
810.00,0.0274
809.00,0.0274
808.00,0.0274
807.00,0.0276
806.00,0.0278
805.00,0.0279
804.00,0.0281
803.00,0.0283
802.00,0.0285
801.00,0.0287
800.00,0.0289
799.00,0.0290
798.00,0.0290
797.00,0.0289
796.00,0.0287
795.00,0.0286
794.00,0.0286
793.00,0.0286
792.00,0.0287
791.00,0.0288
790.00,0.0289
789.00,0.0289
788.00,0.0289
787.00,0.0288
786.00,0.0288
785.00,0.0287
784.00,0.0286
783.00,0.0286
782.00,0.0288
781.00,0.0290
780.00,0.0293
779.00,0.0294
778.00,0.0295
777.00,0.0293
776.00,0.0292
775.00,0.0292
774.00,0.0293
773.00,0.0293
772.00,0.0292
771.00,0.0291
770.00,0.0290
769.00,0.0291
768.00,0.0293
767.00,0.0294
766.00,0.0295
765.00,0.0296
764.00,0.0295
763.00,0.0294
762.00,0.0294
761.00,0.0296
760.00,0.0298
759.00,0.0300
758.00,0.0300
757.00,0.0300
756.00,0.0299
755.00,0.0299
754.00,0.0297
753.00,0.0296
752.00,0.0295
751.00,0.0295
750.00,0.0296
749.00,0.0297
748.00,0.0299
747.00,0.0301
746.00,0.0302
745.00,0.0302
744.00,0.0301
743.00,0.0301
742.00,0.0300
741.00,0.0300
740.00,0.0300
739.00,0.0301
738.00,0.0303
737.00,0.0304
736.00,0.0305
735.00,0.0304
734.00,0.0302
733.00,0.0300
732.00,0.0299
731.00,0.0301
730.00,0.0303
729.00,0.0305
728.00,0.0306
727.00,0.0307
726.00,0.0306
725.00,0.0305
724.00,0.0303
723.00,0.0302
722.00,0.0302
721.00,0.0303
720.00,0.0304
719.00,0.0305
718.00,0.0306
717.00,0.0307
716.00,0.0307
715.00,0.0307
714.00,0.0307
713.00,0.0309
712.00,0.0311
711.00,0.0312
710.00,0.0312
709.00,0.0313
708.00,0.0314
707.00,0.0316
706.00,0.0317
705.00,0.0318
704.00,0.0318
703.00,0.0317
702.00,0.0318
701.00,0.0319
700.00,0.0319
699.00,0.0318
698.00,0.0318
697.00,0.0320
696.00,0.0322
695.00,0.0325
694.00,0.0326
693.00,0.0326
692.00,0.0326
691.00,0.0325
690.00,0.0325
689.00,0.0325
688.00,0.0325
687.00,0.0327
686.00,0.0330
685.00,0.0334
684.00,0.0337
683.00,0.0339
682.00,0.0339
681.00,0.0339
680.00,0.0338
679.00,0.0335
678.00,0.0333
677.00,0.0332
676.00,0.0334
675.00,0.0337
674.00,0.0339
673.00,0.0341
672.00,0.0341
671.00,0.0340
670.00,0.0337
669.00,0.0336
668.00,0.0337
667.00,0.0340
666.00,0.0344
665.00,0.0346
664.00,0.0347
663.00,0.0349
662.00,0.0350
661.00,0.0352
660.00,0.0354
659.00,0.0355
658.00,0.0355
657.00,0.0353
656.00,0.0351
655.00,0.0350
654.00,0.0350
653.00,0.0351
652.00,0.0353
651.00,0.0354
650.00,0.0352
