Created as New Dataset,Monday, April 03 2023
cm-1,A
4000.00,0.0108
3999.00,0.0108
3998.00,0.0108
3997.00,0.0108
3996.00,0.0108
3995.00,0.0107
3994.00,0.0107
3993.00,0.0108
3992.00,0.0108
3991.00,0.0108
3990.00,0.0108
3989.00,0.0108
3988.00,0.0108
3987.00,0.0107
3986.00,0.0107
3985.00,0.0107
3984.00,0.0107
3983.00,0.0107
3982.00,0.0107
3981.00,0.0107
3980.00,0.0107
3979.00,0.0107
3978.00,0.0107
3977.00,0.0107
3976.00,0.0107
3975.00,0.0107
3974.00,0.0107
3973.00,0.0106
3972.00,0.0106
3971.00,0.0106
3970.00,0.0106
3969.00,0.0106
3968.00,0.0106
3967.00,0.0106
3966.00,0.0106
3965.00,0.0106
3964.00,0.0107
3963.00,0.0107
3962.00,0.0107
3961.00,0.0106
3960.00,0.0106
3959.00,0.0106
3958.00,0.0106
3957.00,0.0106
3956.00,0.0106
3955.00,0.0105
3954.00,0.0105
3953.00,0.0105
3952.00,0.0105
3951.00,0.0105
3950.00,0.0105
3949.00,0.0105
3948.00,0.0105
3947.00,0.0104
3946.00,0.0105
3945.00,0.0105
3944.00,0.0105
3943.00,0.0105
3942.00,0.0105
3941.00,0.0105
3940.00,0.0105
3939.00,0.0105
3938.00,0.0105
3937.00,0.0105
3936.00,0.0105
3935.00,0.0105
3934.00,0.0105
3933.00,0.0104
3932.00,0.0104
3931.00,0.0104
3930.00,0.0104
3929.00,0.0104
3928.00,0.0104
3927.00,0.0104
3926.00,0.0104
3925.00,0.0104
3924.00,0.0103
3923.00,0.0103
3922.00,0.0103
3921.00,0.0103
3920.00,0.0103
3919.00,0.0103
3918.00,0.0103
3917.00,0.0103
3916.00,0.0103
3915.00,0.0103
3914.00,0.0103
3913.00,0.0103
3912.00,0.0103
3911.00,0.0103
3910.00,0.0103
3909.00,0.0103
3908.00,0.0103
3907.00,0.0103
3906.00,0.0103
3905.00,0.0103
3904.00,0.0102
3903.00,0.0102
3902.00,0.0102
3901.00,0.0102
3900.00,0.0102
3899.00,0.0101
3898.00,0.0101
3897.00,0.0102
3896.00,0.0103
3895.00,0.0103
3894.00,0.0103
3893.00,0.0103
3892.00,0.0102
3891.00,0.0101
3890.00,0.0101
3889.00,0.0101
3888.00,0.0102
3887.00,0.0102
3886.00,0.0102
3885.00,0.0101
3884.00,0.0101
3883.00,0.0102
3882.00,0.0102
3881.00,0.0101
3880.00,0.0101
3879.00,0.0100
3878.00,0.0101
3877.00,0.0102
3876.00,0.0102
3875.00,0.0101
3874.00,0.0101
3873.00,0.0101
3872.00,0.0101
3871.00,0.0101
3870.00,0.0100
3869.00,0.0099
3868.00,0.0099
3867.00,0.0101
3866.00,0.0101
3865.00,0.0101
3864.00,0.0100
3863.00,0.0100
3862.00,0.0100
3861.00,0.0100
3860.00,0.0101
3859.00,0.0100
3858.00,0.0100
3857.00,0.0099
3856.00,0.0099
3855.00,0.0100
3854.00,0.0101
3853.00,0.0101
3852.00,0.0100
3851.00,0.0101
3850.00,0.0102
3849.00,0.0102
3848.00,0.0101
3847.00,0.0101
3846.00,0.0101
3845.00,0.0101
3844.00,0.0100
3843.00,0.0100
3842.00,0.0100
3841.00,0.0101
3840.00,0.0101
3839.00,0.0100
3838.00,0.0100
3837.00,0.0099
3836.00,0.0099
3835.00,0.0099
3834.00,0.0099
3833.00,0.0100
3832.00,0.0100
3831.00,0.0100
3830.00,0.0101
3829.00,0.0101
3828.00,0.0101
3827.00,0.0101
3826.00,0.0100
3825.00,0.0099
3824.00,0.0100
3823.00,0.0101
3822.00,0.0101
3821.00,0.0100
3820.00,0.0100
3819.00,0.0101
3818.00,0.0102
3817.00,0.0102
3816.00,0.0101
3815.00,0.0100
3814.00,0.0100
3813.00,0.0100
3812.00,0.0100
3811.00,0.0100
3810.00,0.0099
3809.00,0.0100
3808.00,0.0100
3807.00,0.0100
3806.00,0.0100
3805.00,0.0100
3804.00,0.0101
3803.00,0.0102
3802.00,0.0101
3801.00,0.0100
3800.00,0.0100
3799.00,0.0100
3798.00,0.0100
3797.00,0.0100
3796.00,0.0099
3795.00,0.0099
3794.00,0.0099
3793.00,0.0099
3792.00,0.0099
3791.00,0.0099
3790.00,0.0099
3789.00,0.0099
3788.00,0.0099
3787.00,0.0100
3786.00,0.0100
3785.00,0.0099
3784.00,0.0099
3783.00,0.0099
3782.00,0.0099
3781.00,0.0099
3780.00,0.0099
3779.00,0.0098
3778.00,0.0098
3777.00,0.0098
3776.00,0.0099
3775.00,0.0099
3774.00,0.0098
3773.00,0.0099
3772.00,0.0099
3771.00,0.0099
3770.00,0.0099
3769.00,0.0099
3768.00,0.0099
3767.00,0.0099
3766.00,0.0099
3765.00,0.0098
3764.00,0.0098
3763.00,0.0099
3762.00,0.0100
3761.00,0.0100
3760.00,0.0099
3759.00,0.0099
3758.00,0.0099
3757.00,0.0098
3756.00,0.0099
3755.00,0.0099
3754.00,0.0099
3753.00,0.0100
3752.00,0.0100
3751.00,0.0100
3750.00,0.0099
3749.00,0.0098
3748.00,0.0098
3747.00,0.0098
3746.00,0.0098
3745.00,0.0097
3744.00,0.0096
3743.00,0.0097
3742.00,0.0098
3741.00,0.0100
3740.00,0.0099
3739.00,0.0099
3738.00,0.0098
3737.00,0.0099
3736.00,0.0099
3735.00,0.0098
3734.00,0.0098
3733.00,0.0098
3732.00,0.0098
3731.00,0.0098
3730.00,0.0099
3729.00,0.0100
3728.00,0.0100
3727.00,0.0100
3726.00,0.0100
3725.00,0.0100
3724.00,0.0100
3723.00,0.0100
3722.00,0.0099
3721.00,0.0099
3720.00,0.0099
3719.00,0.0100
3718.00,0.0100
3717.00,0.0101
3716.00,0.0102
3715.00,0.0103
3714.00,0.0104
3713.00,0.0105
3712.00,0.0106
3711.00,0.0107
3710.00,0.0107
3709.00,0.0108
3708.00,0.0109
3707.00,0.0110
3706.00,0.0111
3705.00,0.0112
3704.00,0.0113
3703.00,0.0114
3702.00,0.0115
3701.00,0.0116
3700.00,0.0118
3699.00,0.0119
3698.00,0.0120
3697.00,0.0121
3696.00,0.0121
3695.00,0.0121
3694.00,0.0120
3693.00,0.0120
3692.00,0.0120
3691.00,0.0121
3690.00,0.0121
3689.00,0.0121
3688.00,0.0121
3687.00,0.0120
3686.00,0.0121
3685.00,0.0120
3684.00,0.0119
3683.00,0.0118
3682.00,0.0117
3681.00,0.0116
3680.00,0.0115
3679.00,0.0113
3678.00,0.0112
3677.00,0.0112
3676.00,0.0113
3675.00,0.0114
3674.00,0.0114
3673.00,0.0116
3672.00,0.0116
3671.00,0.0116
3670.00,0.0115
3669.00,0.0115
3668.00,0.0115
3667.00,0.0116
3666.00,0.0117
3665.00,0.0117
3664.00,0.0117
3663.00,0.0117
3662.00,0.0118
3661.00,0.0118
3660.00,0.0118
3659.00,0.0118
3658.00,0.0119
3657.00,0.0121
3656.00,0.0122
3655.00,0.0122
3654.00,0.0122
3653.00,0.0122
3652.00,0.0121
3651.00,0.0122
3650.00,0.0124
3649.00,0.0125
3648.00,0.0125
3647.00,0.0125
3646.00,0.0125
3645.00,0.0126
3644.00,0.0126
3643.00,0.0126
3642.00,0.0126
3641.00,0.0125
3640.00,0.0125
3639.00,0.0125
3638.00,0.0125
3637.00,0.0125
3636.00,0.0125
3635.00,0.0125
3634.00,0.0124
3633.00,0.0124
3632.00,0.0123
3631.00,0.0123
3630.00,0.0125
3629.00,0.0127
3628.00,0.0128
3627.00,0.0130
3626.00,0.0131
3625.00,0.0132
3624.00,0.0133
3623.00,0.0134
3622.00,0.0135
3621.00,0.0137
3620.00,0.0137
3619.00,0.0137
3618.00,0.0136
3617.00,0.0135
3616.00,0.0133
3615.00,0.0132
3614.00,0.0131
3613.00,0.0131
3612.00,0.0130
3611.00,0.0130
3610.00,0.0130
3609.00,0.0131
3608.00,0.0131
3607.00,0.0130
3606.00,0.0130
3605.00,0.0131
3604.00,0.0131
3603.00,0.0131
3602.00,0.0132
3601.00,0.0132
3600.00,0.0131
3599.00,0.0130
3598.00,0.0130
3597.00,0.0129
3596.00,0.0129
3595.00,0.0129
3594.00,0.0130
3593.00,0.0130
3592.00,0.0130
3591.00,0.0129
3590.00,0.0129
3589.00,0.0128
3588.00,0.0128
3587.00,0.0128
3586.00,0.0128
3585.00,0.0129
3584.00,0.0130
3583.00,0.0130
3582.00,0.0131
3581.00,0.0131
3580.00,0.0131
3579.00,0.0131
3578.00,0.0131
3577.00,0.0131
3576.00,0.0131
3575.00,0.0132
3574.00,0.0132
3573.00,0.0132
3572.00,0.0132
3571.00,0.0131
3570.00,0.0131
3569.00,0.0131
3568.00,0.0132
3567.00,0.0133
3566.00,0.0133
3565.00,0.0133
3564.00,0.0133
3563.00,0.0133
3562.00,0.0133
3561.00,0.0133
3560.00,0.0133
3559.00,0.0133
3558.00,0.0133
3557.00,0.0133
3556.00,0.0134
3555.00,0.0134
3554.00,0.0135
3553.00,0.0136
3552.00,0.0136
3551.00,0.0136
3550.00,0.0135
3549.00,0.0135
3548.00,0.0135
3547.00,0.0135
3546.00,0.0136
3545.00,0.0136
3544.00,0.0136
3543.00,0.0136
3542.00,0.0136
3541.00,0.0136
3540.00,0.0137
3539.00,0.0137
3538.00,0.0137
3537.00,0.0137
3536.00,0.0138
3535.00,0.0138
3534.00,0.0138
3533.00,0.0137
3532.00,0.0137
3531.00,0.0137
3530.00,0.0137
3529.00,0.0138
3528.00,0.0138
3527.00,0.0138
3526.00,0.0139
3525.00,0.0139
3524.00,0.0139
3523.00,0.0139
3522.00,0.0139
3521.00,0.0140
3520.00,0.0140
3519.00,0.0140
3518.00,0.0140
3517.00,0.0140
3516.00,0.0141
3515.00,0.0141
3514.00,0.0141
3513.00,0.0140
3512.00,0.0140
3511.00,0.0140
3510.00,0.0141
3509.00,0.0141
3508.00,0.0142
3507.00,0.0142
3506.00,0.0141
3505.00,0.0142
3504.00,0.0142
3503.00,0.0143
3502.00,0.0143
3501.00,0.0144
3500.00,0.0144
3499.00,0.0144
3498.00,0.0144
3497.00,0.0144
3496.00,0.0145
3495.00,0.0145
3494.00,0.0145
3493.00,0.0145
3492.00,0.0146
3491.00,0.0146
3490.00,0.0146
3489.00,0.0146
3488.00,0.0146
3487.00,0.0146
3486.00,0.0146
3485.00,0.0145
3484.00,0.0145
3483.00,0.0145
3482.00,0.0145
3481.00,0.0146
3480.00,0.0146
3479.00,0.0146
3478.00,0.0147
3477.00,0.0147
3476.00,0.0148
3475.00,0.0149
3474.00,0.0149
3473.00,0.0149
3472.00,0.0149
3471.00,0.0148
3470.00,0.0148
3469.00,0.0148
3468.00,0.0148
3467.00,0.0148
3466.00,0.0148
3465.00,0.0148
3464.00,0.0148
3463.00,0.0148
3462.00,0.0148
3461.00,0.0149
3460.00,0.0149
3459.00,0.0149
3458.00,0.0149
3457.00,0.0149
3456.00,0.0150
3455.00,0.0150
3454.00,0.0150
3453.00,0.0150
3452.00,0.0150
3451.00,0.0151
3450.00,0.0151
3449.00,0.0150
3448.00,0.0150
3447.00,0.0150
3446.00,0.0150
3445.00,0.0151
3444.00,0.0151
3443.00,0.0152
3442.00,0.0153
3441.00,0.0153
3440.00,0.0152
3439.00,0.0152
3438.00,0.0152
3437.00,0.0152
3436.00,0.0152
3435.00,0.0152
3434.00,0.0153
3433.00,0.0153
3432.00,0.0154
3431.00,0.0154
3430.00,0.0154
3429.00,0.0154
3428.00,0.0153
3427.00,0.0153
3426.00,0.0153
3425.00,0.0153
3424.00,0.0153
3423.00,0.0153
3422.00,0.0153
3421.00,0.0153
3420.00,0.0153
3419.00,0.0153
3418.00,0.0154
3417.00,0.0154
3416.00,0.0154
3415.00,0.0154
3414.00,0.0154
3413.00,0.0154
3412.00,0.0154
3411.00,0.0153
3410.00,0.0153
3409.00,0.0153
3408.00,0.0153
3407.00,0.0154
3406.00,0.0154
3405.00,0.0155
3404.00,0.0155
3403.00,0.0155
3402.00,0.0155
3401.00,0.0155
3400.00,0.0155
3399.00,0.0154
3398.00,0.0154
3397.00,0.0154
3396.00,0.0154
3395.00,0.0155
3394.00,0.0155
3393.00,0.0155
3392.00,0.0155
3391.00,0.0155
3390.00,0.0155
3389.00,0.0155
3388.00,0.0155
3387.00,0.0155
3386.00,0.0155
3385.00,0.0155
3384.00,0.0155
3383.00,0.0155
3382.00,0.0155
3381.00,0.0155
3380.00,0.0155
3379.00,0.0155
3378.00,0.0155
3377.00,0.0155
3376.00,0.0156
3375.00,0.0156
3374.00,0.0156
3373.00,0.0156
3372.00,0.0156
3371.00,0.0156
3370.00,0.0156
3369.00,0.0155
3368.00,0.0155
3367.00,0.0155
3366.00,0.0155
3365.00,0.0156
3364.00,0.0156
3363.00,0.0157
3362.00,0.0157
3361.00,0.0157
3360.00,0.0157
3359.00,0.0157
3358.00,0.0157
3357.00,0.0157
3356.00,0.0157
3355.00,0.0157
3354.00,0.0157
3353.00,0.0157
3352.00,0.0157
3351.00,0.0158
3350.00,0.0158
3349.00,0.0157
3348.00,0.0157
3347.00,0.0157
3346.00,0.0157
3345.00,0.0157
3344.00,0.0157
3343.00,0.0157
3342.00,0.0157
3341.00,0.0157
3340.00,0.0157
3339.00,0.0157
3338.00,0.0157
3337.00,0.0157
3336.00,0.0157
3335.00,0.0157
3334.00,0.0157
3333.00,0.0157
3332.00,0.0157
3331.00,0.0157
3330.00,0.0157
3329.00,0.0157
3328.00,0.0157
3327.00,0.0157
3326.00,0.0157
3325.00,0.0157
3324.00,0.0157
3323.00,0.0156
3322.00,0.0156
3321.00,0.0156
3320.00,0.0157
3319.00,0.0157
3318.00,0.0158
3317.00,0.0157
3316.00,0.0157
3315.00,0.0157
3314.00,0.0157
3313.00,0.0156
3312.00,0.0156
3311.00,0.0156
3310.00,0.0156
3309.00,0.0156
3308.00,0.0157
3307.00,0.0157
3306.00,0.0157
3305.00,0.0157
3304.00,0.0157
3303.00,0.0157
3302.00,0.0157
3301.00,0.0157
3300.00,0.0157
3299.00,0.0157
3298.00,0.0157
3297.00,0.0156
3296.00,0.0156
3295.00,0.0156
3294.00,0.0157
3293.00,0.0157
3292.00,0.0157
3291.00,0.0157
3290.00,0.0157
3289.00,0.0157
3288.00,0.0157
3287.00,0.0157
3286.00,0.0157
3285.00,0.0157
3284.00,0.0157
3283.00,0.0156
3282.00,0.0156
3281.00,0.0156
3280.00,0.0156
3279.00,0.0157
3278.00,0.0157
3277.00,0.0157
3276.00,0.0156
3275.00,0.0157
3274.00,0.0157
3273.00,0.0157
3272.00,0.0157
3271.00,0.0157
3270.00,0.0156
3269.00,0.0156
3268.00,0.0156
3267.00,0.0157
3266.00,0.0157
3265.00,0.0157
3264.00,0.0157
3263.00,0.0157
3262.00,0.0156
3261.00,0.0156
3260.00,0.0156
3259.00,0.0156
3258.00,0.0156
3257.00,0.0156
3256.00,0.0156
3255.00,0.0156
3254.00,0.0157
3253.00,0.0157
3252.00,0.0157
3251.00,0.0157
3250.00,0.0157
3249.00,0.0157
3248.00,0.0157
3247.00,0.0157
3246.00,0.0157
3245.00,0.0157
3244.00,0.0156
3243.00,0.0156
3242.00,0.0156
3241.00,0.0157
3240.00,0.0157
3239.00,0.0157
3238.00,0.0158
3237.00,0.0158
3236.00,0.0158
3235.00,0.0157
3234.00,0.0157
3233.00,0.0157
3232.00,0.0157
3231.00,0.0157
3230.00,0.0157
3229.00,0.0157
3228.00,0.0158
3227.00,0.0158
3226.00,0.0158
3225.00,0.0157
3224.00,0.0157
3223.00,0.0156
3222.00,0.0157
3221.00,0.0157
3220.00,0.0157
3219.00,0.0157
3218.00,0.0158
3217.00,0.0158
3216.00,0.0157
3215.00,0.0157
3214.00,0.0157
3213.00,0.0157
3212.00,0.0157
3211.00,0.0157
3210.00,0.0157
3209.00,0.0157
3208.00,0.0157
3207.00,0.0157
3206.00,0.0157
3205.00,0.0157
3204.00,0.0157
3203.00,0.0157
3202.00,0.0157
3201.00,0.0157
3200.00,0.0158
3199.00,0.0158
3198.00,0.0158
3197.00,0.0158
3196.00,0.0157
3195.00,0.0157
3194.00,0.0157
3193.00,0.0157
3192.00,0.0157
3191.00,0.0157
3190.00,0.0157
3189.00,0.0157
3188.00,0.0157
3187.00,0.0157
3186.00,0.0157
3185.00,0.0157
3184.00,0.0157
3183.00,0.0157
3182.00,0.0157
3181.00,0.0157
3180.00,0.0157
3179.00,0.0157
3178.00,0.0156
3177.00,0.0156
3176.00,0.0156
3175.00,0.0156
3174.00,0.0157
3173.00,0.0157
3172.00,0.0157
3171.00,0.0157
3170.00,0.0157
3169.00,0.0156
3168.00,0.0156
3167.00,0.0156
3166.00,0.0156
3165.00,0.0156
3164.00,0.0156
3163.00,0.0156
3162.00,0.0157
3161.00,0.0157
3160.00,0.0157
3159.00,0.0157
3158.00,0.0157
3157.00,0.0156
3156.00,0.0156
3155.00,0.0156
3154.00,0.0156
3153.00,0.0156
3152.00,0.0156
3151.00,0.0156
3150.00,0.0156
3149.00,0.0156
3148.00,0.0156
3147.00,0.0156
3146.00,0.0156
3145.00,0.0156
3144.00,0.0157
3143.00,0.0157
3142.00,0.0156
3141.00,0.0156
3140.00,0.0156
3139.00,0.0156
3138.00,0.0157
3137.00,0.0157
3136.00,0.0157
3135.00,0.0156
3134.00,0.0156
3133.00,0.0156
3132.00,0.0156
3131.00,0.0156
3130.00,0.0156
3129.00,0.0156
3128.00,0.0156
3127.00,0.0156
3126.00,0.0156
3125.00,0.0156
3124.00,0.0155
3123.00,0.0155
3122.00,0.0155
3121.00,0.0155
3120.00,0.0155
3119.00,0.0156
3118.00,0.0156
3117.00,0.0156
3116.00,0.0156
3115.00,0.0156
3114.00,0.0156
3113.00,0.0156
3112.00,0.0155
3111.00,0.0155
3110.00,0.0155
3109.00,0.0155
3108.00,0.0155
3107.00,0.0155
3106.00,0.0155
3105.00,0.0155
3104.00,0.0156
3103.00,0.0156
3102.00,0.0156
3101.00,0.0156
3100.00,0.0156
3099.00,0.0155
3098.00,0.0155
3097.00,0.0155
3096.00,0.0155
3095.00,0.0155
3094.00,0.0155
3093.00,0.0156
3092.00,0.0156
3091.00,0.0156
3090.00,0.0156
3089.00,0.0156
3088.00,0.0156
3087.00,0.0156
3086.00,0.0156
3085.00,0.0156
3084.00,0.0156
3083.00,0.0156
3082.00,0.0156
3081.00,0.0156
3080.00,0.0156
3079.00,0.0156
3078.00,0.0156
3077.00,0.0156
3076.00,0.0155
3075.00,0.0155
3074.00,0.0156
3073.00,0.0156
3072.00,0.0156
3071.00,0.0156
3070.00,0.0156
3069.00,0.0156
3068.00,0.0156
3067.00,0.0156
3066.00,0.0156
3065.00,0.0156
3064.00,0.0156
3063.00,0.0156
3062.00,0.0156
3061.00,0.0156
3060.00,0.0156
3059.00,0.0155
3058.00,0.0155
3057.00,0.0155
3056.00,0.0155
3055.00,0.0155
3054.00,0.0155
3053.00,0.0155
3052.00,0.0155
3051.00,0.0155
3050.00,0.0155
3049.00,0.0155
3048.00,0.0155
3047.00,0.0155
3046.00,0.0155
3045.00,0.0156
3044.00,0.0156
3043.00,0.0155
3042.00,0.0155
3041.00,0.0155
3040.00,0.0155
3039.00,0.0155
3038.00,0.0155
3037.00,0.0155
3036.00,0.0155
3035.00,0.0155
3034.00,0.0155
3033.00,0.0155
3032.00,0.0155
3031.00,0.0154
3030.00,0.0154
3029.00,0.0154
3028.00,0.0154
3027.00,0.0154
3026.00,0.0154
3025.00,0.0154
3024.00,0.0154
3023.00,0.0154
3022.00,0.0154
3021.00,0.0154
3020.00,0.0154
3019.00,0.0154
3018.00,0.0154
3017.00,0.0154
3016.00,0.0154
3015.00,0.0155
3014.00,0.0155
3013.00,0.0156
3012.00,0.0156
3011.00,0.0155
3010.00,0.0155
3009.00,0.0155
3008.00,0.0155
3007.00,0.0155
3006.00,0.0155
3005.00,0.0156
3004.00,0.0156
3003.00,0.0157
3002.00,0.0157
3001.00,0.0158
3000.00,0.0158
2999.00,0.0158
2998.00,0.0157
2997.00,0.0157
2996.00,0.0156
2995.00,0.0156
2994.00,0.0157
2993.00,0.0157
2992.00,0.0157
2991.00,0.0158
2990.00,0.0158
2989.00,0.0158
2988.00,0.0158
2987.00,0.0158
2986.00,0.0158
2985.00,0.0159
2984.00,0.0159
2983.00,0.0160
2982.00,0.0160
2981.00,0.0160
2980.00,0.0160
2979.00,0.0159
2978.00,0.0159
2977.00,0.0159
2976.00,0.0159
2975.00,0.0159
2974.00,0.0159
2973.00,0.0159
2972.00,0.0159
2971.00,0.0159
2970.00,0.0159
2969.00,0.0158
2968.00,0.0158
2967.00,0.0158
2966.00,0.0158
2965.00,0.0158
2964.00,0.0158
2963.00,0.0157
2962.00,0.0157
2961.00,0.0157
2960.00,0.0157
2959.00,0.0156
2958.00,0.0157
2957.00,0.0157
2956.00,0.0157
2955.00,0.0157
2954.00,0.0157
2953.00,0.0157
2952.00,0.0157
2951.00,0.0157
2950.00,0.0157
2949.00,0.0156
2948.00,0.0156
2947.00,0.0156
2946.00,0.0156
2945.00,0.0156
2944.00,0.0156
2943.00,0.0156
2942.00,0.0156
2941.00,0.0156
2940.00,0.0157
2939.00,0.0157
2938.00,0.0157
2937.00,0.0157
2936.00,0.0158
2935.00,0.0158
2934.00,0.0158
2933.00,0.0159
2932.00,0.0159
2931.00,0.0159
2930.00,0.0159
2929.00,0.0159
2928.00,0.0159
2927.00,0.0159
2926.00,0.0160
2925.00,0.0160
2924.00,0.0160
2923.00,0.0160
2922.00,0.0159
2921.00,0.0159
2920.00,0.0159
2919.00,0.0158
2918.00,0.0157
2917.00,0.0156
2916.00,0.0155
2915.00,0.0155
2914.00,0.0156
2913.00,0.0156
2912.00,0.0156
2911.00,0.0156
2910.00,0.0156
2909.00,0.0156
2908.00,0.0155
2907.00,0.0156
2906.00,0.0156
2905.00,0.0156
2904.00,0.0156
2903.00,0.0156
2902.00,0.0156
2901.00,0.0156
2900.00,0.0155
2899.00,0.0155
2898.00,0.0155
2897.00,0.0155
2896.00,0.0155
2895.00,0.0155
2894.00,0.0155
2893.00,0.0154
2892.00,0.0154
2891.00,0.0154
2890.00,0.0154
2889.00,0.0154
2888.00,0.0154
2887.00,0.0154
2886.00,0.0153
2885.00,0.0153
2884.00,0.0153
2883.00,0.0153
2882.00,0.0153
2881.00,0.0152
2880.00,0.0152
2879.00,0.0152
2878.00,0.0152
2877.00,0.0152
2876.00,0.0152
2875.00,0.0152
2874.00,0.0152
2873.00,0.0152
2872.00,0.0152
2871.00,0.0152
2870.00,0.0151
2869.00,0.0151
2868.00,0.0151
2867.00,0.0151
2866.00,0.0151
2865.00,0.0150
2864.00,0.0150
2863.00,0.0151
2862.00,0.0151
2861.00,0.0151
2860.00,0.0151
2859.00,0.0151
2858.00,0.0151
2857.00,0.0152
2856.00,0.0152
2855.00,0.0152
2854.00,0.0152
2853.00,0.0152
2852.00,0.0152
2851.00,0.0152
2850.00,0.0151
2849.00,0.0150
2848.00,0.0150
2847.00,0.0149
2846.00,0.0149
2845.00,0.0149
2844.00,0.0149
2843.00,0.0149
2842.00,0.0148
2841.00,0.0148
2840.00,0.0148
2839.00,0.0148
2838.00,0.0148
2837.00,0.0147
2836.00,0.0147
2835.00,0.0147
2834.00,0.0146
2833.00,0.0146
2832.00,0.0146
2831.00,0.0146
2830.00,0.0146
2829.00,0.0146
2828.00,0.0146
2827.00,0.0146
2826.00,0.0146
2825.00,0.0146
2824.00,0.0146
2823.00,0.0146
2822.00,0.0146
2821.00,0.0146
2820.00,0.0145
2819.00,0.0145
2818.00,0.0145
2817.00,0.0145
2816.00,0.0145
2815.00,0.0145
2814.00,0.0145
2813.00,0.0145
2812.00,0.0145
2811.00,0.0144
2810.00,0.0144
2809.00,0.0144
2808.00,0.0144
2807.00,0.0144
2806.00,0.0144
2805.00,0.0144
2804.00,0.0143
2803.00,0.0144
2802.00,0.0143
2801.00,0.0143
2800.00,0.0143
2799.00,0.0143
2798.00,0.0142
2797.00,0.0142
2796.00,0.0142
2795.00,0.0142
2794.00,0.0142
2793.00,0.0142
2792.00,0.0142
2791.00,0.0142
2790.00,0.0142
2789.00,0.0142
2788.00,0.0142
2787.00,0.0142
2786.00,0.0141
2785.00,0.0141
2784.00,0.0141
2783.00,0.0141
2782.00,0.0141
2781.00,0.0141
2780.00,0.0141
2779.00,0.0141
2778.00,0.0140
2777.00,0.0140
2776.00,0.0140
2775.00,0.0140
2774.00,0.0140
2773.00,0.0140
2772.00,0.0140
2771.00,0.0140
2770.00,0.0140
2769.00,0.0140
2768.00,0.0140
2767.00,0.0140
2766.00,0.0140
2765.00,0.0140
2764.00,0.0140
2763.00,0.0140
2762.00,0.0140
2761.00,0.0139
2760.00,0.0139
2759.00,0.0139
2758.00,0.0139
2757.00,0.0139
2756.00,0.0139
2755.00,0.0139
2754.00,0.0139
2753.00,0.0139
2752.00,0.0138
2751.00,0.0138
2750.00,0.0138
2749.00,0.0138
2748.00,0.0138
2747.00,0.0138
2746.00,0.0138
2745.00,0.0138
2744.00,0.0138
2743.00,0.0138
2742.00,0.0138
2741.00,0.0137
2740.00,0.0137
2739.00,0.0137
2738.00,0.0137
2737.00,0.0137
2736.00,0.0137
2735.00,0.0137
2734.00,0.0137
2733.00,0.0137
2732.00,0.0137
2731.00,0.0137
2730.00,0.0137
2729.00,0.0137
2728.00,0.0136
2727.00,0.0136
2726.00,0.0136
2725.00,0.0136
2724.00,0.0136
2723.00,0.0136
2722.00,0.0136
2721.00,0.0136
2720.00,0.0136
2719.00,0.0136
2718.00,0.0136
2717.00,0.0136
2716.00,0.0136
2715.00,0.0136
2714.00,0.0136
2713.00,0.0135
2712.00,0.0135
2711.00,0.0135
2710.00,0.0135
2709.00,0.0135
2708.00,0.0135
2707.00,0.0134
2706.00,0.0134
2705.00,0.0134
2704.00,0.0134
2703.00,0.0134
2702.00,0.0134
2701.00,0.0134
2700.00,0.0134
2699.00,0.0134
2698.00,0.0134
2697.00,0.0134
2696.00,0.0134
2695.00,0.0134
2694.00,0.0134
2693.00,0.0134
2692.00,0.0134
2691.00,0.0133
2690.00,0.0133
2689.00,0.0133
2688.00,0.0133
2687.00,0.0133
2686.00,0.0133
2685.00,0.0133
2684.00,0.0133
2683.00,0.0133
2682.00,0.0133
2681.00,0.0133
2680.00,0.0133
2679.00,0.0133
2678.00,0.0132
2677.00,0.0132
2676.00,0.0132
2675.00,0.0132
2674.00,0.0132
2673.00,0.0133
2672.00,0.0132
2671.00,0.0132
2670.00,0.0132
2669.00,0.0132
2668.00,0.0132
2667.00,0.0132
2666.00,0.0132
2665.00,0.0132
2664.00,0.0132
2663.00,0.0132
2662.00,0.0132
2661.00,0.0132
2660.00,0.0132
2659.00,0.0132
2658.00,0.0132
2657.00,0.0133
2656.00,0.0133
2655.00,0.0133
2654.00,0.0134
2653.00,0.0134
2652.00,0.0134
2651.00,0.0133
2650.00,0.0133
2649.00,0.0133
2648.00,0.0133
2647.00,0.0133
2646.00,0.0133
2645.00,0.0133
2644.00,0.0133
2643.00,0.0133
2642.00,0.0133
2641.00,0.0133
2640.00,0.0133
2639.00,0.0133
2638.00,0.0133
2637.00,0.0133
2636.00,0.0133
2635.00,0.0133
2634.00,0.0133
2633.00,0.0133
2632.00,0.0133
2631.00,0.0133
2630.00,0.0133
2629.00,0.0133
2628.00,0.0133
2627.00,0.0133
2626.00,0.0133
2625.00,0.0133
2624.00,0.0133
2623.00,0.0133
2622.00,0.0133
2621.00,0.0133
2620.00,0.0133
2619.00,0.0133
2618.00,0.0133
2617.00,0.0133
2616.00,0.0133
2615.00,0.0133
2614.00,0.0133
2613.00,0.0133
2612.00,0.0133
2611.00,0.0133
2610.00,0.0133
2609.00,0.0134
2608.00,0.0134
2607.00,0.0134
2606.00,0.0134
2605.00,0.0134
2604.00,0.0133
2603.00,0.0133
2602.00,0.0133
2601.00,0.0133
2600.00,0.0133
2599.00,0.0133
2598.00,0.0133
2597.00,0.0133
2596.00,0.0132
2595.00,0.0132
2594.00,0.0132
2593.00,0.0132
2592.00,0.0132
2591.00,0.0133
2590.00,0.0133
2589.00,0.0133
2588.00,0.0132
2587.00,0.0132
2586.00,0.0133
2585.00,0.0133
2584.00,0.0133
2583.00,0.0133
2582.00,0.0133
2581.00,0.0134
2580.00,0.0134
2579.00,0.0134
2578.00,0.0134
2577.00,0.0134
2576.00,0.0133
2575.00,0.0133
2574.00,0.0133
2573.00,0.0133
2572.00,0.0133
2571.00,0.0133
2570.00,0.0133
2569.00,0.0133
2568.00,0.0133
2567.00,0.0132
2566.00,0.0132
2565.00,0.0133
2564.00,0.0133
2563.00,0.0133
2562.00,0.0133
2561.00,0.0133
2560.00,0.0132
2559.00,0.0132
2558.00,0.0132
2557.00,0.0132
2556.00,0.0133
2555.00,0.0133
2554.00,0.0134
2553.00,0.0134
2552.00,0.0134
2551.00,0.0133
2550.00,0.0133
2549.00,0.0133
2548.00,0.0133
2547.00,0.0133
2546.00,0.0133
2545.00,0.0132
2544.00,0.0132
2543.00,0.0132
2542.00,0.0132
2541.00,0.0132
2540.00,0.0132
2539.00,0.0132
2538.00,0.0133
2537.00,0.0133
2536.00,0.0132
2535.00,0.0132
2534.00,0.0132
2533.00,0.0132
2532.00,0.0132
2531.00,0.0132
2530.00,0.0132
2529.00,0.0133
2528.00,0.0132
2527.00,0.0132
2526.00,0.0132
2525.00,0.0132
2524.00,0.0132
2523.00,0.0132
2522.00,0.0132
2521.00,0.0132
2520.00,0.0133
2519.00,0.0133
2518.00,0.0133
2517.00,0.0133
2516.00,0.0133
2515.00,0.0133
2514.00,0.0133
2513.00,0.0134
2512.00,0.0134
2511.00,0.0133
2510.00,0.0133
2509.00,0.0132
2508.00,0.0131
2507.00,0.0131
2506.00,0.0131
2505.00,0.0131
2504.00,0.0132
2503.00,0.0132
2502.00,0.0132
2501.00,0.0132
2500.00,0.0132
2499.00,0.0132
2498.00,0.0132
2497.00,0.0132
2496.00,0.0132
2495.00,0.0132
2494.00,0.0132
2493.00,0.0132
2492.00,0.0132
2491.00,0.0132
2490.00,0.0133
2489.00,0.0133
2488.00,0.0132
2487.00,0.0131
2486.00,0.0131
2485.00,0.0131
2484.00,0.0131
2483.00,0.0131
2482.00,0.0131
2481.00,0.0131
2480.00,0.0132
2479.00,0.0132
2478.00,0.0132
2477.00,0.0132
2476.00,0.0132
2475.00,0.0132
2474.00,0.0132
2473.00,0.0131
2472.00,0.0131
2471.00,0.0131
2470.00,0.0131
2469.00,0.0131
2468.00,0.0131
2467.00,0.0131
2466.00,0.0131
2465.00,0.0131
2464.00,0.0132
2463.00,0.0132
2462.00,0.0132
2461.00,0.0132
2460.00,0.0132
2459.00,0.0132
2458.00,0.0132
2457.00,0.0131
2456.00,0.0131
2455.00,0.0131
2454.00,0.0132
2453.00,0.0132
2452.00,0.0132
2451.00,0.0132
2450.00,0.0132
2449.00,0.0132
2448.00,0.0132
2447.00,0.0132
2446.00,0.0132
2445.00,0.0132
2444.00,0.0132
2443.00,0.0132
2442.00,0.0131
2441.00,0.0131
2440.00,0.0131
2439.00,0.0130
2438.00,0.0130
2437.00,0.0130
2436.00,0.0130
2435.00,0.0130
2434.00,0.0130
2433.00,0.0131
2432.00,0.0131
2431.00,0.0131
2430.00,0.0131
2429.00,0.0130
2428.00,0.0130
2427.00,0.0130
2426.00,0.0131
2425.00,0.0131
2424.00,0.0131
2423.00,0.0131
2422.00,0.0130
2421.00,0.0130
2420.00,0.0129
2419.00,0.0129
2418.00,0.0130
2417.00,0.0130
2416.00,0.0130
2415.00,0.0130
2414.00,0.0130
2413.00,0.0130
2412.00,0.0130
2411.00,0.0129
2410.00,0.0129
2409.00,0.0129
2408.00,0.0129
2407.00,0.0129
2406.00,0.0129
2405.00,0.0129
2404.00,0.0129
2403.00,0.0129
2402.00,0.0129
2401.00,0.0128
2400.00,0.0128
2399.00,0.0127
2398.00,0.0127
2397.00,0.0127
2396.00,0.0128
2395.00,0.0128
2394.00,0.0128
2393.00,0.0127
2392.00,0.0127
2391.00,0.0127
2390.00,0.0127
2389.00,0.0128
2388.00,0.0128
2387.00,0.0128
2386.00,0.0128
2385.00,0.0128
2384.00,0.0128
2383.00,0.0128
2382.00,0.0128
2381.00,0.0127
2380.00,0.0127
2379.00,0.0125
2378.00,0.0124
2377.00,0.0123
2376.00,0.0123
2375.00,0.0123
2374.00,0.0123
2373.00,0.0124
2372.00,0.0124
2371.00,0.0125
2370.00,0.0126
2369.00,0.0128
2368.00,0.0129
2367.00,0.0129
2366.00,0.0128
2365.00,0.0127
2364.00,0.0126
2363.00,0.0125
2362.00,0.0126
2361.00,0.0127
2360.00,0.0128
2359.00,0.0129
2358.00,0.0130
2357.00,0.0130
2356.00,0.0129
2355.00,0.0128
2354.00,0.0127
2353.00,0.0126
2352.00,0.0126
2351.00,0.0126
2350.00,0.0126
2349.00,0.0127
2348.00,0.0127
2347.00,0.0127
2346.00,0.0127
2345.00,0.0127
2344.00,0.0127
2343.00,0.0126
2342.00,0.0127
2341.00,0.0127
2340.00,0.0127
2339.00,0.0126
2338.00,0.0126
2337.00,0.0126
2336.00,0.0126
2335.00,0.0126
2334.00,0.0126
2333.00,0.0126
2332.00,0.0125
2331.00,0.0125
2330.00,0.0126
2329.00,0.0127
2328.00,0.0129
2327.00,0.0130
2326.00,0.0130
2325.00,0.0129
2324.00,0.0128
2323.00,0.0127
2322.00,0.0126
2321.00,0.0125
2320.00,0.0125
2319.00,0.0126
2318.00,0.0126
2317.00,0.0126
2316.00,0.0127
2315.00,0.0127
2314.00,0.0127
2313.00,0.0127
2312.00,0.0127
2311.00,0.0128
2310.00,0.0128
2309.00,0.0128
2308.00,0.0128
2307.00,0.0127
2306.00,0.0127
2305.00,0.0126
2304.00,0.0126
2303.00,0.0126
2302.00,0.0126
2301.00,0.0126
2300.00,0.0127
2299.00,0.0127
2298.00,0.0127
2297.00,0.0127
2296.00,0.0127
2295.00,0.0127
2294.00,0.0127
2293.00,0.0127
2292.00,0.0127
2291.00,0.0128
2290.00,0.0128
2289.00,0.0128
2288.00,0.0128
2287.00,0.0128
2286.00,0.0128
2285.00,0.0129
2284.00,0.0128
2283.00,0.0128
2282.00,0.0128
2281.00,0.0128
2280.00,0.0127
2279.00,0.0127
2278.00,0.0127
2277.00,0.0127
2276.00,0.0127
2275.00,0.0127
2274.00,0.0127
2273.00,0.0127
2272.00,0.0128
2271.00,0.0128
2270.00,0.0128
2269.00,0.0127
2268.00,0.0126
2267.00,0.0126
2266.00,0.0127
2265.00,0.0128
2264.00,0.0129
2263.00,0.0129
2262.00,0.0129
2261.00,0.0129
2260.00,0.0129
2259.00,0.0128
2258.00,0.0128
2257.00,0.0127
2256.00,0.0126
2255.00,0.0125
2254.00,0.0125
2253.00,0.0126
2252.00,0.0126
2251.00,0.0127
2250.00,0.0127
2249.00,0.0126
2248.00,0.0126
2247.00,0.0125
2246.00,0.0125
2245.00,0.0125
2244.00,0.0126
2243.00,0.0126
2242.00,0.0126
2241.00,0.0126
2240.00,0.0126
2239.00,0.0126
2238.00,0.0127
2237.00,0.0127
2236.00,0.0127
2235.00,0.0126
2234.00,0.0126
2233.00,0.0127
2232.00,0.0128
2231.00,0.0128
2230.00,0.0127
2229.00,0.0126
2228.00,0.0125
2227.00,0.0125
2226.00,0.0125
2225.00,0.0126
2224.00,0.0125
2223.00,0.0125
2222.00,0.0125
2221.00,0.0125
2220.00,0.0125
2219.00,0.0125
2218.00,0.0124
2217.00,0.0124
2216.00,0.0124
2215.00,0.0126
2214.00,0.0128
2213.00,0.0128
2212.00,0.0128
2211.00,0.0127
2210.00,0.0126
2209.00,0.0125
2208.00,0.0125
2207.00,0.0125
2206.00,0.0125
2205.00,0.0125
2204.00,0.0126
2203.00,0.0126
2202.00,0.0127
2201.00,0.0127
2200.00,0.0128
2199.00,0.0128
2198.00,0.0129
2197.00,0.0129
2196.00,0.0128
2195.00,0.0127
2194.00,0.0127
2193.00,0.0126
2192.00,0.0125
2191.00,0.0124
2190.00,0.0124
2189.00,0.0125
2188.00,0.0127
2187.00,0.0128
2186.00,0.0129
2185.00,0.0129
2184.00,0.0126
2183.00,0.0124
2182.00,0.0123
2181.00,0.0124
2180.00,0.0125
2179.00,0.0126
2178.00,0.0125
2177.00,0.0124
2176.00,0.0123
2175.00,0.0124
2174.00,0.0125
2173.00,0.0127
2172.00,0.0128
2171.00,0.0128
2170.00,0.0128
2169.00,0.0127
2168.00,0.0126
2167.00,0.0126
2166.00,0.0126
2165.00,0.0127
2164.00,0.0128
2163.00,0.0128
2162.00,0.0127
2161.00,0.0126
2160.00,0.0123
2159.00,0.0121
2158.00,0.0120
2157.00,0.0120
2156.00,0.0119
2155.00,0.0118
2154.00,0.0117
2153.00,0.0117
2152.00,0.0116
2151.00,0.0116
2150.00,0.0117
2149.00,0.0117
2148.00,0.0118
2147.00,0.0118
2146.00,0.0117
2145.00,0.0117
2144.00,0.0117
2143.00,0.0116
2142.00,0.0116
2141.00,0.0115
2140.00,0.0115
2139.00,0.0117
2138.00,0.0118
2137.00,0.0118
2136.00,0.0116
2135.00,0.0113
2134.00,0.0111
2133.00,0.0111
2132.00,0.0111
2131.00,0.0112
2130.00,0.0113
2129.00,0.0114
2128.00,0.0114
2127.00,0.0115
2126.00,0.0115
2125.00,0.0115
2124.00,0.0115
2123.00,0.0115
2122.00,0.0116
2121.00,0.0116
2120.00,0.0117
2119.00,0.0117
2118.00,0.0118
2117.00,0.0118
2116.00,0.0118
2115.00,0.0118
2114.00,0.0118
2113.00,0.0118
2112.00,0.0118
2111.00,0.0118
2110.00,0.0118
2109.00,0.0118
2108.00,0.0118
2107.00,0.0118
2106.00,0.0117
2105.00,0.0117
2104.00,0.0116
2103.00,0.0116
2102.00,0.0116
2101.00,0.0116
2100.00,0.0115
2099.00,0.0114
2098.00,0.0113
2097.00,0.0113
2096.00,0.0113
2095.00,0.0114
2094.00,0.0114
2093.00,0.0114
2092.00,0.0113
2091.00,0.0113
2090.00,0.0113
2089.00,0.0113
2088.00,0.0113
2087.00,0.0112
2086.00,0.0113
2085.00,0.0113
2084.00,0.0113
2083.00,0.0112
2082.00,0.0112
2081.00,0.0111
2080.00,0.0111
2079.00,0.0112
2078.00,0.0112
2077.00,0.0113
2076.00,0.0114
2075.00,0.0113
2074.00,0.0113
2073.00,0.0112
2072.00,0.0112
2071.00,0.0112
2070.00,0.0112
2069.00,0.0112
2068.00,0.0112
2067.00,0.0111
2066.00,0.0111
2065.00,0.0111
2064.00,0.0111
2063.00,0.0111
2062.00,0.0111
2061.00,0.0111
2060.00,0.0111
2059.00,0.0111
2058.00,0.0112
2057.00,0.0112
2056.00,0.0113
2055.00,0.0114
2054.00,0.0115
2053.00,0.0116
2052.00,0.0117
2051.00,0.0118
2050.00,0.0117
2049.00,0.0115
2048.00,0.0113
2047.00,0.0113
2046.00,0.0115
2045.00,0.0116
2044.00,0.0117
2043.00,0.0116
2042.00,0.0115
2041.00,0.0113
2040.00,0.0113
2039.00,0.0113
2038.00,0.0114
2037.00,0.0117
2036.00,0.0119
2035.00,0.0120
2034.00,0.0118
2033.00,0.0115
2032.00,0.0112
2031.00,0.0110
2030.00,0.0110
2029.00,0.0111
2028.00,0.0112
2027.00,0.0112
2026.00,0.0111
2025.00,0.0111
2024.00,0.0111
2023.00,0.0111
2022.00,0.0111
2021.00,0.0111
2020.00,0.0111
2019.00,0.0111
2018.00,0.0111
2017.00,0.0111
2016.00,0.0111
2015.00,0.0111
2014.00,0.0113
2013.00,0.0114
2012.00,0.0114
2011.00,0.0113
2010.00,0.0112
2009.00,0.0110
2008.00,0.0109
2007.00,0.0109
2006.00,0.0109
2005.00,0.0109
2004.00,0.0108
2003.00,0.0108
2002.00,0.0108
2001.00,0.0109
2000.00,0.0110
1999.00,0.0110
1998.00,0.0111
1997.00,0.0111
1996.00,0.0112
1995.00,0.0112
1994.00,0.0112
1993.00,0.0112
1992.00,0.0111
1991.00,0.0111
1990.00,0.0111
1989.00,0.0111
1988.00,0.0109
1987.00,0.0107
1986.00,0.0107
1985.00,0.0108
1984.00,0.0111
1983.00,0.0113
1982.00,0.0114
1981.00,0.0115
1980.00,0.0114
1979.00,0.0113
1978.00,0.0111
1977.00,0.0109
1976.00,0.0108
1975.00,0.0107
1974.00,0.0106
1973.00,0.0105
1972.00,0.0105
1971.00,0.0105
1970.00,0.0106
1969.00,0.0106
1968.00,0.0106
1967.00,0.0106
1966.00,0.0106
1965.00,0.0107
1964.00,0.0107
1963.00,0.0107
1962.00,0.0106
1961.00,0.0106
1960.00,0.0105
1959.00,0.0105
1958.00,0.0103
1957.00,0.0102
1956.00,0.0102
1955.00,0.0102
1954.00,0.0102
1953.00,0.0102
1952.00,0.0101
1951.00,0.0101
1950.00,0.0101
1949.00,0.0102
1948.00,0.0103
1947.00,0.0104
1946.00,0.0104
1945.00,0.0104
1944.00,0.0104
1943.00,0.0103
1942.00,0.0102
1941.00,0.0100
1940.00,0.0099
1939.00,0.0098
1938.00,0.0098
1937.00,0.0099
1936.00,0.0100
1935.00,0.0101
1934.00,0.0101
1933.00,0.0101
1932.00,0.0101
1931.00,0.0100
1930.00,0.0099
1929.00,0.0098
1928.00,0.0097
1927.00,0.0097
1926.00,0.0097
1925.00,0.0098
1924.00,0.0098
1923.00,0.0097
1922.00,0.0097
1921.00,0.0097
1920.00,0.0098
1919.00,0.0098
1918.00,0.0097
1917.00,0.0096
1916.00,0.0096
1915.00,0.0096
1914.00,0.0096
1913.00,0.0096
1912.00,0.0096
1911.00,0.0095
1910.00,0.0095
1909.00,0.0094
1908.00,0.0093
1907.00,0.0093
1906.00,0.0093
1905.00,0.0094
1904.00,0.0094
1903.00,0.0094
1902.00,0.0093
1901.00,0.0093
1900.00,0.0093
1899.00,0.0093
1898.00,0.0093
1897.00,0.0093
1896.00,0.0093
1895.00,0.0092
1894.00,0.0091
1893.00,0.0091
1892.00,0.0091
1891.00,0.0091
1890.00,0.0090
1889.00,0.0090
1888.00,0.0090
1887.00,0.0090
1886.00,0.0091
1885.00,0.0090
1884.00,0.0090
1883.00,0.0089
1882.00,0.0088
1881.00,0.0088
1880.00,0.0088
1879.00,0.0088
1878.00,0.0089
1877.00,0.0089
1876.00,0.0088
1875.00,0.0087
1874.00,0.0087
1873.00,0.0086
1872.00,0.0087
1871.00,0.0087
1870.00,0.0087
1869.00,0.0087
1868.00,0.0086
1867.00,0.0086
1866.00,0.0086
1865.00,0.0086
1864.00,0.0086
1863.00,0.0086
1862.00,0.0086
1861.00,0.0085
1860.00,0.0085
1859.00,0.0085
1858.00,0.0084
1857.00,0.0084
1856.00,0.0084
1855.00,0.0083
1854.00,0.0082
1853.00,0.0082
1852.00,0.0083
1851.00,0.0083
1850.00,0.0083
1849.00,0.0083
1848.00,0.0083
1847.00,0.0083
1846.00,0.0082
1845.00,0.0081
1844.00,0.0079
1843.00,0.0078
1842.00,0.0077
1841.00,0.0078
1840.00,0.0079
1839.00,0.0080
1838.00,0.0080
1837.00,0.0080
1836.00,0.0079
1835.00,0.0079
1834.00,0.0079
1833.00,0.0079
1832.00,0.0079
1831.00,0.0078
1830.00,0.0077
1829.00,0.0075
1828.00,0.0075
1827.00,0.0075
1826.00,0.0075
1825.00,0.0074
1824.00,0.0074
1823.00,0.0074
1822.00,0.0074
1821.00,0.0075
1820.00,0.0075
1819.00,0.0074
1818.00,0.0074
1817.00,0.0073
1816.00,0.0073
1815.00,0.0072
1814.00,0.0072
1813.00,0.0071
1812.00,0.0071
1811.00,0.0071
1810.00,0.0070
1809.00,0.0070
1808.00,0.0071
1807.00,0.0071
1806.00,0.0071
1805.00,0.0071
1804.00,0.0071
1803.00,0.0071
1802.00,0.0071
1801.00,0.0070
1800.00,0.0070
1799.00,0.0070
1798.00,0.0070
1797.00,0.0070
1796.00,0.0071
1795.00,0.0072
1794.00,0.0072
1793.00,0.0071
1792.00,0.0069
1791.00,0.0068
1790.00,0.0068
1789.00,0.0070
1788.00,0.0071
1787.00,0.0072
1786.00,0.0072
1785.00,0.0072
1784.00,0.0072
1783.00,0.0073
1782.00,0.0073
1781.00,0.0073
1780.00,0.0073
1779.00,0.0074
1778.00,0.0075
1777.00,0.0076
1776.00,0.0078
1775.00,0.0079
1774.00,0.0079
1773.00,0.0079
1772.00,0.0078
1771.00,0.0078
1770.00,0.0079
1769.00,0.0081
1768.00,0.0082
1767.00,0.0082
1766.00,0.0083
1765.00,0.0084
1764.00,0.0085
1763.00,0.0085
1762.00,0.0084
1761.00,0.0084
1760.00,0.0085
1759.00,0.0086
1758.00,0.0087
1757.00,0.0087
1756.00,0.0087
1755.00,0.0088
1754.00,0.0089
1753.00,0.0090
1752.00,0.0092
1751.00,0.0093
1750.00,0.0093
1749.00,0.0093
1748.00,0.0093
1747.00,0.0094
1746.00,0.0095
1745.00,0.0096
1744.00,0.0098
1743.00,0.0099
1742.00,0.0100
1741.00,0.0101
1740.00,0.0102
1739.00,0.0103
1738.00,0.0105
1737.00,0.0108
1736.00,0.0110
1735.00,0.0112
1734.00,0.0113
1733.00,0.0113
1732.00,0.0113
1731.00,0.0114
1730.00,0.0116
1729.00,0.0117
1728.00,0.0119
1727.00,0.0121
1726.00,0.0123
1725.00,0.0124
1724.00,0.0126
1723.00,0.0127
1722.00,0.0129
1721.00,0.0130
1720.00,0.0131
1719.00,0.0131
1718.00,0.0132
1717.00,0.0133
1716.00,0.0134
1715.00,0.0135
1714.00,0.0136
1713.00,0.0137
1712.00,0.0139
1711.00,0.0139
1710.00,0.0140
1709.00,0.0141
1708.00,0.0141
1707.00,0.0142
1706.00,0.0142
1705.00,0.0142
1704.00,0.0143
1703.00,0.0144
1702.00,0.0145
1701.00,0.0146
1700.00,0.0146
1699.00,0.0146
1698.00,0.0147
1697.00,0.0147
1696.00,0.0146
1695.00,0.0144
1694.00,0.0144
1693.00,0.0145
1692.00,0.0145
1691.00,0.0145
1690.00,0.0145
1689.00,0.0145
1688.00,0.0145
1687.00,0.0146
1686.00,0.0145
1685.00,0.0144
1684.00,0.0143
1683.00,0.0143
1682.00,0.0144
1681.00,0.0146
1680.00,0.0147
1679.00,0.0148
1678.00,0.0149
1677.00,0.0149
1676.00,0.0150
1675.00,0.0150
1674.00,0.0150
1673.00,0.0151
1672.00,0.0151
1671.00,0.0151
1670.00,0.0152
1669.00,0.0152
1668.00,0.0152
1667.00,0.0153
1666.00,0.0154
1665.00,0.0154
1664.00,0.0155
1663.00,0.0155
1662.00,0.0156
1661.00,0.0157
1660.00,0.0158
1659.00,0.0159
1658.00,0.0159
1657.00,0.0159
1656.00,0.0158
1655.00,0.0158
1654.00,0.0160
1653.00,0.0162
1652.00,0.0161
1651.00,0.0162
1650.00,0.0164
1649.00,0.0164
1648.00,0.0166
1647.00,0.0167
1646.00,0.0168
1645.00,0.0168
1644.00,0.0170
1643.00,0.0171
1642.00,0.0171
1641.00,0.0171
1640.00,0.0171
1639.00,0.0171
1638.00,0.0172
1637.00,0.0173
1636.00,0.0175
1635.00,0.0176
1634.00,0.0177
1633.00,0.0178
1632.00,0.0180
1631.00,0.0180
1630.00,0.0181
1629.00,0.0181
1628.00,0.0182
1627.00,0.0183
1626.00,0.0184
1625.00,0.0186
1624.00,0.0187
1623.00,0.0188
1622.00,0.0189
1621.00,0.0189
1620.00,0.0190
1619.00,0.0191
1618.00,0.0193
1617.00,0.0194
1616.00,0.0195
1615.00,0.0196
1614.00,0.0196
1613.00,0.0197
1612.00,0.0197
1611.00,0.0199
1610.00,0.0200
1609.00,0.0201
1608.00,0.0202
1607.00,0.0203
1606.00,0.0203
1605.00,0.0203
1604.00,0.0204
1603.00,0.0205
1602.00,0.0206
1601.00,0.0207
1600.00,0.0207
1599.00,0.0208
1598.00,0.0208
1597.00,0.0209
1596.00,0.0209
1595.00,0.0209
1594.00,0.0210
1593.00,0.0211
1592.00,0.0211
1591.00,0.0212
1590.00,0.0212
1589.00,0.0213
1588.00,0.0213
1587.00,0.0213
1586.00,0.0214
1585.00,0.0214
1584.00,0.0214
1583.00,0.0215
1582.00,0.0216
1581.00,0.0216
1580.00,0.0216
1579.00,0.0216
1578.00,0.0216
1577.00,0.0217
1576.00,0.0218
1575.00,0.0218
1574.00,0.0218
1573.00,0.0217
1572.00,0.0216
1571.00,0.0217
1570.00,0.0217
1569.00,0.0217
1568.00,0.0217
1567.00,0.0218
1566.00,0.0217
1565.00,0.0217
1564.00,0.0217
1563.00,0.0216
1562.00,0.0215
1561.00,0.0211
1560.00,0.0211
1559.00,0.0215
1558.00,0.0216
1557.00,0.0216
1556.00,0.0217
1555.00,0.0216
1554.00,0.0216
1553.00,0.0215
1552.00,0.0214
1551.00,0.0213
1550.00,0.0212
1549.00,0.0211
1548.00,0.0210
1547.00,0.0210
1546.00,0.0209
1545.00,0.0209
1544.00,0.0208
1543.00,0.0207
1542.00,0.0205
1541.00,0.0204
1540.00,0.0203
1539.00,0.0201
1538.00,0.0201
1537.00,0.0201
1536.00,0.0200
1535.00,0.0199
1534.00,0.0199
1533.00,0.0198
1532.00,0.0197
1531.00,0.0197
1530.00,0.0197
1529.00,0.0196
1528.00,0.0196
1527.00,0.0195
1526.00,0.0194
1525.00,0.0194
1524.00,0.0193
1523.00,0.0192
1522.00,0.0192
1521.00,0.0191
1520.00,0.0189
1519.00,0.0188
1518.00,0.0187
1517.00,0.0186
1516.00,0.0186
1515.00,0.0186
1514.00,0.0186
1513.00,0.0186
1512.00,0.0185
1511.00,0.0185
1510.00,0.0183
1509.00,0.0182
1508.00,0.0182
1507.00,0.0182
1506.00,0.0180
1505.00,0.0179
1504.00,0.0179
1503.00,0.0178
1502.00,0.0177
1501.00,0.0177
1500.00,0.0176
1499.00,0.0176
1498.00,0.0176
1497.00,0.0175
1496.00,0.0176
1495.00,0.0176
1494.00,0.0176
1493.00,0.0176
1492.00,0.0176
1491.00,0.0175
1490.00,0.0175
1489.00,0.0175
1488.00,0.0175
1487.00,0.0174
1486.00,0.0174
1485.00,0.0174
1484.00,0.0174
1483.00,0.0174
1482.00,0.0174
1481.00,0.0175
1480.00,0.0175
1479.00,0.0175
1478.00,0.0175
1477.00,0.0175
1476.00,0.0175
1475.00,0.0176
1474.00,0.0177
1473.00,0.0178
1472.00,0.0178
1471.00,0.0178
1470.00,0.0178
1469.00,0.0178
1468.00,0.0178
1467.00,0.0178
1466.00,0.0178
1465.00,0.0179
1464.00,0.0179
1463.00,0.0179
1462.00,0.0179
1461.00,0.0179
1460.00,0.0179
1459.00,0.0180
1458.00,0.0181
1457.00,0.0182
1456.00,0.0182
1455.00,0.0182
1454.00,0.0182
1453.00,0.0182
1452.00,0.0182
1451.00,0.0182
1450.00,0.0183
1449.00,0.0184
1448.00,0.0184
1447.00,0.0185
1446.00,0.0185
1445.00,0.0185
1444.00,0.0185
1443.00,0.0185
1442.00,0.0185
1441.00,0.0185
1440.00,0.0186
1439.00,0.0187
1438.00,0.0187
1437.00,0.0188
1436.00,0.0189
1435.00,0.0189
1434.00,0.0189
1433.00,0.0189
1432.00,0.0189
1431.00,0.0189
1430.00,0.0189
1429.00,0.0189
1428.00,0.0190
1427.00,0.0190
1426.00,0.0190
1425.00,0.0190
1424.00,0.0191
1423.00,0.0191
1422.00,0.0191
1421.00,0.0191
1420.00,0.0191
1419.00,0.0192
1418.00,0.0193
1417.00,0.0193
1416.00,0.0194
1415.00,0.0194
1414.00,0.0195
1413.00,0.0195
1412.00,0.0196
1411.00,0.0196
1410.00,0.0196
1409.00,0.0196
1408.00,0.0196
1407.00,0.0196
1406.00,0.0197
1405.00,0.0197
1404.00,0.0198
1403.00,0.0199
1402.00,0.0199
1401.00,0.0199
1400.00,0.0200
1399.00,0.0201
1398.00,0.0202
1397.00,0.0202
1396.00,0.0203
1395.00,0.0204
1394.00,0.0204
1393.00,0.0204
1392.00,0.0205
1391.00,0.0205
1390.00,0.0205
1389.00,0.0206
1388.00,0.0207
1387.00,0.0208
1386.00,0.0208
1385.00,0.0208
1384.00,0.0208
1383.00,0.0209
1382.00,0.0209
1381.00,0.0210
1380.00,0.0210
1379.00,0.0211
1378.00,0.0211
1377.00,0.0211
1376.00,0.0211
1375.00,0.0212
1374.00,0.0212
1373.00,0.0212
1372.00,0.0213
1371.00,0.0212
1370.00,0.0212
1369.00,0.0212
1368.00,0.0212
1367.00,0.0212
1366.00,0.0212
1365.00,0.0212
1364.00,0.0212
1363.00,0.0212
1362.00,0.0213
1361.00,0.0213
1360.00,0.0212
1359.00,0.0212
1358.00,0.0212
1357.00,0.0213
1356.00,0.0213
1355.00,0.0213
1354.00,0.0213
1353.00,0.0212
1352.00,0.0212
1351.00,0.0212
1350.00,0.0212
1349.00,0.0212
1348.00,0.0212
1347.00,0.0212
1346.00,0.0212
1345.00,0.0212
1344.00,0.0211
1343.00,0.0211
1342.00,0.0210
1341.00,0.0210
1340.00,0.0211
1339.00,0.0211
1338.00,0.0211
1337.00,0.0211
1336.00,0.0211
1335.00,0.0210
1334.00,0.0210
1333.00,0.0210
1332.00,0.0210
1331.00,0.0210
1330.00,0.0210
1329.00,0.0209
1328.00,0.0209
1327.00,0.0209
1326.00,0.0209
1325.00,0.0209
1324.00,0.0209
1323.00,0.0209
1322.00,0.0209
1321.00,0.0209
1320.00,0.0209
1319.00,0.0209
1318.00,0.0209
1317.00,0.0209
1316.00,0.0209
1315.00,0.0210
1314.00,0.0210
1313.00,0.0210
1312.00,0.0210
1311.00,0.0210
1310.00,0.0210
1309.00,0.0210
1308.00,0.0210
1307.00,0.0210
1306.00,0.0210
1305.00,0.0210
1304.00,0.0211
1303.00,0.0211
1302.00,0.0211
1301.00,0.0211
1300.00,0.0211
1299.00,0.0212
1298.00,0.0212
1297.00,0.0213
1296.00,0.0213
1295.00,0.0213
1294.00,0.0213
1293.00,0.0214
1292.00,0.0214
1291.00,0.0214
1290.00,0.0215
1289.00,0.0215
1288.00,0.0216
1287.00,0.0217
1286.00,0.0217
1285.00,0.0217
1284.00,0.0218
1283.00,0.0218
1282.00,0.0219
1281.00,0.0219
1280.00,0.0220
1279.00,0.0220
1278.00,0.0220
1277.00,0.0221
1276.00,0.0221
1275.00,0.0222
1274.00,0.0222
1273.00,0.0223
1272.00,0.0224
1271.00,0.0224
1270.00,0.0225
1269.00,0.0225
1268.00,0.0225
1267.00,0.0226
1266.00,0.0226
1265.00,0.0227
1264.00,0.0227
1263.00,0.0227
1262.00,0.0228
1261.00,0.0228
1260.00,0.0229
1259.00,0.0229
1258.00,0.0229
1257.00,0.0230
1256.00,0.0231
1255.00,0.0232
1254.00,0.0232
1253.00,0.0232
1252.00,0.0233
1251.00,0.0233
1250.00,0.0234
1249.00,0.0235
1248.00,0.0236
1247.00,0.0236
1246.00,0.0237
1245.00,0.0236
1244.00,0.0236
1243.00,0.0236
1242.00,0.0236
1241.00,0.0237
1240.00,0.0238
1239.00,0.0239
1238.00,0.0239
1237.00,0.0239
1236.00,0.0239
1235.00,0.0240
1234.00,0.0240
1233.00,0.0240
1232.00,0.0241
1231.00,0.0241
1230.00,0.0240
1229.00,0.0240
1228.00,0.0241
1227.00,0.0242
1226.00,0.0242
1225.00,0.0242
1224.00,0.0242
1223.00,0.0242
1222.00,0.0242
1221.00,0.0242
1220.00,0.0242
1219.00,0.0243
1218.00,0.0242
1217.00,0.0242
1216.00,0.0242
1215.00,0.0243
1214.00,0.0243
1213.00,0.0243
1212.00,0.0243
1211.00,0.0243
1210.00,0.0243
1209.00,0.0243
1208.00,0.0244
1207.00,0.0244
1206.00,0.0244
1205.00,0.0245
1204.00,0.0245
1203.00,0.0245
1202.00,0.0245
1201.00,0.0246
1200.00,0.0246
1199.00,0.0247
1198.00,0.0247
1197.00,0.0247
1196.00,0.0247
1195.00,0.0247
1194.00,0.0247
1193.00,0.0247
1192.00,0.0247
1191.00,0.0248
1190.00,0.0248
1189.00,0.0248
1188.00,0.0248
1187.00,0.0248
1186.00,0.0248
1185.00,0.0249
1184.00,0.0250
1183.00,0.0251
1182.00,0.0252
1181.00,0.0252
1180.00,0.0253
1179.00,0.0253
1178.00,0.0254
1177.00,0.0254
1176.00,0.0254
1175.00,0.0254
1174.00,0.0255
1173.00,0.0255
1172.00,0.0255
1171.00,0.0255
1170.00,0.0255
1169.00,0.0255
1168.00,0.0256
1167.00,0.0257
1166.00,0.0257
1165.00,0.0257
1164.00,0.0257
1163.00,0.0257
1162.00,0.0258
1161.00,0.0258
1160.00,0.0257
1159.00,0.0257
1158.00,0.0256
1157.00,0.0256
1156.00,0.0256
1155.00,0.0256
1154.00,0.0257
1153.00,0.0258
1152.00,0.0258
1151.00,0.0258
1150.00,0.0258
1149.00,0.0258
1148.00,0.0258
1147.00,0.0258
1146.00,0.0258
1145.00,0.0259
1144.00,0.0260
1143.00,0.0260
1142.00,0.0259
1141.00,0.0259
1140.00,0.0259
1139.00,0.0260
1138.00,0.0260
1137.00,0.0260
1136.00,0.0261
1135.00,0.0262
1134.00,0.0263
1133.00,0.0263
1132.00,0.0263
1131.00,0.0263
1130.00,0.0263
1129.00,0.0264
1128.00,0.0266
1127.00,0.0268
1126.00,0.0270
1125.00,0.0272
1124.00,0.0274
1123.00,0.0275
1122.00,0.0277
1121.00,0.0280
1120.00,0.0282
1119.00,0.0284
1118.00,0.0286
1117.00,0.0289
1116.00,0.0291
1115.00,0.0291
1114.00,0.0290
1113.00,0.0289
1112.00,0.0288
1111.00,0.0288
1110.00,0.0289
1109.00,0.0289
1108.00,0.0291
1107.00,0.0293
1106.00,0.0294
1105.00,0.0296
1104.00,0.0297
1103.00,0.0297
1102.00,0.0298
1101.00,0.0299
1100.00,0.0300
1099.00,0.0300
1098.00,0.0300
1097.00,0.0301
1096.00,0.0302
1095.00,0.0303
1094.00,0.0303
1093.00,0.0304
1092.00,0.0305
1091.00,0.0305
1090.00,0.0306
1089.00,0.0307
1088.00,0.0308
1087.00,0.0308
1086.00,0.0307
1085.00,0.0306
1084.00,0.0305
1083.00,0.0305
1082.00,0.0305
1081.00,0.0306
1080.00,0.0307
1079.00,0.0308
1078.00,0.0309
1077.00,0.0309
1076.00,0.0309
1075.00,0.0310
1074.00,0.0310
1073.00,0.0311
1072.00,0.0311
1071.00,0.0312
1070.00,0.0312
1069.00,0.0312
1068.00,0.0313
1067.00,0.0314
1066.00,0.0314
1065.00,0.0314
1064.00,0.0315
1063.00,0.0316
1062.00,0.0316
1061.00,0.0317
1060.00,0.0318
1059.00,0.0319
1058.00,0.0319
1057.00,0.0319
1056.00,0.0319
1055.00,0.0320
1054.00,0.0321
1053.00,0.0323
1052.00,0.0325
1051.00,0.0327
1050.00,0.0329
1049.00,0.0330
1048.00,0.0331
1047.00,0.0332
1046.00,0.0332
1045.00,0.0333
1044.00,0.0334
1043.00,0.0335
1042.00,0.0336
1041.00,0.0338
1040.00,0.0340
1039.00,0.0342
1038.00,0.0345
1037.00,0.0347
1036.00,0.0350
1035.00,0.0351
1034.00,0.0351
1033.00,0.0350
1032.00,0.0351
1031.00,0.0351
1030.00,0.0350
1029.00,0.0349
1028.00,0.0347
1027.00,0.0345
1026.00,0.0343
1025.00,0.0341
1024.00,0.0339
1023.00,0.0337
1022.00,0.0336
1021.00,0.0335
1020.00,0.0334
1019.00,0.0333
1018.00,0.0332
1017.00,0.0332
1016.00,0.0332
1015.00,0.0333
1014.00,0.0334
1013.00,0.0336
1012.00,0.0337
1011.00,0.0339
1010.00,0.0341
1009.00,0.0342
1008.00,0.0343
1007.00,0.0342
1006.00,0.0341
1005.00,0.0339
1004.00,0.0338
1003.00,0.0338
1002.00,0.0337
1001.00,0.0335
1000.00,0.0333
999.00,0.0331
998.00,0.0329
997.00,0.0327
996.00,0.0325
995.00,0.0323
994.00,0.0321
993.00,0.0319
992.00,0.0318
991.00,0.0315
990.00,0.0313
989.00,0.0309
988.00,0.0307
987.00,0.0304
986.00,0.0302
985.00,0.0301
984.00,0.0299
983.00,0.0298
982.00,0.0297
981.00,0.0297
980.00,0.0296
979.00,0.0295
978.00,0.0293
977.00,0.0291
976.00,0.0289
975.00,0.0288
974.00,0.0287
973.00,0.0286
972.00,0.0286
971.00,0.0285
970.00,0.0284
969.00,0.0283
968.00,0.0282
967.00,0.0282
966.00,0.0281
965.00,0.0280
964.00,0.0280
963.00,0.0279
962.00,0.0279
961.00,0.0279
960.00,0.0278
959.00,0.0277
958.00,0.0276
957.00,0.0276
956.00,0.0275
955.00,0.0275
954.00,0.0275
953.00,0.0276
952.00,0.0276
951.00,0.0276
950.00,0.0275
949.00,0.0274
948.00,0.0274
947.00,0.0274
946.00,0.0275
945.00,0.0277
944.00,0.0278
943.00,0.0279
942.00,0.0279
941.00,0.0280
940.00,0.0280
939.00,0.0281
938.00,0.0281
937.00,0.0281
936.00,0.0281
935.00,0.0282
934.00,0.0282
933.00,0.0281
932.00,0.0280
931.00,0.0279
930.00,0.0278
929.00,0.0277
928.00,0.0276
927.00,0.0276
926.00,0.0277
925.00,0.0279
924.00,0.0281
923.00,0.0282
922.00,0.0283
921.00,0.0283
920.00,0.0284
919.00,0.0287
918.00,0.0290
917.00,0.0294
916.00,0.0296
915.00,0.0298
914.00,0.0298
913.00,0.0298
912.00,0.0298
911.00,0.0297
910.00,0.0295
909.00,0.0294
908.00,0.0294
907.00,0.0293
906.00,0.0292
905.00,0.0291
904.00,0.0289
903.00,0.0287
902.00,0.0285
901.00,0.0284
900.00,0.0283
899.00,0.0282
898.00,0.0281
897.00,0.0280
896.00,0.0279
895.00,0.0277
894.00,0.0275
893.00,0.0273
892.00,0.0271
891.00,0.0271
890.00,0.0271
889.00,0.0270
888.00,0.0269
887.00,0.0268
886.00,0.0266
885.00,0.0265
884.00,0.0264
883.00,0.0263
882.00,0.0263
881.00,0.0263
880.00,0.0264
879.00,0.0266
878.00,0.0267
877.00,0.0266
876.00,0.0263
875.00,0.0261
874.00,0.0259
873.00,0.0260
872.00,0.0261
871.00,0.0262
870.00,0.0263
869.00,0.0262
868.00,0.0260
867.00,0.0258
866.00,0.0255
865.00,0.0254
864.00,0.0253
863.00,0.0255
862.00,0.0257
861.00,0.0258
860.00,0.0258
859.00,0.0257
858.00,0.0256
857.00,0.0255
856.00,0.0255
855.00,0.0254
854.00,0.0254
853.00,0.0254
852.00,0.0253
851.00,0.0254
850.00,0.0254
849.00,0.0255
848.00,0.0256
847.00,0.0255
846.00,0.0255
845.00,0.0255
844.00,0.0256
843.00,0.0256
842.00,0.0256
841.00,0.0256
840.00,0.0257
839.00,0.0258
838.00,0.0257
837.00,0.0256
836.00,0.0256
835.00,0.0256
834.00,0.0257
833.00,0.0258
832.00,0.0258
831.00,0.0258
830.00,0.0259
829.00,0.0260
828.00,0.0261
827.00,0.0262
826.00,0.0263
825.00,0.0264
824.00,0.0265
823.00,0.0267
822.00,0.0268
821.00,0.0269
820.00,0.0268
819.00,0.0269
818.00,0.0269
817.00,0.0269
816.00,0.0270
815.00,0.0270
814.00,0.0271
813.00,0.0272
812.00,0.0274
811.00,0.0275
810.00,0.0276
809.00,0.0275
808.00,0.0274
807.00,0.0274
806.00,0.0276
805.00,0.0278
804.00,0.0282
803.00,0.0286
802.00,0.0288
801.00,0.0289
800.00,0.0290
799.00,0.0293
798.00,0.0295
797.00,0.0296
796.00,0.0296
795.00,0.0296
794.00,0.0295
793.00,0.0294
792.00,0.0293
791.00,0.0293
790.00,0.0294
789.00,0.0295
788.00,0.0295
787.00,0.0294
786.00,0.0292
785.00,0.0291
784.00,0.0291
783.00,0.0293
782.00,0.0296
781.00,0.0298
780.00,0.0298
779.00,0.0297
778.00,0.0296
777.00,0.0297
776.00,0.0298
775.00,0.0299
774.00,0.0299
773.00,0.0299
772.00,0.0297
771.00,0.0296
770.00,0.0295
769.00,0.0294
768.00,0.0295
767.00,0.0296
766.00,0.0299
765.00,0.0300
764.00,0.0301
763.00,0.0301
762.00,0.0300
761.00,0.0300
760.00,0.0301
759.00,0.0302
758.00,0.0302
757.00,0.0303
756.00,0.0304
755.00,0.0305
754.00,0.0306
753.00,0.0305
752.00,0.0304
751.00,0.0303
750.00,0.0303
749.00,0.0305
748.00,0.0306
747.00,0.0307
746.00,0.0308
745.00,0.0308
744.00,0.0307
743.00,0.0306
742.00,0.0303
741.00,0.0301
740.00,0.0301
739.00,0.0302
738.00,0.0305
737.00,0.0306
736.00,0.0305
735.00,0.0303
734.00,0.0301
733.00,0.0301
732.00,0.0302
731.00,0.0303
730.00,0.0304
729.00,0.0304
728.00,0.0305
727.00,0.0305
726.00,0.0304
725.00,0.0301
724.00,0.0299
723.00,0.0298
722.00,0.0298
721.00,0.0300
720.00,0.0301
719.00,0.0302
718.00,0.0305
717.00,0.0307
716.00,0.0308
715.00,0.0307
714.00,0.0304
713.00,0.0301
712.00,0.0301
711.00,0.0303
710.00,0.0306
709.00,0.0308
708.00,0.0310
707.00,0.0311
706.00,0.0312
705.00,0.0313
704.00,0.0313
703.00,0.0314
702.00,0.0315
701.00,0.0317
700.00,0.0320
699.00,0.0323
698.00,0.0326
697.00,0.0329
696.00,0.0333
695.00,0.0336
694.00,0.0336
693.00,0.0333
692.00,0.0330
691.00,0.0329
690.00,0.0331
689.00,0.0334
688.00,0.0335
687.00,0.0334
686.00,0.0334
685.00,0.0336
684.00,0.0338
683.00,0.0339
682.00,0.0339
681.00,0.0338
680.00,0.0337
679.00,0.0336
678.00,0.0336
677.00,0.0337
676.00,0.0339
675.00,0.0343
674.00,0.0347
673.00,0.0351
672.00,0.0352
671.00,0.0347
670.00,0.0337
669.00,0.0326
668.00,0.0321
667.00,0.0325
666.00,0.0330
665.00,0.0333
664.00,0.0335
663.00,0.0339
662.00,0.0344
661.00,0.0348
660.00,0.0349
659.00,0.0348
658.00,0.0347
657.00,0.0347
656.00,0.0347
655.00,0.0346
654.00,0.0344
653.00,0.0342
652.00,0.0340
651.00,0.0338
650.00,0.0333
