Created as New Dataset,Monday, April 03 2023
cm-1,A
4000.00,0.0172
3999.00,0.0171
3998.00,0.0171
3997.00,0.0171
3996.00,0.0171
3995.00,0.0171
3994.00,0.0171
3993.00,0.0171
3992.00,0.0171
3991.00,0.0171
3990.00,0.0171
3989.00,0.0171
3988.00,0.0171
3987.00,0.0171
3986.00,0.0171
3985.00,0.0171
3984.00,0.0171
3983.00,0.0171
3982.00,0.0171
3981.00,0.0171
3980.00,0.0171
3979.00,0.0171
3978.00,0.0171
3977.00,0.0171
3976.00,0.0171
3975.00,0.0170
3974.00,0.0170
3973.00,0.0170
3972.00,0.0170
3971.00,0.0170
3970.00,0.0170
3969.00,0.0170
3968.00,0.0170
3967.00,0.0170
3966.00,0.0171
3965.00,0.0171
3964.00,0.0172
3963.00,0.0172
3962.00,0.0171
3961.00,0.0171
3960.00,0.0171
3959.00,0.0170
3958.00,0.0170
3957.00,0.0170
3956.00,0.0170
3955.00,0.0170
3954.00,0.0170
3953.00,0.0170
3952.00,0.0170
3951.00,0.0171
3950.00,0.0171
3949.00,0.0170
3948.00,0.0170
3947.00,0.0169
3946.00,0.0170
3945.00,0.0170
3944.00,0.0170
3943.00,0.0169
3942.00,0.0169
3941.00,0.0169
3940.00,0.0169
3939.00,0.0169
3938.00,0.0170
3937.00,0.0169
3936.00,0.0169
3935.00,0.0169
3934.00,0.0169
3933.00,0.0169
3932.00,0.0169
3931.00,0.0169
3930.00,0.0168
3929.00,0.0168
3928.00,0.0168
3927.00,0.0169
3926.00,0.0169
3925.00,0.0169
3924.00,0.0168
3923.00,0.0168
3922.00,0.0168
3921.00,0.0168
3920.00,0.0168
3919.00,0.0168
3918.00,0.0168
3917.00,0.0168
3916.00,0.0168
3915.00,0.0168
3914.00,0.0168
3913.00,0.0169
3912.00,0.0169
3911.00,0.0169
3910.00,0.0169
3909.00,0.0169
3908.00,0.0168
3907.00,0.0167
3906.00,0.0166
3905.00,0.0166
3904.00,0.0165
3903.00,0.0165
3902.00,0.0166
3901.00,0.0167
3900.00,0.0167
3899.00,0.0167
3898.00,0.0167
3897.00,0.0167
3896.00,0.0168
3895.00,0.0168
3894.00,0.0168
3893.00,0.0168
3892.00,0.0168
3891.00,0.0167
3890.00,0.0166
3889.00,0.0166
3888.00,0.0168
3887.00,0.0169
3886.00,0.0168
3885.00,0.0167
3884.00,0.0166
3883.00,0.0167
3882.00,0.0168
3881.00,0.0168
3880.00,0.0167
3879.00,0.0165
3878.00,0.0165
3877.00,0.0166
3876.00,0.0167
3875.00,0.0166
3874.00,0.0165
3873.00,0.0164
3872.00,0.0164
3871.00,0.0165
3870.00,0.0164
3869.00,0.0163
3868.00,0.0164
3867.00,0.0166
3866.00,0.0167
3865.00,0.0167
3864.00,0.0166
3863.00,0.0165
3862.00,0.0166
3861.00,0.0166
3860.00,0.0166
3859.00,0.0166
3858.00,0.0165
3857.00,0.0163
3856.00,0.0162
3855.00,0.0162
3854.00,0.0165
3853.00,0.0165
3852.00,0.0163
3851.00,0.0163
3850.00,0.0165
3849.00,0.0167
3848.00,0.0167
3847.00,0.0166
3846.00,0.0165
3845.00,0.0165
3844.00,0.0164
3843.00,0.0163
3842.00,0.0162
3841.00,0.0162
3840.00,0.0162
3839.00,0.0162
3838.00,0.0163
3837.00,0.0163
3836.00,0.0163
3835.00,0.0163
3834.00,0.0164
3833.00,0.0165
3832.00,0.0165
3831.00,0.0165
3830.00,0.0166
3829.00,0.0166
3828.00,0.0166
3827.00,0.0165
3826.00,0.0164
3825.00,0.0162
3824.00,0.0162
3823.00,0.0162
3822.00,0.0163
3821.00,0.0163
3820.00,0.0161
3819.00,0.0161
3818.00,0.0163
3817.00,0.0165
3816.00,0.0165
3815.00,0.0164
3814.00,0.0164
3813.00,0.0165
3812.00,0.0166
3811.00,0.0164
3810.00,0.0163
3809.00,0.0163
3808.00,0.0164
3807.00,0.0163
3806.00,0.0162
3805.00,0.0161
3804.00,0.0162
3803.00,0.0163
3802.00,0.0163
3801.00,0.0163
3800.00,0.0162
3799.00,0.0162
3798.00,0.0163
3797.00,0.0163
3796.00,0.0163
3795.00,0.0162
3794.00,0.0163
3793.00,0.0164
3792.00,0.0164
3791.00,0.0164
3790.00,0.0164
3789.00,0.0164
3788.00,0.0164
3787.00,0.0164
3786.00,0.0164
3785.00,0.0163
3784.00,0.0163
3783.00,0.0162
3782.00,0.0162
3781.00,0.0163
3780.00,0.0163
3779.00,0.0162
3778.00,0.0162
3777.00,0.0162
3776.00,0.0163
3775.00,0.0163
3774.00,0.0162
3773.00,0.0162
3772.00,0.0162
3771.00,0.0162
3770.00,0.0162
3769.00,0.0161
3768.00,0.0161
3767.00,0.0162
3766.00,0.0162
3765.00,0.0162
3764.00,0.0161
3763.00,0.0161
3762.00,0.0161
3761.00,0.0161
3760.00,0.0160
3759.00,0.0160
3758.00,0.0159
3757.00,0.0159
3756.00,0.0158
3755.00,0.0158
3754.00,0.0158
3753.00,0.0157
3752.00,0.0158
3751.00,0.0159
3750.00,0.0159
3749.00,0.0158
3748.00,0.0157
3747.00,0.0157
3746.00,0.0158
3745.00,0.0159
3744.00,0.0158
3743.00,0.0156
3742.00,0.0157
3741.00,0.0159
3740.00,0.0159
3739.00,0.0157
3738.00,0.0156
3737.00,0.0156
3736.00,0.0156
3735.00,0.0156
3734.00,0.0155
3733.00,0.0156
3732.00,0.0156
3731.00,0.0157
3730.00,0.0157
3729.00,0.0158
3728.00,0.0159
3727.00,0.0158
3726.00,0.0158
3725.00,0.0158
3724.00,0.0158
3723.00,0.0158
3722.00,0.0158
3721.00,0.0159
3720.00,0.0160
3719.00,0.0161
3718.00,0.0162
3717.00,0.0162
3716.00,0.0162
3715.00,0.0162
3714.00,0.0162
3713.00,0.0162
3712.00,0.0163
3711.00,0.0164
3710.00,0.0165
3709.00,0.0167
3708.00,0.0169
3707.00,0.0171
3706.00,0.0172
3705.00,0.0173
3704.00,0.0174
3703.00,0.0176
3702.00,0.0178
3701.00,0.0180
3700.00,0.0181
3699.00,0.0183
3698.00,0.0184
3697.00,0.0185
3696.00,0.0184
3695.00,0.0184
3694.00,0.0183
3693.00,0.0182
3692.00,0.0181
3691.00,0.0181
3690.00,0.0182
3689.00,0.0182
3688.00,0.0182
3687.00,0.0181
3686.00,0.0182
3685.00,0.0182
3684.00,0.0182
3683.00,0.0181
3682.00,0.0179
3681.00,0.0178
3680.00,0.0175
3679.00,0.0172
3678.00,0.0171
3677.00,0.0172
3676.00,0.0175
3675.00,0.0176
3674.00,0.0175
3673.00,0.0176
3672.00,0.0179
3671.00,0.0180
3670.00,0.0181
3669.00,0.0180
3668.00,0.0180
3667.00,0.0182
3666.00,0.0183
3665.00,0.0184
3664.00,0.0185
3663.00,0.0186
3662.00,0.0187
3661.00,0.0187
3660.00,0.0187
3659.00,0.0188
3658.00,0.0190
3657.00,0.0192
3656.00,0.0193
3655.00,0.0193
3654.00,0.0193
3653.00,0.0192
3652.00,0.0191
3651.00,0.0191
3650.00,0.0194
3649.00,0.0197
3648.00,0.0198
3647.00,0.0198
3646.00,0.0199
3645.00,0.0200
3644.00,0.0201
3643.00,0.0202
3642.00,0.0202
3641.00,0.0203
3640.00,0.0203
3639.00,0.0203
3638.00,0.0203
3637.00,0.0203
3636.00,0.0203
3635.00,0.0204
3634.00,0.0203
3633.00,0.0202
3632.00,0.0201
3631.00,0.0202
3630.00,0.0204
3629.00,0.0208
3628.00,0.0210
3627.00,0.0211
3626.00,0.0214
3625.00,0.0217
3624.00,0.0218
3623.00,0.0219
3622.00,0.0220
3621.00,0.0222
3620.00,0.0224
3619.00,0.0225
3618.00,0.0224
3617.00,0.0223
3616.00,0.0222
3615.00,0.0221
3614.00,0.0220
3613.00,0.0219
3612.00,0.0219
3611.00,0.0220
3610.00,0.0221
3609.00,0.0222
3608.00,0.0223
3607.00,0.0223
3606.00,0.0223
3605.00,0.0223
3604.00,0.0223
3603.00,0.0223
3602.00,0.0223
3601.00,0.0223
3600.00,0.0223
3599.00,0.0223
3598.00,0.0223
3597.00,0.0223
3596.00,0.0223
3595.00,0.0224
3594.00,0.0225
3593.00,0.0226
3592.00,0.0226
3591.00,0.0226
3590.00,0.0226
3589.00,0.0226
3588.00,0.0227
3587.00,0.0228
3586.00,0.0228
3585.00,0.0229
3584.00,0.0230
3583.00,0.0230
3582.00,0.0231
3581.00,0.0231
3580.00,0.0231
3579.00,0.0232
3578.00,0.0232
3577.00,0.0233
3576.00,0.0233
3575.00,0.0234
3574.00,0.0234
3573.00,0.0234
3572.00,0.0234
3571.00,0.0233
3570.00,0.0233
3569.00,0.0233
3568.00,0.0235
3567.00,0.0237
3566.00,0.0237
3565.00,0.0238
3564.00,0.0238
3563.00,0.0239
3562.00,0.0239
3561.00,0.0240
3560.00,0.0240
3559.00,0.0241
3558.00,0.0241
3557.00,0.0241
3556.00,0.0242
3555.00,0.0242
3554.00,0.0243
3553.00,0.0243
3552.00,0.0244
3551.00,0.0244
3550.00,0.0244
3549.00,0.0245
3548.00,0.0246
3547.00,0.0247
3546.00,0.0248
3545.00,0.0248
3544.00,0.0248
3543.00,0.0249
3542.00,0.0249
3541.00,0.0249
3540.00,0.0250
3539.00,0.0250
3538.00,0.0251
3537.00,0.0251
3536.00,0.0252
3535.00,0.0252
3534.00,0.0252
3533.00,0.0252
3532.00,0.0252
3531.00,0.0252
3530.00,0.0253
3529.00,0.0253
3528.00,0.0254
3527.00,0.0255
3526.00,0.0255
3525.00,0.0255
3524.00,0.0256
3523.00,0.0256
3522.00,0.0257
3521.00,0.0257
3520.00,0.0258
3519.00,0.0258
3518.00,0.0259
3517.00,0.0260
3516.00,0.0261
3515.00,0.0261
3514.00,0.0260
3513.00,0.0260
3512.00,0.0260
3511.00,0.0260
3510.00,0.0261
3509.00,0.0261
3508.00,0.0262
3507.00,0.0262
3506.00,0.0262
3505.00,0.0263
3504.00,0.0263
3503.00,0.0264
3502.00,0.0265
3501.00,0.0266
3500.00,0.0266
3499.00,0.0266
3498.00,0.0267
3497.00,0.0267
3496.00,0.0268
3495.00,0.0269
3494.00,0.0269
3493.00,0.0269
3492.00,0.0269
3491.00,0.0269
3490.00,0.0269
3489.00,0.0270
3488.00,0.0271
3487.00,0.0272
3486.00,0.0272
3485.00,0.0272
3484.00,0.0272
3483.00,0.0272
3482.00,0.0272
3481.00,0.0273
3480.00,0.0273
3479.00,0.0274
3478.00,0.0274
3477.00,0.0275
3476.00,0.0275
3475.00,0.0276
3474.00,0.0276
3473.00,0.0276
3472.00,0.0276
3471.00,0.0276
3470.00,0.0276
3469.00,0.0277
3468.00,0.0277
3467.00,0.0278
3466.00,0.0278
3465.00,0.0279
3464.00,0.0279
3463.00,0.0280
3462.00,0.0280
3461.00,0.0281
3460.00,0.0281
3459.00,0.0281
3458.00,0.0281
3457.00,0.0281
3456.00,0.0282
3455.00,0.0282
3454.00,0.0282
3453.00,0.0283
3452.00,0.0283
3451.00,0.0283
3450.00,0.0284
3449.00,0.0284
3448.00,0.0285
3447.00,0.0285
3446.00,0.0286
3445.00,0.0286
3444.00,0.0286
3443.00,0.0286
3442.00,0.0286
3441.00,0.0287
3440.00,0.0287
3439.00,0.0287
3438.00,0.0288
3437.00,0.0288
3436.00,0.0289
3435.00,0.0289
3434.00,0.0290
3433.00,0.0290
3432.00,0.0290
3431.00,0.0291
3430.00,0.0291
3429.00,0.0291
3428.00,0.0291
3427.00,0.0291
3426.00,0.0291
3425.00,0.0292
3424.00,0.0292
3423.00,0.0292
3422.00,0.0293
3421.00,0.0293
3420.00,0.0293
3419.00,0.0293
3418.00,0.0294
3417.00,0.0294
3416.00,0.0294
3415.00,0.0295
3414.00,0.0295
3413.00,0.0295
3412.00,0.0295
3411.00,0.0295
3410.00,0.0296
3409.00,0.0296
3408.00,0.0296
3407.00,0.0296
3406.00,0.0296
3405.00,0.0297
3404.00,0.0297
3403.00,0.0297
3402.00,0.0298
3401.00,0.0298
3400.00,0.0298
3399.00,0.0298
3398.00,0.0298
3397.00,0.0298
3396.00,0.0299
3395.00,0.0299
3394.00,0.0300
3393.00,0.0301
3392.00,0.0301
3391.00,0.0301
3390.00,0.0300
3389.00,0.0300
3388.00,0.0300
3387.00,0.0301
3386.00,0.0302
3385.00,0.0302
3384.00,0.0302
3383.00,0.0302
3382.00,0.0302
3381.00,0.0302
3380.00,0.0303
3379.00,0.0303
3378.00,0.0303
3377.00,0.0303
3376.00,0.0304
3375.00,0.0304
3374.00,0.0305
3373.00,0.0305
3372.00,0.0304
3371.00,0.0304
3370.00,0.0304
3369.00,0.0303
3368.00,0.0304
3367.00,0.0304
3366.00,0.0304
3365.00,0.0305
3364.00,0.0305
3363.00,0.0305
3362.00,0.0305
3361.00,0.0305
3360.00,0.0305
3359.00,0.0305
3358.00,0.0305
3357.00,0.0306
3356.00,0.0306
3355.00,0.0306
3354.00,0.0306
3353.00,0.0307
3352.00,0.0307
3351.00,0.0308
3350.00,0.0308
3349.00,0.0308
3348.00,0.0308
3347.00,0.0308
3346.00,0.0307
3345.00,0.0307
3344.00,0.0307
3343.00,0.0307
3342.00,0.0308
3341.00,0.0308
3340.00,0.0308
3339.00,0.0308
3338.00,0.0307
3337.00,0.0307
3336.00,0.0307
3335.00,0.0307
3334.00,0.0308
3333.00,0.0308
3332.00,0.0308
3331.00,0.0308
3330.00,0.0309
3329.00,0.0309
3328.00,0.0309
3327.00,0.0309
3326.00,0.0309
3325.00,0.0309
3324.00,0.0309
3323.00,0.0309
3322.00,0.0309
3321.00,0.0309
3320.00,0.0309
3319.00,0.0309
3318.00,0.0309
3317.00,0.0309
3316.00,0.0308
3315.00,0.0309
3314.00,0.0309
3313.00,0.0310
3312.00,0.0310
3311.00,0.0310
3310.00,0.0310
3309.00,0.0310
3308.00,0.0310
3307.00,0.0310
3306.00,0.0310
3305.00,0.0309
3304.00,0.0309
3303.00,0.0310
3302.00,0.0310
3301.00,0.0311
3300.00,0.0311
3299.00,0.0311
3298.00,0.0311
3297.00,0.0311
3296.00,0.0311
3295.00,0.0311
3294.00,0.0311
3293.00,0.0311
3292.00,0.0311
3291.00,0.0311
3290.00,0.0311
3289.00,0.0311
3288.00,0.0311
3287.00,0.0311
3286.00,0.0311
3285.00,0.0311
3284.00,0.0310
3283.00,0.0310
3282.00,0.0310
3281.00,0.0310
3280.00,0.0310
3279.00,0.0310
3278.00,0.0311
3277.00,0.0311
3276.00,0.0312
3275.00,0.0312
3274.00,0.0312
3273.00,0.0312
3272.00,0.0312
3271.00,0.0312
3270.00,0.0312
3269.00,0.0312
3268.00,0.0312
3267.00,0.0311
3266.00,0.0311
3265.00,0.0311
3264.00,0.0311
3263.00,0.0311
3262.00,0.0311
3261.00,0.0311
3260.00,0.0311
3259.00,0.0311
3258.00,0.0311
3257.00,0.0311
3256.00,0.0312
3255.00,0.0312
3254.00,0.0312
3253.00,0.0312
3252.00,0.0312
3251.00,0.0312
3250.00,0.0313
3249.00,0.0313
3248.00,0.0313
3247.00,0.0313
3246.00,0.0313
3245.00,0.0312
3244.00,0.0312
3243.00,0.0312
3242.00,0.0312
3241.00,0.0312
3240.00,0.0313
3239.00,0.0313
3238.00,0.0313
3237.00,0.0314
3236.00,0.0313
3235.00,0.0313
3234.00,0.0313
3233.00,0.0313
3232.00,0.0313
3231.00,0.0314
3230.00,0.0314
3229.00,0.0314
3228.00,0.0314
3227.00,0.0314
3226.00,0.0314
3225.00,0.0313
3224.00,0.0313
3223.00,0.0312
3222.00,0.0312
3221.00,0.0312
3220.00,0.0312
3219.00,0.0312
3218.00,0.0312
3217.00,0.0312
3216.00,0.0312
3215.00,0.0312
3214.00,0.0312
3213.00,0.0312
3212.00,0.0312
3211.00,0.0312
3210.00,0.0312
3209.00,0.0312
3208.00,0.0312
3207.00,0.0312
3206.00,0.0312
3205.00,0.0312
3204.00,0.0312
3203.00,0.0312
3202.00,0.0311
3201.00,0.0311
3200.00,0.0311
3199.00,0.0311
3198.00,0.0311
3197.00,0.0311
3196.00,0.0311
3195.00,0.0311
3194.00,0.0311
3193.00,0.0310
3192.00,0.0310
3191.00,0.0310
3190.00,0.0310
3189.00,0.0310
3188.00,0.0310
3187.00,0.0310
3186.00,0.0311
3185.00,0.0311
3184.00,0.0311
3183.00,0.0310
3182.00,0.0310
3181.00,0.0310
3180.00,0.0310
3179.00,0.0309
3178.00,0.0309
3177.00,0.0309
3176.00,0.0309
3175.00,0.0309
3174.00,0.0309
3173.00,0.0309
3172.00,0.0309
3171.00,0.0309
3170.00,0.0309
3169.00,0.0309
3168.00,0.0309
3167.00,0.0308
3166.00,0.0308
3165.00,0.0308
3164.00,0.0308
3163.00,0.0308
3162.00,0.0308
3161.00,0.0308
3160.00,0.0307
3159.00,0.0307
3158.00,0.0306
3157.00,0.0306
3156.00,0.0306
3155.00,0.0305
3154.00,0.0305
3153.00,0.0305
3152.00,0.0305
3151.00,0.0304
3150.00,0.0304
3149.00,0.0304
3148.00,0.0304
3147.00,0.0304
3146.00,0.0304
3145.00,0.0304
3144.00,0.0303
3143.00,0.0303
3142.00,0.0303
3141.00,0.0303
3140.00,0.0304
3139.00,0.0304
3138.00,0.0304
3137.00,0.0303
3136.00,0.0303
3135.00,0.0302
3134.00,0.0302
3133.00,0.0302
3132.00,0.0302
3131.00,0.0302
3130.00,0.0302
3129.00,0.0301
3128.00,0.0301
3127.00,0.0300
3126.00,0.0300
3125.00,0.0300
3124.00,0.0299
3123.00,0.0299
3122.00,0.0299
3121.00,0.0299
3120.00,0.0299
3119.00,0.0300
3118.00,0.0300
3117.00,0.0300
3116.00,0.0300
3115.00,0.0299
3114.00,0.0299
3113.00,0.0299
3112.00,0.0298
3111.00,0.0298
3110.00,0.0297
3109.00,0.0297
3108.00,0.0297
3107.00,0.0297
3106.00,0.0297
3105.00,0.0297
3104.00,0.0297
3103.00,0.0297
3102.00,0.0297
3101.00,0.0296
3100.00,0.0296
3099.00,0.0295
3098.00,0.0295
3097.00,0.0295
3096.00,0.0295
3095.00,0.0296
3094.00,0.0296
3093.00,0.0296
3092.00,0.0296
3091.00,0.0296
3090.00,0.0296
3089.00,0.0296
3088.00,0.0296
3087.00,0.0296
3086.00,0.0295
3085.00,0.0295
3084.00,0.0295
3083.00,0.0294
3082.00,0.0294
3081.00,0.0294
3080.00,0.0294
3079.00,0.0294
3078.00,0.0294
3077.00,0.0294
3076.00,0.0293
3075.00,0.0293
3074.00,0.0293
3073.00,0.0293
3072.00,0.0293
3071.00,0.0292
3070.00,0.0292
3069.00,0.0292
3068.00,0.0292
3067.00,0.0292
3066.00,0.0292
3065.00,0.0292
3064.00,0.0292
3063.00,0.0291
3062.00,0.0291
3061.00,0.0291
3060.00,0.0291
3059.00,0.0291
3058.00,0.0291
3057.00,0.0290
3056.00,0.0290
3055.00,0.0289
3054.00,0.0289
3053.00,0.0288
3052.00,0.0288
3051.00,0.0287
3050.00,0.0287
3049.00,0.0287
3048.00,0.0287
3047.00,0.0287
3046.00,0.0287
3045.00,0.0287
3044.00,0.0287
3043.00,0.0287
3042.00,0.0287
3041.00,0.0286
3040.00,0.0286
3039.00,0.0285
3038.00,0.0285
3037.00,0.0285
3036.00,0.0285
3035.00,0.0284
3034.00,0.0284
3033.00,0.0283
3032.00,0.0283
3031.00,0.0282
3030.00,0.0282
3029.00,0.0282
3028.00,0.0282
3027.00,0.0282
3026.00,0.0282
3025.00,0.0281
3024.00,0.0281
3023.00,0.0281
3022.00,0.0280
3021.00,0.0280
3020.00,0.0280
3019.00,0.0280
3018.00,0.0280
3017.00,0.0279
3016.00,0.0279
3015.00,0.0279
3014.00,0.0279
3013.00,0.0278
3012.00,0.0278
3011.00,0.0278
3010.00,0.0277
3009.00,0.0276
3008.00,0.0275
3007.00,0.0275
3006.00,0.0275
3005.00,0.0275
3004.00,0.0275
3003.00,0.0275
3002.00,0.0274
3001.00,0.0274
3000.00,0.0274
2999.00,0.0273
2998.00,0.0273
2997.00,0.0273
2996.00,0.0272
2995.00,0.0272
2994.00,0.0272
2993.00,0.0272
2992.00,0.0271
2991.00,0.0270
2990.00,0.0270
2989.00,0.0269
2988.00,0.0269
2987.00,0.0268
2986.00,0.0268
2985.00,0.0267
2984.00,0.0267
2983.00,0.0266
2982.00,0.0265
2981.00,0.0265
2980.00,0.0265
2979.00,0.0265
2978.00,0.0265
2977.00,0.0265
2976.00,0.0265
2975.00,0.0265
2974.00,0.0265
2973.00,0.0264
2972.00,0.0264
2971.00,0.0263
2970.00,0.0263
2969.00,0.0263
2968.00,0.0262
2967.00,0.0262
2966.00,0.0262
2965.00,0.0262
2964.00,0.0262
2963.00,0.0261
2962.00,0.0261
2961.00,0.0260
2960.00,0.0260
2959.00,0.0259
2958.00,0.0259
2957.00,0.0259
2956.00,0.0258
2955.00,0.0259
2954.00,0.0259
2953.00,0.0259
2952.00,0.0259
2951.00,0.0259
2950.00,0.0259
2949.00,0.0259
2948.00,0.0258
2947.00,0.0258
2946.00,0.0258
2945.00,0.0258
2944.00,0.0258
2943.00,0.0257
2942.00,0.0257
2941.00,0.0256
2940.00,0.0256
2939.00,0.0255
2938.00,0.0255
2937.00,0.0254
2936.00,0.0253
2935.00,0.0253
2934.00,0.0252
2933.00,0.0251
2932.00,0.0250
2931.00,0.0249
2930.00,0.0248
2929.00,0.0247
2928.00,0.0246
2927.00,0.0246
2926.00,0.0245
2925.00,0.0245
2924.00,0.0245
2923.00,0.0245
2922.00,0.0244
2921.00,0.0244
2920.00,0.0243
2919.00,0.0243
2918.00,0.0243
2917.00,0.0243
2916.00,0.0243
2915.00,0.0244
2914.00,0.0245
2913.00,0.0246
2912.00,0.0247
2911.00,0.0247
2910.00,0.0248
2909.00,0.0248
2908.00,0.0248
2907.00,0.0249
2906.00,0.0249
2905.00,0.0249
2904.00,0.0249
2903.00,0.0249
2902.00,0.0249
2901.00,0.0250
2900.00,0.0250
2899.00,0.0249
2898.00,0.0249
2897.00,0.0249
2896.00,0.0248
2895.00,0.0248
2894.00,0.0248
2893.00,0.0248
2892.00,0.0248
2891.00,0.0248
2890.00,0.0248
2889.00,0.0248
2888.00,0.0248
2887.00,0.0248
2886.00,0.0247
2885.00,0.0247
2884.00,0.0247
2883.00,0.0247
2882.00,0.0247
2881.00,0.0247
2880.00,0.0246
2879.00,0.0246
2878.00,0.0246
2877.00,0.0246
2876.00,0.0246
2875.00,0.0246
2874.00,0.0245
2873.00,0.0245
2872.00,0.0244
2871.00,0.0244
2870.00,0.0243
2869.00,0.0243
2868.00,0.0242
2867.00,0.0242
2866.00,0.0241
2865.00,0.0241
2864.00,0.0241
2863.00,0.0240
2862.00,0.0240
2861.00,0.0240
2860.00,0.0239
2859.00,0.0238
2858.00,0.0238
2857.00,0.0237
2856.00,0.0236
2855.00,0.0236
2854.00,0.0236
2853.00,0.0236
2852.00,0.0236
2851.00,0.0236
2850.00,0.0236
2849.00,0.0236
2848.00,0.0237
2847.00,0.0237
2846.00,0.0238
2845.00,0.0238
2844.00,0.0239
2843.00,0.0239
2842.00,0.0239
2841.00,0.0240
2840.00,0.0240
2839.00,0.0240
2838.00,0.0240
2837.00,0.0240
2836.00,0.0239
2835.00,0.0239
2834.00,0.0239
2833.00,0.0239
2832.00,0.0239
2831.00,0.0239
2830.00,0.0239
2829.00,0.0239
2828.00,0.0238
2827.00,0.0238
2826.00,0.0238
2825.00,0.0238
2824.00,0.0238
2823.00,0.0237
2822.00,0.0237
2821.00,0.0237
2820.00,0.0237
2819.00,0.0237
2818.00,0.0237
2817.00,0.0237
2816.00,0.0237
2815.00,0.0237
2814.00,0.0237
2813.00,0.0236
2812.00,0.0236
2811.00,0.0236
2810.00,0.0235
2809.00,0.0235
2808.00,0.0235
2807.00,0.0234
2806.00,0.0234
2805.00,0.0233
2804.00,0.0233
2803.00,0.0233
2802.00,0.0233
2801.00,0.0233
2800.00,0.0233
2799.00,0.0233
2798.00,0.0232
2797.00,0.0232
2796.00,0.0232
2795.00,0.0232
2794.00,0.0232
2793.00,0.0231
2792.00,0.0231
2791.00,0.0231
2790.00,0.0231
2789.00,0.0231
2788.00,0.0231
2787.00,0.0230
2786.00,0.0230
2785.00,0.0230
2784.00,0.0230
2783.00,0.0230
2782.00,0.0229
2781.00,0.0229
2780.00,0.0229
2779.00,0.0229
2778.00,0.0229
2777.00,0.0229
2776.00,0.0229
2775.00,0.0228
2774.00,0.0228
2773.00,0.0228
2772.00,0.0228
2771.00,0.0228
2770.00,0.0228
2769.00,0.0228
2768.00,0.0227
2767.00,0.0227
2766.00,0.0227
2765.00,0.0226
2764.00,0.0226
2763.00,0.0226
2762.00,0.0226
2761.00,0.0226
2760.00,0.0226
2759.00,0.0225
2758.00,0.0225
2757.00,0.0225
2756.00,0.0225
2755.00,0.0225
2754.00,0.0225
2753.00,0.0224
2752.00,0.0224
2751.00,0.0224
2750.00,0.0224
2749.00,0.0224
2748.00,0.0224
2747.00,0.0224
2746.00,0.0224
2745.00,0.0223
2744.00,0.0223
2743.00,0.0222
2742.00,0.0222
2741.00,0.0222
2740.00,0.0222
2739.00,0.0222
2738.00,0.0221
2737.00,0.0221
2736.00,0.0221
2735.00,0.0221
2734.00,0.0220
2733.00,0.0221
2732.00,0.0221
2731.00,0.0221
2730.00,0.0221
2729.00,0.0221
2728.00,0.0220
2727.00,0.0220
2726.00,0.0220
2725.00,0.0220
2724.00,0.0220
2723.00,0.0220
2722.00,0.0220
2721.00,0.0220
2720.00,0.0220
2719.00,0.0219
2718.00,0.0219
2717.00,0.0219
2716.00,0.0218
2715.00,0.0218
2714.00,0.0218
2713.00,0.0218
2712.00,0.0218
2711.00,0.0218
2710.00,0.0217
2709.00,0.0217
2708.00,0.0217
2707.00,0.0217
2706.00,0.0217
2705.00,0.0216
2704.00,0.0216
2703.00,0.0216
2702.00,0.0216
2701.00,0.0216
2700.00,0.0216
2699.00,0.0216
2698.00,0.0216
2697.00,0.0216
2696.00,0.0215
2695.00,0.0215
2694.00,0.0215
2693.00,0.0215
2692.00,0.0215
2691.00,0.0215
2690.00,0.0214
2689.00,0.0214
2688.00,0.0214
2687.00,0.0214
2686.00,0.0214
2685.00,0.0214
2684.00,0.0213
2683.00,0.0213
2682.00,0.0213
2681.00,0.0213
2680.00,0.0213
2679.00,0.0213
2678.00,0.0212
2677.00,0.0212
2676.00,0.0212
2675.00,0.0212
2674.00,0.0212
2673.00,0.0212
2672.00,0.0212
2671.00,0.0212
2670.00,0.0212
2669.00,0.0212
2668.00,0.0211
2667.00,0.0211
2666.00,0.0211
2665.00,0.0212
2664.00,0.0212
2663.00,0.0212
2662.00,0.0212
2661.00,0.0212
2660.00,0.0212
2659.00,0.0212
2658.00,0.0212
2657.00,0.0212
2656.00,0.0212
2655.00,0.0212
2654.00,0.0212
2653.00,0.0213
2652.00,0.0213
2651.00,0.0213
2650.00,0.0213
2649.00,0.0212
2648.00,0.0212
2647.00,0.0212
2646.00,0.0211
2645.00,0.0212
2644.00,0.0212
2643.00,0.0212
2642.00,0.0212
2641.00,0.0212
2640.00,0.0212
2639.00,0.0212
2638.00,0.0211
2637.00,0.0211
2636.00,0.0212
2635.00,0.0212
2634.00,0.0212
2633.00,0.0212
2632.00,0.0211
2631.00,0.0211
2630.00,0.0211
2629.00,0.0211
2628.00,0.0211
2627.00,0.0211
2626.00,0.0211
2625.00,0.0211
2624.00,0.0211
2623.00,0.0211
2622.00,0.0211
2621.00,0.0212
2620.00,0.0211
2619.00,0.0211
2618.00,0.0211
2617.00,0.0211
2616.00,0.0211
2615.00,0.0211
2614.00,0.0210
2613.00,0.0210
2612.00,0.0210
2611.00,0.0210
2610.00,0.0210
2609.00,0.0211
2608.00,0.0211
2607.00,0.0211
2606.00,0.0211
2605.00,0.0210
2604.00,0.0210
2603.00,0.0210
2602.00,0.0210
2601.00,0.0210
2600.00,0.0210
2599.00,0.0210
2598.00,0.0210
2597.00,0.0209
2596.00,0.0209
2595.00,0.0209
2594.00,0.0209
2593.00,0.0209
2592.00,0.0209
2591.00,0.0209
2590.00,0.0208
2589.00,0.0208
2588.00,0.0208
2587.00,0.0208
2586.00,0.0208
2585.00,0.0208
2584.00,0.0208
2583.00,0.0209
2582.00,0.0209
2581.00,0.0209
2580.00,0.0209
2579.00,0.0210
2578.00,0.0209
2577.00,0.0209
2576.00,0.0209
2575.00,0.0208
2574.00,0.0208
2573.00,0.0208
2572.00,0.0208
2571.00,0.0208
2570.00,0.0208
2569.00,0.0208
2568.00,0.0208
2567.00,0.0208
2566.00,0.0208
2565.00,0.0208
2564.00,0.0207
2563.00,0.0207
2562.00,0.0207
2561.00,0.0207
2560.00,0.0206
2559.00,0.0206
2558.00,0.0206
2557.00,0.0206
2556.00,0.0207
2555.00,0.0207
2554.00,0.0207
2553.00,0.0207
2552.00,0.0207
2551.00,0.0207
2550.00,0.0207
2549.00,0.0206
2548.00,0.0206
2547.00,0.0205
2546.00,0.0205
2545.00,0.0204
2544.00,0.0204
2543.00,0.0204
2542.00,0.0204
2541.00,0.0205
2540.00,0.0205
2539.00,0.0206
2538.00,0.0206
2537.00,0.0206
2536.00,0.0205
2535.00,0.0205
2534.00,0.0204
2533.00,0.0204
2532.00,0.0204
2531.00,0.0203
2530.00,0.0203
2529.00,0.0203
2528.00,0.0203
2527.00,0.0203
2526.00,0.0204
2525.00,0.0204
2524.00,0.0204
2523.00,0.0204
2522.00,0.0204
2521.00,0.0203
2520.00,0.0203
2519.00,0.0202
2518.00,0.0202
2517.00,0.0202
2516.00,0.0202
2515.00,0.0202
2514.00,0.0202
2513.00,0.0202
2512.00,0.0202
2511.00,0.0202
2510.00,0.0202
2509.00,0.0201
2508.00,0.0201
2507.00,0.0201
2506.00,0.0201
2505.00,0.0202
2504.00,0.0202
2503.00,0.0202
2502.00,0.0201
2501.00,0.0201
2500.00,0.0201
2499.00,0.0201
2498.00,0.0201
2497.00,0.0202
2496.00,0.0202
2495.00,0.0202
2494.00,0.0202
2493.00,0.0202
2492.00,0.0202
2491.00,0.0202
2490.00,0.0201
2489.00,0.0201
2488.00,0.0200
2487.00,0.0200
2486.00,0.0200
2485.00,0.0200
2484.00,0.0200
2483.00,0.0199
2482.00,0.0199
2481.00,0.0199
2480.00,0.0199
2479.00,0.0199
2478.00,0.0199
2477.00,0.0199
2476.00,0.0199
2475.00,0.0199
2474.00,0.0199
2473.00,0.0198
2472.00,0.0198
2471.00,0.0198
2470.00,0.0197
2469.00,0.0197
2468.00,0.0198
2467.00,0.0198
2466.00,0.0198
2465.00,0.0198
2464.00,0.0198
2463.00,0.0198
2462.00,0.0198
2461.00,0.0198
2460.00,0.0198
2459.00,0.0198
2458.00,0.0198
2457.00,0.0198
2456.00,0.0198
2455.00,0.0197
2454.00,0.0197
2453.00,0.0197
2452.00,0.0196
2451.00,0.0196
2450.00,0.0196
2449.00,0.0196
2448.00,0.0196
2447.00,0.0196
2446.00,0.0196
2445.00,0.0196
2444.00,0.0195
2443.00,0.0195
2442.00,0.0195
2441.00,0.0195
2440.00,0.0195
2439.00,0.0194
2438.00,0.0194
2437.00,0.0194
2436.00,0.0194
2435.00,0.0194
2434.00,0.0194
2433.00,0.0193
2432.00,0.0193
2431.00,0.0192
2430.00,0.0191
2429.00,0.0191
2428.00,0.0191
2427.00,0.0191
2426.00,0.0192
2425.00,0.0192
2424.00,0.0192
2423.00,0.0191
2422.00,0.0191
2421.00,0.0191
2420.00,0.0190
2419.00,0.0191
2418.00,0.0191
2417.00,0.0191
2416.00,0.0190
2415.00,0.0190
2414.00,0.0190
2413.00,0.0190
2412.00,0.0190
2411.00,0.0190
2410.00,0.0190
2409.00,0.0189
2408.00,0.0189
2407.00,0.0189
2406.00,0.0189
2405.00,0.0188
2404.00,0.0188
2403.00,0.0188
2402.00,0.0188
2401.00,0.0187
2400.00,0.0187
2399.00,0.0186
2398.00,0.0185
2397.00,0.0185
2396.00,0.0185
2395.00,0.0185
2394.00,0.0185
2393.00,0.0185
2392.00,0.0184
2391.00,0.0184
2390.00,0.0184
2389.00,0.0185
2388.00,0.0184
2387.00,0.0184
2386.00,0.0183
2385.00,0.0182
2384.00,0.0182
2383.00,0.0181
2382.00,0.0180
2381.00,0.0179
2380.00,0.0177
2379.00,0.0175
2378.00,0.0174
2377.00,0.0173
2376.00,0.0173
2375.00,0.0173
2374.00,0.0173
2373.00,0.0174
2372.00,0.0175
2371.00,0.0175
2370.00,0.0175
2369.00,0.0175
2368.00,0.0173
2367.00,0.0171
2366.00,0.0168
2365.00,0.0167
2364.00,0.0168
2363.00,0.0169
2362.00,0.0170
2361.00,0.0171
2360.00,0.0171
2359.00,0.0172
2358.00,0.0173
2357.00,0.0175
2356.00,0.0176
2355.00,0.0178
2354.00,0.0179
2353.00,0.0180
2352.00,0.0179
2351.00,0.0178
2350.00,0.0176
2349.00,0.0172
2348.00,0.0167
2347.00,0.0163
2346.00,0.0160
2345.00,0.0160
2344.00,0.0162
2343.00,0.0164
2342.00,0.0167
2341.00,0.0170
2340.00,0.0172
2339.00,0.0172
2338.00,0.0172
2337.00,0.0172
2336.00,0.0172
2335.00,0.0172
2334.00,0.0173
2333.00,0.0174
2332.00,0.0174
2331.00,0.0174
2330.00,0.0174
2329.00,0.0174
2328.00,0.0176
2327.00,0.0178
2326.00,0.0180
2325.00,0.0181
2324.00,0.0181
2323.00,0.0181
2322.00,0.0181
2321.00,0.0180
2320.00,0.0180
2319.00,0.0180
2318.00,0.0181
2317.00,0.0181
2316.00,0.0180
2315.00,0.0179
2314.00,0.0178
2313.00,0.0176
2312.00,0.0176
2311.00,0.0175
2310.00,0.0176
2309.00,0.0175
2308.00,0.0175
2307.00,0.0174
2306.00,0.0174
2305.00,0.0174
2304.00,0.0174
2303.00,0.0173
2302.00,0.0173
2301.00,0.0172
2300.00,0.0172
2299.00,0.0172
2298.00,0.0172
2297.00,0.0172
2296.00,0.0172
2295.00,0.0173
2294.00,0.0173
2293.00,0.0174
2292.00,0.0175
2291.00,0.0176
2290.00,0.0176
2289.00,0.0177
2288.00,0.0177
2287.00,0.0178
2286.00,0.0177
2285.00,0.0177
2284.00,0.0176
2283.00,0.0176
2282.00,0.0175
2281.00,0.0175
2280.00,0.0175
2279.00,0.0174
2278.00,0.0174
2277.00,0.0174
2276.00,0.0173
2275.00,0.0173
2274.00,0.0173
2273.00,0.0173
2272.00,0.0173
2271.00,0.0173
2270.00,0.0173
2269.00,0.0172
2268.00,0.0172
2267.00,0.0172
2266.00,0.0173
2265.00,0.0174
2264.00,0.0175
2263.00,0.0175
2262.00,0.0175
2261.00,0.0176
2260.00,0.0176
2259.00,0.0175
2258.00,0.0174
2257.00,0.0173
2256.00,0.0171
2255.00,0.0170
2254.00,0.0171
2253.00,0.0172
2252.00,0.0173
2251.00,0.0173
2250.00,0.0172
2249.00,0.0171
2248.00,0.0171
2247.00,0.0172
2246.00,0.0172
2245.00,0.0171
2244.00,0.0171
2243.00,0.0171
2242.00,0.0171
2241.00,0.0171
2240.00,0.0171
2239.00,0.0171
2238.00,0.0171
2237.00,0.0171
2236.00,0.0171
2235.00,0.0171
2234.00,0.0171
2233.00,0.0171
2232.00,0.0172
2231.00,0.0173
2230.00,0.0173
2229.00,0.0173
2228.00,0.0173
2227.00,0.0172
2226.00,0.0171
2225.00,0.0171
2224.00,0.0170
2223.00,0.0171
2222.00,0.0172
2221.00,0.0173
2220.00,0.0174
2219.00,0.0174
2218.00,0.0174
2217.00,0.0173
2216.00,0.0172
2215.00,0.0172
2214.00,0.0172
2213.00,0.0172
2212.00,0.0172
2211.00,0.0171
2210.00,0.0170
2209.00,0.0170
2208.00,0.0170
2207.00,0.0170
2206.00,0.0169
2205.00,0.0168
2204.00,0.0168
2203.00,0.0169
2202.00,0.0169
2201.00,0.0170
2200.00,0.0170
2199.00,0.0171
2198.00,0.0171
2197.00,0.0170
2196.00,0.0169
2195.00,0.0168
2194.00,0.0168
2193.00,0.0168
2192.00,0.0168
2191.00,0.0168
2190.00,0.0168
2189.00,0.0170
2188.00,0.0172
2187.00,0.0174
2186.00,0.0175
2185.00,0.0174
2184.00,0.0172
2183.00,0.0170
2182.00,0.0169
2181.00,0.0168
2180.00,0.0168
2179.00,0.0168
2178.00,0.0167
2177.00,0.0166
2176.00,0.0165
2175.00,0.0166
2174.00,0.0167
2173.00,0.0170
2172.00,0.0171
2171.00,0.0172
2170.00,0.0172
2169.00,0.0171
2168.00,0.0170
2167.00,0.0168
2166.00,0.0167
2165.00,0.0168
2164.00,0.0170
2163.00,0.0171
2162.00,0.0171
2161.00,0.0169
2160.00,0.0164
2159.00,0.0160
2158.00,0.0157
2157.00,0.0158
2156.00,0.0159
2155.00,0.0159
2154.00,0.0159
2153.00,0.0159
2152.00,0.0159
2151.00,0.0158
2150.00,0.0158
2149.00,0.0157
2148.00,0.0157
2147.00,0.0157
2146.00,0.0156
2145.00,0.0156
2144.00,0.0156
2143.00,0.0157
2142.00,0.0158
2141.00,0.0158
2140.00,0.0158
2139.00,0.0157
2138.00,0.0155
2137.00,0.0154
2136.00,0.0152
2135.00,0.0151
2134.00,0.0150
2133.00,0.0151
2132.00,0.0152
2131.00,0.0152
2130.00,0.0153
2129.00,0.0153
2128.00,0.0153
2127.00,0.0154
2126.00,0.0154
2125.00,0.0155
2124.00,0.0155
2123.00,0.0155
2122.00,0.0155
2121.00,0.0155
2120.00,0.0155
2119.00,0.0155
2118.00,0.0156
2117.00,0.0157
2116.00,0.0157
2115.00,0.0156
2114.00,0.0155
2113.00,0.0154
2112.00,0.0154
2111.00,0.0154
2110.00,0.0154
2109.00,0.0154
2108.00,0.0154
2107.00,0.0154
2106.00,0.0154
2105.00,0.0154
2104.00,0.0154
2103.00,0.0155
2102.00,0.0155
2101.00,0.0156
2100.00,0.0156
2099.00,0.0155
2098.00,0.0154
2097.00,0.0154
2096.00,0.0153
2095.00,0.0152
2094.00,0.0151
2093.00,0.0152
2092.00,0.0153
2091.00,0.0154
2090.00,0.0154
2089.00,0.0153
2088.00,0.0152
2087.00,0.0152
2086.00,0.0152
2085.00,0.0152
2084.00,0.0152
2083.00,0.0152
2082.00,0.0151
2081.00,0.0152
2080.00,0.0152
2079.00,0.0153
2078.00,0.0153
2077.00,0.0153
2076.00,0.0153
2075.00,0.0152
2074.00,0.0151
2073.00,0.0150
2072.00,0.0150
2071.00,0.0149
2070.00,0.0148
2069.00,0.0148
2068.00,0.0147
2067.00,0.0147
2066.00,0.0148
2065.00,0.0148
2064.00,0.0148
2063.00,0.0148
2062.00,0.0148
2061.00,0.0149
2060.00,0.0149
2059.00,0.0149
2058.00,0.0149
2057.00,0.0149
2056.00,0.0149
2055.00,0.0150
2054.00,0.0152
2053.00,0.0154
2052.00,0.0155
2051.00,0.0155
2050.00,0.0154
2049.00,0.0153
2048.00,0.0151
2047.00,0.0149
2046.00,0.0149
2045.00,0.0150
2044.00,0.0150
2043.00,0.0150
2042.00,0.0151
2041.00,0.0151
2040.00,0.0153
2039.00,0.0154
2038.00,0.0155
2037.00,0.0155
2036.00,0.0155
2035.00,0.0154
2034.00,0.0152
2033.00,0.0151
2032.00,0.0150
2031.00,0.0149
2030.00,0.0148
2029.00,0.0148
2028.00,0.0148
2027.00,0.0146
2026.00,0.0145
2025.00,0.0144
2024.00,0.0143
2023.00,0.0144
2022.00,0.0145
2021.00,0.0148
2020.00,0.0150
2019.00,0.0151
2018.00,0.0150
2017.00,0.0150
2016.00,0.0149
2015.00,0.0149
2014.00,0.0148
2013.00,0.0148
2012.00,0.0147
2011.00,0.0147
2010.00,0.0147
2009.00,0.0146
2008.00,0.0145
2007.00,0.0144
2006.00,0.0144
2005.00,0.0144
2004.00,0.0145
2003.00,0.0144
2002.00,0.0143
2001.00,0.0143
2000.00,0.0143
1999.00,0.0143
1998.00,0.0144
1997.00,0.0145
1996.00,0.0146
1995.00,0.0147
1994.00,0.0147
1993.00,0.0147
1992.00,0.0147
1991.00,0.0146
1990.00,0.0145
1989.00,0.0143
1988.00,0.0142
1987.00,0.0140
1986.00,0.0141
1985.00,0.0143
1984.00,0.0146
1983.00,0.0148
1982.00,0.0149
1981.00,0.0149
1980.00,0.0148
1979.00,0.0146
1978.00,0.0144
1977.00,0.0142
1976.00,0.0140
1975.00,0.0139
1974.00,0.0138
1973.00,0.0138
1972.00,0.0140
1971.00,0.0142
1970.00,0.0142
1969.00,0.0142
1968.00,0.0140
1967.00,0.0139
1966.00,0.0139
1965.00,0.0140
1964.00,0.0141
1963.00,0.0141
1962.00,0.0140
1961.00,0.0138
1960.00,0.0136
1959.00,0.0134
1958.00,0.0132
1957.00,0.0130
1956.00,0.0130
1955.00,0.0130
1954.00,0.0131
1953.00,0.0131
1952.00,0.0131
1951.00,0.0131
1950.00,0.0131
1949.00,0.0131
1948.00,0.0131
1947.00,0.0131
1946.00,0.0131
1945.00,0.0131
1944.00,0.0131
1943.00,0.0130
1942.00,0.0129
1941.00,0.0128
1940.00,0.0127
1939.00,0.0126
1938.00,0.0125
1937.00,0.0126
1936.00,0.0126
1935.00,0.0127
1934.00,0.0127
1933.00,0.0127
1932.00,0.0127
1931.00,0.0125
1930.00,0.0124
1929.00,0.0122
1928.00,0.0122
1927.00,0.0122
1926.00,0.0122
1925.00,0.0123
1924.00,0.0124
1923.00,0.0124
1922.00,0.0123
1921.00,0.0123
1920.00,0.0124
1919.00,0.0123
1918.00,0.0122
1917.00,0.0121
1916.00,0.0120
1915.00,0.0120
1914.00,0.0121
1913.00,0.0121
1912.00,0.0120
1911.00,0.0119
1910.00,0.0117
1909.00,0.0116
1908.00,0.0116
1907.00,0.0116
1906.00,0.0116
1905.00,0.0117
1904.00,0.0116
1903.00,0.0116
1902.00,0.0115
1901.00,0.0115
1900.00,0.0115
1899.00,0.0115
1898.00,0.0115
1897.00,0.0116
1896.00,0.0115
1895.00,0.0114
1894.00,0.0113
1893.00,0.0113
1892.00,0.0114
1891.00,0.0113
1890.00,0.0113
1889.00,0.0111
1888.00,0.0110
1887.00,0.0109
1886.00,0.0109
1885.00,0.0109
1884.00,0.0109
1883.00,0.0109
1882.00,0.0109
1881.00,0.0109
1880.00,0.0109
1879.00,0.0108
1878.00,0.0108
1877.00,0.0108
1876.00,0.0108
1875.00,0.0107
1874.00,0.0107
1873.00,0.0107
1872.00,0.0107
1871.00,0.0108
1870.00,0.0108
1869.00,0.0107
1868.00,0.0105
1867.00,0.0104
1866.00,0.0104
1865.00,0.0104
1864.00,0.0105
1863.00,0.0104
1862.00,0.0103
1861.00,0.0102
1860.00,0.0102
1859.00,0.0101
1858.00,0.0101
1857.00,0.0101
1856.00,0.0101
1855.00,0.0101
1854.00,0.0101
1853.00,0.0101
1852.00,0.0100
1851.00,0.0100
1850.00,0.0101
1849.00,0.0101
1848.00,0.0101
1847.00,0.0101
1846.00,0.0101
1845.00,0.0099
1844.00,0.0097
1843.00,0.0094
1842.00,0.0093
1841.00,0.0094
1840.00,0.0095
1839.00,0.0095
1838.00,0.0095
1837.00,0.0094
1836.00,0.0094
1835.00,0.0093
1834.00,0.0094
1833.00,0.0095
1832.00,0.0096
1831.00,0.0095
1830.00,0.0093
1829.00,0.0090
1828.00,0.0090
1827.00,0.0090
1826.00,0.0091
1825.00,0.0090
1824.00,0.0089
1823.00,0.0088
1822.00,0.0088
1821.00,0.0089
1820.00,0.0089
1819.00,0.0089
1818.00,0.0088
1817.00,0.0087
1816.00,0.0086
1815.00,0.0086
1814.00,0.0086
1813.00,0.0086
1812.00,0.0085
1811.00,0.0084
1810.00,0.0084
1809.00,0.0084
1808.00,0.0084
1807.00,0.0084
1806.00,0.0085
1805.00,0.0086
1804.00,0.0087
1803.00,0.0087
1802.00,0.0087
1801.00,0.0086
1800.00,0.0085
1799.00,0.0085
1798.00,0.0085
1797.00,0.0087
1796.00,0.0088
1795.00,0.0089
1794.00,0.0090
1793.00,0.0090
1792.00,0.0088
1791.00,0.0086
1790.00,0.0086
1789.00,0.0088
1788.00,0.0090
1787.00,0.0091
1786.00,0.0092
1785.00,0.0093
1784.00,0.0094
1783.00,0.0095
1782.00,0.0095
1781.00,0.0096
1780.00,0.0096
1779.00,0.0097
1778.00,0.0099
1777.00,0.0101
1776.00,0.0103
1775.00,0.0106
1774.00,0.0107
1773.00,0.0107
1772.00,0.0106
1771.00,0.0107
1770.00,0.0110
1769.00,0.0113
1768.00,0.0115
1767.00,0.0116
1766.00,0.0117
1765.00,0.0119
1764.00,0.0121
1763.00,0.0122
1762.00,0.0123
1761.00,0.0123
1760.00,0.0125
1759.00,0.0127
1758.00,0.0129
1757.00,0.0130
1756.00,0.0131
1755.00,0.0132
1754.00,0.0135
1753.00,0.0138
1752.00,0.0141
1751.00,0.0142
1750.00,0.0143
1749.00,0.0144
1748.00,0.0145
1747.00,0.0147
1746.00,0.0149
1745.00,0.0152
1744.00,0.0155
1743.00,0.0157
1742.00,0.0159
1741.00,0.0162
1740.00,0.0164
1739.00,0.0166
1738.00,0.0170
1737.00,0.0174
1736.00,0.0178
1735.00,0.0181
1734.00,0.0183
1733.00,0.0184
1732.00,0.0186
1731.00,0.0189
1730.00,0.0192
1729.00,0.0195
1728.00,0.0198
1727.00,0.0201
1726.00,0.0204
1725.00,0.0207
1724.00,0.0210
1723.00,0.0212
1722.00,0.0214
1721.00,0.0217
1720.00,0.0219
1719.00,0.0220
1718.00,0.0221
1717.00,0.0222
1716.00,0.0224
1715.00,0.0227
1714.00,0.0229
1713.00,0.0231
1712.00,0.0233
1711.00,0.0234
1710.00,0.0236
1709.00,0.0237
1708.00,0.0239
1707.00,0.0240
1706.00,0.0240
1705.00,0.0241
1704.00,0.0242
1703.00,0.0245
1702.00,0.0247
1701.00,0.0248
1700.00,0.0249
1699.00,0.0248
1698.00,0.0249
1697.00,0.0251
1696.00,0.0251
1695.00,0.0249
1694.00,0.0250
1693.00,0.0253
1692.00,0.0255
1691.00,0.0255
1690.00,0.0256
1689.00,0.0257
1688.00,0.0258
1687.00,0.0259
1686.00,0.0259
1685.00,0.0260
1684.00,0.0261
1683.00,0.0262
1682.00,0.0265
1681.00,0.0269
1680.00,0.0270
1679.00,0.0272
1678.00,0.0274
1677.00,0.0276
1676.00,0.0279
1675.00,0.0281
1674.00,0.0283
1673.00,0.0284
1672.00,0.0286
1671.00,0.0288
1670.00,0.0290
1669.00,0.0293
1668.00,0.0294
1667.00,0.0297
1666.00,0.0299
1665.00,0.0300
1664.00,0.0302
1663.00,0.0304
1662.00,0.0307
1661.00,0.0309
1660.00,0.0312
1659.00,0.0314
1658.00,0.0315
1657.00,0.0316
1656.00,0.0316
1655.00,0.0317
1654.00,0.0321
1653.00,0.0326
1652.00,0.0327
1651.00,0.0329
1650.00,0.0331
1649.00,0.0333
1648.00,0.0335
1647.00,0.0338
1646.00,0.0341
1645.00,0.0345
1644.00,0.0347
1643.00,0.0350
1642.00,0.0351
1641.00,0.0352
1640.00,0.0354
1639.00,0.0355
1638.00,0.0356
1637.00,0.0359
1636.00,0.0363
1635.00,0.0368
1634.00,0.0371
1633.00,0.0375
1632.00,0.0377
1631.00,0.0379
1630.00,0.0381
1629.00,0.0384
1628.00,0.0386
1627.00,0.0389
1626.00,0.0391
1625.00,0.0394
1624.00,0.0397
1623.00,0.0401
1622.00,0.0404
1621.00,0.0406
1620.00,0.0408
1619.00,0.0408
1618.00,0.0410
1617.00,0.0413
1616.00,0.0416
1615.00,0.0418
1614.00,0.0421
1613.00,0.0423
1612.00,0.0424
1611.00,0.0426
1610.00,0.0428
1609.00,0.0431
1608.00,0.0433
1607.00,0.0435
1606.00,0.0437
1605.00,0.0438
1604.00,0.0439
1603.00,0.0441
1602.00,0.0443
1601.00,0.0444
1600.00,0.0445
1599.00,0.0446
1598.00,0.0447
1597.00,0.0448
1596.00,0.0449
1595.00,0.0450
1594.00,0.0451
1593.00,0.0451
1592.00,0.0452
1591.00,0.0453
1590.00,0.0454
1589.00,0.0455
1588.00,0.0456
1587.00,0.0457
1586.00,0.0457
1585.00,0.0457
1584.00,0.0456
1583.00,0.0457
1582.00,0.0457
1581.00,0.0457
1580.00,0.0456
1579.00,0.0455
1578.00,0.0454
1577.00,0.0454
1576.00,0.0455
1575.00,0.0456
1574.00,0.0457
1573.00,0.0457
1572.00,0.0456
1571.00,0.0454
1570.00,0.0454
1569.00,0.0453
1568.00,0.0453
1567.00,0.0453
1566.00,0.0452
1565.00,0.0450
1564.00,0.0448
1563.00,0.0446
1562.00,0.0443
1561.00,0.0437
1560.00,0.0434
1559.00,0.0439
1558.00,0.0440
1557.00,0.0440
1556.00,0.0440
1555.00,0.0439
1554.00,0.0435
1553.00,0.0432
1552.00,0.0430
1551.00,0.0429
1550.00,0.0427
1549.00,0.0424
1548.00,0.0422
1547.00,0.0420
1546.00,0.0418
1545.00,0.0415
1544.00,0.0412
1543.00,0.0408
1542.00,0.0404
1541.00,0.0400
1540.00,0.0398
1539.00,0.0396
1538.00,0.0394
1537.00,0.0394
1536.00,0.0393
1535.00,0.0390
1534.00,0.0388
1533.00,0.0387
1532.00,0.0386
1531.00,0.0385
1530.00,0.0384
1529.00,0.0382
1528.00,0.0380
1527.00,0.0378
1526.00,0.0376
1525.00,0.0374
1524.00,0.0372
1523.00,0.0370
1522.00,0.0367
1521.00,0.0365
1520.00,0.0363
1519.00,0.0362
1518.00,0.0361
1517.00,0.0359
1516.00,0.0358
1515.00,0.0356
1514.00,0.0355
1513.00,0.0354
1512.00,0.0353
1511.00,0.0351
1510.00,0.0350
1509.00,0.0347
1508.00,0.0345
1507.00,0.0342
1506.00,0.0339
1505.00,0.0338
1504.00,0.0339
1503.00,0.0339
1502.00,0.0338
1501.00,0.0336
1500.00,0.0334
1499.00,0.0333
1498.00,0.0332
1497.00,0.0331
1496.00,0.0331
1495.00,0.0331
1494.00,0.0331
1493.00,0.0332
1492.00,0.0333
1491.00,0.0333
1490.00,0.0332
1489.00,0.0331
1488.00,0.0331
1487.00,0.0330
1486.00,0.0329
1485.00,0.0329
1484.00,0.0329
1483.00,0.0329
1482.00,0.0329
1481.00,0.0329
1480.00,0.0330
1479.00,0.0330
1478.00,0.0330
1477.00,0.0330
1476.00,0.0331
1475.00,0.0331
1474.00,0.0332
1473.00,0.0333
1472.00,0.0333
1471.00,0.0333
1470.00,0.0333
1469.00,0.0333
1468.00,0.0332
1467.00,0.0332
1466.00,0.0333
1465.00,0.0333
1464.00,0.0334
1463.00,0.0334
1462.00,0.0334
1461.00,0.0333
1460.00,0.0333
1459.00,0.0333
1458.00,0.0335
1457.00,0.0337
1456.00,0.0338
1455.00,0.0339
1454.00,0.0339
1453.00,0.0340
1452.00,0.0341
1451.00,0.0342
1450.00,0.0343
1449.00,0.0345
1448.00,0.0346
1447.00,0.0347
1446.00,0.0347
1445.00,0.0347
1444.00,0.0347
1443.00,0.0347
1442.00,0.0348
1441.00,0.0348
1440.00,0.0350
1439.00,0.0351
1438.00,0.0353
1437.00,0.0355
1436.00,0.0356
1435.00,0.0357
1434.00,0.0357
1433.00,0.0357
1432.00,0.0357
1431.00,0.0358
1430.00,0.0359
1429.00,0.0360
1428.00,0.0360
1427.00,0.0361
1426.00,0.0361
1425.00,0.0361
1424.00,0.0362
1423.00,0.0363
1422.00,0.0363
1421.00,0.0364
1420.00,0.0365
1419.00,0.0367
1418.00,0.0368
1417.00,0.0369
1416.00,0.0370
1415.00,0.0370
1414.00,0.0370
1413.00,0.0370
1412.00,0.0371
1411.00,0.0372
1410.00,0.0372
1409.00,0.0373
1408.00,0.0373
1407.00,0.0374
1406.00,0.0375
1405.00,0.0376
1404.00,0.0377
1403.00,0.0379
1402.00,0.0380
1401.00,0.0380
1400.00,0.0382
1399.00,0.0383
1398.00,0.0384
1397.00,0.0385
1396.00,0.0386
1395.00,0.0387
1394.00,0.0388
1393.00,0.0388
1392.00,0.0389
1391.00,0.0390
1390.00,0.0391
1389.00,0.0392
1388.00,0.0393
1387.00,0.0395
1386.00,0.0396
1385.00,0.0396
1384.00,0.0397
1383.00,0.0398
1382.00,0.0399
1381.00,0.0399
1380.00,0.0399
1379.00,0.0400
1378.00,0.0400
1377.00,0.0400
1376.00,0.0400
1375.00,0.0402
1374.00,0.0403
1373.00,0.0403
1372.00,0.0404
1371.00,0.0403
1370.00,0.0403
1369.00,0.0403
1368.00,0.0403
1367.00,0.0403
1366.00,0.0403
1365.00,0.0403
1364.00,0.0403
1363.00,0.0404
1362.00,0.0403
1361.00,0.0403
1360.00,0.0402
1359.00,0.0401
1358.00,0.0400
1357.00,0.0399
1356.00,0.0398
1355.00,0.0397
1354.00,0.0397
1353.00,0.0396
1352.00,0.0396
1351.00,0.0396
1350.00,0.0395
1349.00,0.0394
1348.00,0.0394
1347.00,0.0393
1346.00,0.0392
1345.00,0.0392
1344.00,0.0391
1343.00,0.0390
1342.00,0.0390
1341.00,0.0389
1340.00,0.0389
1339.00,0.0388
1338.00,0.0388
1337.00,0.0387
1336.00,0.0386
1335.00,0.0385
1334.00,0.0384
1333.00,0.0384
1332.00,0.0383
1331.00,0.0383
1330.00,0.0382
1329.00,0.0381
1328.00,0.0381
1327.00,0.0380
1326.00,0.0379
1325.00,0.0378
1324.00,0.0378
1323.00,0.0378
1322.00,0.0378
1321.00,0.0378
1320.00,0.0377
1319.00,0.0377
1318.00,0.0376
1317.00,0.0376
1316.00,0.0376
1315.00,0.0376
1314.00,0.0376
1313.00,0.0376
1312.00,0.0376
1311.00,0.0376
1310.00,0.0375
1309.00,0.0375
1308.00,0.0375
1307.00,0.0375
1306.00,0.0375
1305.00,0.0375
1304.00,0.0375
1303.00,0.0375
1302.00,0.0375
1301.00,0.0375
1300.00,0.0375
1299.00,0.0375
1298.00,0.0375
1297.00,0.0376
1296.00,0.0377
1295.00,0.0377
1294.00,0.0377
1293.00,0.0378
1292.00,0.0378
1291.00,0.0378
1290.00,0.0379
1289.00,0.0379
1288.00,0.0379
1287.00,0.0380
1286.00,0.0380
1285.00,0.0380
1284.00,0.0381
1283.00,0.0382
1282.00,0.0382
1281.00,0.0383
1280.00,0.0384
1279.00,0.0385
1278.00,0.0385
1277.00,0.0386
1276.00,0.0386
1275.00,0.0386
1274.00,0.0386
1273.00,0.0387
1272.00,0.0387
1271.00,0.0388
1270.00,0.0389
1269.00,0.0389
1268.00,0.0389
1267.00,0.0389
1266.00,0.0390
1265.00,0.0390
1264.00,0.0390
1263.00,0.0391
1262.00,0.0391
1261.00,0.0392
1260.00,0.0393
1259.00,0.0394
1258.00,0.0394
1257.00,0.0394
1256.00,0.0394
1255.00,0.0395
1254.00,0.0395
1253.00,0.0396
1252.00,0.0396
1251.00,0.0396
1250.00,0.0396
1249.00,0.0397
1248.00,0.0397
1247.00,0.0398
1246.00,0.0399
1245.00,0.0399
1244.00,0.0400
1243.00,0.0400
1242.00,0.0400
1241.00,0.0401
1240.00,0.0401
1239.00,0.0401
1238.00,0.0400
1237.00,0.0400
1236.00,0.0400
1235.00,0.0400
1234.00,0.0401
1233.00,0.0401
1232.00,0.0401
1231.00,0.0401
1230.00,0.0401
1229.00,0.0400
1228.00,0.0400
1227.00,0.0400
1226.00,0.0400
1225.00,0.0400
1224.00,0.0400
1223.00,0.0400
1222.00,0.0400
1221.00,0.0399
1220.00,0.0399
1219.00,0.0398
1218.00,0.0398
1217.00,0.0397
1216.00,0.0396
1215.00,0.0396
1214.00,0.0396
1213.00,0.0396
1212.00,0.0396
1211.00,0.0395
1210.00,0.0395
1209.00,0.0395
1208.00,0.0395
1207.00,0.0395
1206.00,0.0395
1205.00,0.0395
1204.00,0.0395
1203.00,0.0394
1202.00,0.0394
1201.00,0.0394
1200.00,0.0394
1199.00,0.0394
1198.00,0.0394
1197.00,0.0394
1196.00,0.0393
1195.00,0.0393
1194.00,0.0393
1193.00,0.0393
1192.00,0.0392
1191.00,0.0392
1190.00,0.0392
1189.00,0.0391
1188.00,0.0391
1187.00,0.0390
1186.00,0.0391
1185.00,0.0391
1184.00,0.0391
1183.00,0.0391
1182.00,0.0392
1181.00,0.0392
1180.00,0.0392
1179.00,0.0393
1178.00,0.0393
1177.00,0.0393
1176.00,0.0393
1175.00,0.0393
1174.00,0.0393
1173.00,0.0393
1172.00,0.0393
1171.00,0.0393
1170.00,0.0393
1169.00,0.0393
1168.00,0.0394
1167.00,0.0395
1166.00,0.0395
1165.00,0.0395
1164.00,0.0394
1163.00,0.0394
1162.00,0.0394
1161.00,0.0393
1160.00,0.0393
1159.00,0.0392
1158.00,0.0391
1157.00,0.0391
1156.00,0.0391
1155.00,0.0391
1154.00,0.0391
1153.00,0.0390
1152.00,0.0390
1151.00,0.0390
1150.00,0.0391
1149.00,0.0392
1148.00,0.0392
1147.00,0.0393
1146.00,0.0393
1145.00,0.0394
1144.00,0.0395
1143.00,0.0396
1142.00,0.0396
1141.00,0.0396
1140.00,0.0397
1139.00,0.0397
1138.00,0.0398
1137.00,0.0398
1136.00,0.0399
1135.00,0.0401
1134.00,0.0402
1133.00,0.0403
1132.00,0.0404
1131.00,0.0405
1130.00,0.0406
1129.00,0.0408
1128.00,0.0409
1127.00,0.0411
1126.00,0.0414
1125.00,0.0417
1124.00,0.0420
1123.00,0.0423
1122.00,0.0426
1121.00,0.0429
1120.00,0.0433
1119.00,0.0436
1118.00,0.0439
1117.00,0.0442
1116.00,0.0445
1115.00,0.0446
1114.00,0.0446
1113.00,0.0445
1112.00,0.0445
1111.00,0.0447
1110.00,0.0449
1109.00,0.0451
1108.00,0.0454
1107.00,0.0457
1106.00,0.0459
1105.00,0.0460
1104.00,0.0461
1103.00,0.0462
1102.00,0.0464
1101.00,0.0466
1100.00,0.0468
1099.00,0.0469
1098.00,0.0470
1097.00,0.0470
1096.00,0.0472
1095.00,0.0474
1094.00,0.0476
1093.00,0.0478
1092.00,0.0480
1091.00,0.0481
1090.00,0.0482
1089.00,0.0483
1088.00,0.0483
1087.00,0.0484
1086.00,0.0484
1085.00,0.0485
1084.00,0.0486
1083.00,0.0487
1082.00,0.0487
1081.00,0.0487
1080.00,0.0488
1079.00,0.0489
1078.00,0.0490
1077.00,0.0492
1076.00,0.0493
1075.00,0.0494
1074.00,0.0495
1073.00,0.0496
1072.00,0.0495
1071.00,0.0495
1070.00,0.0497
1069.00,0.0499
1068.00,0.0501
1067.00,0.0503
1066.00,0.0504
1065.00,0.0504
1064.00,0.0506
1063.00,0.0507
1062.00,0.0509
1061.00,0.0511
1060.00,0.0513
1059.00,0.0514
1058.00,0.0515
1057.00,0.0517
1056.00,0.0518
1055.00,0.0520
1054.00,0.0522
1053.00,0.0524
1052.00,0.0525
1051.00,0.0528
1050.00,0.0530
1049.00,0.0533
1048.00,0.0535
1047.00,0.0537
1046.00,0.0539
1045.00,0.0541
1044.00,0.0542
1043.00,0.0544
1042.00,0.0546
1041.00,0.0549
1040.00,0.0552
1039.00,0.0555
1038.00,0.0558
1037.00,0.0560
1036.00,0.0562
1035.00,0.0564
1034.00,0.0565
1033.00,0.0566
1032.00,0.0566
1031.00,0.0566
1030.00,0.0565
1029.00,0.0563
1028.00,0.0561
1027.00,0.0559
1026.00,0.0555
1025.00,0.0552
1024.00,0.0549
1023.00,0.0547
1022.00,0.0546
1021.00,0.0544
1020.00,0.0543
1019.00,0.0542
1018.00,0.0541
1017.00,0.0541
1016.00,0.0541
1015.00,0.0541
1014.00,0.0542
1013.00,0.0544
1012.00,0.0545
1011.00,0.0546
1010.00,0.0547
1009.00,0.0548
1008.00,0.0548
1007.00,0.0547
1006.00,0.0547
1005.00,0.0546
1004.00,0.0546
1003.00,0.0545
1002.00,0.0543
1001.00,0.0541
1000.00,0.0538
999.00,0.0535
998.00,0.0533
997.00,0.0530
996.00,0.0527
995.00,0.0523
994.00,0.0519
993.00,0.0516
992.00,0.0514
991.00,0.0511
990.00,0.0508
989.00,0.0506
988.00,0.0503
987.00,0.0501
986.00,0.0498
985.00,0.0496
984.00,0.0494
983.00,0.0491
982.00,0.0489
981.00,0.0487
980.00,0.0485
979.00,0.0482
978.00,0.0480
977.00,0.0478
976.00,0.0476
975.00,0.0474
974.00,0.0472
973.00,0.0470
972.00,0.0468
971.00,0.0467
970.00,0.0467
969.00,0.0466
968.00,0.0466
967.00,0.0464
966.00,0.0462
965.00,0.0460
964.00,0.0458
963.00,0.0456
962.00,0.0455
961.00,0.0455
960.00,0.0455
959.00,0.0454
958.00,0.0453
957.00,0.0453
956.00,0.0453
955.00,0.0452
954.00,0.0451
953.00,0.0450
952.00,0.0449
951.00,0.0449
950.00,0.0449
949.00,0.0450
948.00,0.0451
947.00,0.0452
946.00,0.0453
945.00,0.0454
944.00,0.0455
943.00,0.0456
942.00,0.0457
941.00,0.0458
940.00,0.0460
939.00,0.0461
938.00,0.0461
937.00,0.0461
936.00,0.0461
935.00,0.0461
934.00,0.0461
933.00,0.0460
932.00,0.0460
931.00,0.0459
930.00,0.0458
929.00,0.0457
928.00,0.0457
927.00,0.0458
926.00,0.0459
925.00,0.0461
924.00,0.0462
923.00,0.0463
922.00,0.0464
921.00,0.0466
920.00,0.0469
919.00,0.0472
918.00,0.0475
917.00,0.0478
916.00,0.0481
915.00,0.0483
914.00,0.0483
913.00,0.0483
912.00,0.0483
911.00,0.0483
910.00,0.0483
909.00,0.0482
908.00,0.0481
907.00,0.0479
906.00,0.0477
905.00,0.0474
904.00,0.0472
903.00,0.0469
902.00,0.0467
901.00,0.0466
900.00,0.0465
899.00,0.0465
898.00,0.0463
897.00,0.0461
896.00,0.0460
895.00,0.0458
894.00,0.0457
893.00,0.0456
892.00,0.0455
891.00,0.0454
890.00,0.0453
889.00,0.0452
888.00,0.0450
887.00,0.0449
886.00,0.0448
885.00,0.0446
884.00,0.0443
883.00,0.0441
882.00,0.0439
881.00,0.0438
880.00,0.0439
879.00,0.0439
878.00,0.0439
877.00,0.0439
876.00,0.0437
875.00,0.0436
874.00,0.0435
873.00,0.0435
872.00,0.0435
871.00,0.0435
870.00,0.0434
869.00,0.0433
868.00,0.0432
867.00,0.0431
866.00,0.0430
865.00,0.0429
864.00,0.0429
863.00,0.0429
862.00,0.0429
861.00,0.0430
860.00,0.0431
859.00,0.0431
858.00,0.0431
857.00,0.0430
856.00,0.0429
855.00,0.0428
854.00,0.0427
853.00,0.0428
852.00,0.0429
851.00,0.0431
850.00,0.0433
849.00,0.0435
848.00,0.0435
847.00,0.0435
846.00,0.0434
845.00,0.0436
844.00,0.0438
843.00,0.0440
842.00,0.0441
841.00,0.0441
840.00,0.0441
839.00,0.0442
838.00,0.0443
837.00,0.0445
836.00,0.0447
835.00,0.0448
834.00,0.0449
833.00,0.0450
832.00,0.0451
831.00,0.0452
830.00,0.0453
829.00,0.0454
828.00,0.0454
827.00,0.0456
826.00,0.0458
825.00,0.0460
824.00,0.0462
823.00,0.0464
822.00,0.0465
821.00,0.0466
820.00,0.0466
819.00,0.0466
818.00,0.0467
817.00,0.0469
816.00,0.0471
815.00,0.0472
814.00,0.0473
813.00,0.0473
812.00,0.0473
811.00,0.0473
810.00,0.0474
809.00,0.0476
808.00,0.0479
807.00,0.0483
806.00,0.0486
805.00,0.0490
804.00,0.0493
803.00,0.0498
802.00,0.0501
801.00,0.0503
800.00,0.0505
799.00,0.0506
798.00,0.0507
797.00,0.0507
796.00,0.0508
795.00,0.0508
794.00,0.0508
793.00,0.0508
792.00,0.0509
791.00,0.0512
790.00,0.0514
789.00,0.0515
788.00,0.0514
787.00,0.0513
786.00,0.0512
785.00,0.0512
784.00,0.0512
783.00,0.0513
782.00,0.0514
781.00,0.0516
780.00,0.0518
779.00,0.0521
778.00,0.0523
777.00,0.0524
776.00,0.0524
775.00,0.0524
774.00,0.0524
773.00,0.0525
772.00,0.0524
771.00,0.0523
770.00,0.0521
769.00,0.0520
768.00,0.0520
767.00,0.0521
766.00,0.0523
765.00,0.0524
764.00,0.0524
763.00,0.0524
762.00,0.0523
761.00,0.0523
760.00,0.0524
759.00,0.0527
758.00,0.0529
757.00,0.0530
756.00,0.0531
755.00,0.0530
754.00,0.0529
753.00,0.0528
752.00,0.0528
751.00,0.0529
750.00,0.0530
749.00,0.0533
748.00,0.0535
747.00,0.0536
746.00,0.0535
745.00,0.0533
744.00,0.0532
743.00,0.0531
742.00,0.0531
741.00,0.0531
740.00,0.0530
739.00,0.0528
738.00,0.0527
737.00,0.0527
736.00,0.0527
735.00,0.0528
734.00,0.0528
733.00,0.0528
732.00,0.0528
731.00,0.0530
730.00,0.0531
729.00,0.0531
728.00,0.0530
727.00,0.0528
726.00,0.0527
725.00,0.0528
724.00,0.0530
723.00,0.0531
722.00,0.0532
721.00,0.0531
720.00,0.0530
719.00,0.0530
718.00,0.0532
717.00,0.0535
716.00,0.0538
715.00,0.0539
714.00,0.0540
713.00,0.0542
712.00,0.0544
711.00,0.0546
710.00,0.0548
709.00,0.0550
708.00,0.0552
707.00,0.0554
706.00,0.0556
705.00,0.0559
704.00,0.0561
703.00,0.0564
702.00,0.0567
701.00,0.0569
700.00,0.0572
699.00,0.0575
698.00,0.0577
697.00,0.0580
696.00,0.0583
695.00,0.0586
694.00,0.0588
693.00,0.0590
692.00,0.0593
691.00,0.0594
690.00,0.0594
689.00,0.0594
688.00,0.0594
687.00,0.0596
686.00,0.0598
685.00,0.0601
684.00,0.0603
683.00,0.0603
682.00,0.0601
681.00,0.0600
680.00,0.0601
679.00,0.0601
678.00,0.0601
677.00,0.0602
676.00,0.0605
675.00,0.0609
674.00,0.0612
673.00,0.0614
672.00,0.0615
671.00,0.0614
670.00,0.0615
669.00,0.0621
668.00,0.0634
667.00,0.0645
666.00,0.0644
665.00,0.0637
664.00,0.0630
663.00,0.0625
662.00,0.0622
661.00,0.0621
660.00,0.0624
659.00,0.0629
658.00,0.0631
657.00,0.0631
656.00,0.0629
655.00,0.0633
654.00,0.0637
653.00,0.0641
652.00,0.0645
651.00,0.0647
650.00,0.0647
