Created as New Dataset,Monday, April 03 2023
cm-1,A
4000.00,0.0264
3999.00,0.0264
3998.00,0.0264
3997.00,0.0264
3996.00,0.0264
3995.00,0.0264
3994.00,0.0264
3993.00,0.0265
3992.00,0.0265
3991.00,0.0265
3990.00,0.0264
3989.00,0.0264
3988.00,0.0264
3987.00,0.0264
3986.00,0.0264
3985.00,0.0263
3984.00,0.0263
3983.00,0.0263
3982.00,0.0263
3981.00,0.0263
3980.00,0.0263
3979.00,0.0264
3978.00,0.0264
3977.00,0.0264
3976.00,0.0263
3975.00,0.0263
3974.00,0.0263
3973.00,0.0263
3972.00,0.0263
3971.00,0.0263
3970.00,0.0263
3969.00,0.0263
3968.00,0.0263
3967.00,0.0263
3966.00,0.0263
3965.00,0.0263
3964.00,0.0263
3963.00,0.0263
3962.00,0.0263
3961.00,0.0263
3960.00,0.0263
3959.00,0.0263
3958.00,0.0263
3957.00,0.0262
3956.00,0.0262
3955.00,0.0262
3954.00,0.0262
3953.00,0.0263
3952.00,0.0263
3951.00,0.0263
3950.00,0.0264
3949.00,0.0264
3948.00,0.0264
3947.00,0.0265
3946.00,0.0265
3945.00,0.0265
3944.00,0.0265
3943.00,0.0264
3942.00,0.0263
3941.00,0.0263
3940.00,0.0263
3939.00,0.0262
3938.00,0.0262
3937.00,0.0262
3936.00,0.0262
3935.00,0.0263
3934.00,0.0264
3933.00,0.0264
3932.00,0.0264
3931.00,0.0264
3930.00,0.0264
3929.00,0.0263
3928.00,0.0263
3927.00,0.0262
3926.00,0.0262
3925.00,0.0262
3924.00,0.0262
3923.00,0.0263
3922.00,0.0263
3921.00,0.0263
3920.00,0.0263
3919.00,0.0263
3918.00,0.0263
3917.00,0.0263
3916.00,0.0263
3915.00,0.0262
3914.00,0.0262
3913.00,0.0261
3912.00,0.0260
3911.00,0.0260
3910.00,0.0259
3909.00,0.0260
3908.00,0.0261
3907.00,0.0262
3906.00,0.0263
3905.00,0.0264
3904.00,0.0264
3903.00,0.0265
3902.00,0.0267
3901.00,0.0268
3900.00,0.0267
3899.00,0.0266
3898.00,0.0264
3897.00,0.0263
3896.00,0.0263
3895.00,0.0263
3894.00,0.0262
3893.00,0.0262
3892.00,0.0261
3891.00,0.0260
3890.00,0.0260
3889.00,0.0261
3888.00,0.0263
3887.00,0.0263
3886.00,0.0261
3885.00,0.0260
3884.00,0.0262
3883.00,0.0265
3882.00,0.0266
3881.00,0.0265
3880.00,0.0263
3879.00,0.0261
3878.00,0.0262
3877.00,0.0262
3876.00,0.0262
3875.00,0.0260
3874.00,0.0259
3873.00,0.0260
3872.00,0.0262
3871.00,0.0262
3870.00,0.0260
3869.00,0.0258
3868.00,0.0260
3867.00,0.0262
3866.00,0.0262
3865.00,0.0260
3864.00,0.0259
3863.00,0.0260
3862.00,0.0261
3861.00,0.0260
3860.00,0.0259
3859.00,0.0259
3858.00,0.0259
3857.00,0.0260
3856.00,0.0260
3855.00,0.0259
3854.00,0.0256
3853.00,0.0255
3852.00,0.0257
3851.00,0.0259
3850.00,0.0261
3849.00,0.0260
3848.00,0.0259
3847.00,0.0258
3846.00,0.0258
3845.00,0.0257
3844.00,0.0257
3843.00,0.0257
3842.00,0.0258
3841.00,0.0259
3840.00,0.0259
3839.00,0.0259
3838.00,0.0258
3837.00,0.0259
3836.00,0.0259
3835.00,0.0260
3834.00,0.0260
3833.00,0.0259
3832.00,0.0258
3831.00,0.0257
3830.00,0.0257
3829.00,0.0258
3828.00,0.0257
3827.00,0.0256
3826.00,0.0255
3825.00,0.0255
3824.00,0.0257
3823.00,0.0258
3822.00,0.0257
3821.00,0.0256
3820.00,0.0255
3819.00,0.0257
3818.00,0.0259
3817.00,0.0257
3816.00,0.0254
3815.00,0.0252
3814.00,0.0253
3813.00,0.0254
3812.00,0.0254
3811.00,0.0253
3810.00,0.0252
3809.00,0.0252
3808.00,0.0251
3807.00,0.0250
3806.00,0.0250
3805.00,0.0252
3804.00,0.0254
3803.00,0.0255
3802.00,0.0253
3801.00,0.0252
3800.00,0.0253
3799.00,0.0255
3798.00,0.0256
3797.00,0.0255
3796.00,0.0253
3795.00,0.0253
3794.00,0.0252
3793.00,0.0252
3792.00,0.0251
3791.00,0.0250
3790.00,0.0250
3789.00,0.0250
3788.00,0.0250
3787.00,0.0250
3786.00,0.0250
3785.00,0.0250
3784.00,0.0250
3783.00,0.0251
3782.00,0.0251
3781.00,0.0251
3780.00,0.0251
3779.00,0.0250
3778.00,0.0249
3777.00,0.0250
3776.00,0.0250
3775.00,0.0249
3774.00,0.0248
3773.00,0.0248
3772.00,0.0249
3771.00,0.0249
3770.00,0.0249
3769.00,0.0249
3768.00,0.0250
3767.00,0.0251
3766.00,0.0250
3765.00,0.0249
3764.00,0.0249
3763.00,0.0249
3762.00,0.0250
3761.00,0.0250
3760.00,0.0249
3759.00,0.0249
3758.00,0.0249
3757.00,0.0249
3756.00,0.0249
3755.00,0.0249
3754.00,0.0248
3753.00,0.0247
3752.00,0.0246
3751.00,0.0247
3750.00,0.0247
3749.00,0.0247
3748.00,0.0249
3747.00,0.0251
3746.00,0.0252
3745.00,0.0250
3744.00,0.0246
3743.00,0.0245
3742.00,0.0247
3741.00,0.0249
3740.00,0.0249
3739.00,0.0248
3738.00,0.0248
3737.00,0.0248
3736.00,0.0249
3735.00,0.0251
3734.00,0.0252
3733.00,0.0252
3732.00,0.0249
3731.00,0.0246
3730.00,0.0245
3729.00,0.0246
3728.00,0.0247
3727.00,0.0246
3726.00,0.0246
3725.00,0.0247
3724.00,0.0249
3723.00,0.0249
3722.00,0.0249
3721.00,0.0249
3720.00,0.0249
3719.00,0.0248
3718.00,0.0248
3717.00,0.0248
3716.00,0.0249
3715.00,0.0250
3714.00,0.0250
3713.00,0.0251
3712.00,0.0253
3711.00,0.0257
3710.00,0.0260
3709.00,0.0261
3708.00,0.0262
3707.00,0.0263
3706.00,0.0264
3705.00,0.0266
3704.00,0.0268
3703.00,0.0271
3702.00,0.0274
3701.00,0.0276
3700.00,0.0279
3699.00,0.0281
3698.00,0.0282
3697.00,0.0282
3696.00,0.0282
3695.00,0.0283
3694.00,0.0283
3693.00,0.0283
3692.00,0.0283
3691.00,0.0282
3690.00,0.0283
3689.00,0.0282
3688.00,0.0281
3687.00,0.0279
3686.00,0.0278
3685.00,0.0277
3684.00,0.0275
3683.00,0.0273
3682.00,0.0271
3681.00,0.0270
3680.00,0.0269
3679.00,0.0269
3678.00,0.0270
3677.00,0.0271
3676.00,0.0272
3675.00,0.0273
3674.00,0.0274
3673.00,0.0276
3672.00,0.0278
3671.00,0.0277
3670.00,0.0277
3669.00,0.0277
3668.00,0.0279
3667.00,0.0279
3666.00,0.0279
3665.00,0.0279
3664.00,0.0279
3663.00,0.0279
3662.00,0.0280
3661.00,0.0282
3660.00,0.0284
3659.00,0.0287
3658.00,0.0291
3657.00,0.0294
3656.00,0.0296
3655.00,0.0298
3654.00,0.0300
3653.00,0.0302
3652.00,0.0304
3651.00,0.0305
3650.00,0.0309
3649.00,0.0315
3648.00,0.0320
3647.00,0.0320
3646.00,0.0318
3645.00,0.0316
3644.00,0.0315
3643.00,0.0313
3642.00,0.0312
3641.00,0.0312
3640.00,0.0312
3639.00,0.0312
3638.00,0.0312
3637.00,0.0313
3636.00,0.0314
3635.00,0.0315
3634.00,0.0316
3633.00,0.0316
3632.00,0.0318
3631.00,0.0321
3630.00,0.0325
3629.00,0.0329
3628.00,0.0333
3627.00,0.0337
3626.00,0.0340
3625.00,0.0342
3624.00,0.0343
3623.00,0.0346
3622.00,0.0349
3621.00,0.0354
3620.00,0.0357
3619.00,0.0358
3618.00,0.0358
3617.00,0.0356
3616.00,0.0354
3615.00,0.0352
3614.00,0.0350
3613.00,0.0349
3612.00,0.0349
3611.00,0.0349
3610.00,0.0349
3609.00,0.0350
3608.00,0.0351
3607.00,0.0352
3606.00,0.0352
3605.00,0.0351
3604.00,0.0350
3603.00,0.0350
3602.00,0.0350
3601.00,0.0351
3600.00,0.0352
3599.00,0.0353
3598.00,0.0354
3597.00,0.0355
3596.00,0.0356
3595.00,0.0358
3594.00,0.0360
3593.00,0.0361
3592.00,0.0361
3591.00,0.0361
3590.00,0.0361
3589.00,0.0362
3588.00,0.0365
3587.00,0.0368
3586.00,0.0370
3585.00,0.0371
3584.00,0.0370
3583.00,0.0369
3582.00,0.0368
3581.00,0.0368
3580.00,0.0369
3579.00,0.0369
3578.00,0.0370
3577.00,0.0371
3576.00,0.0371
3575.00,0.0372
3574.00,0.0373
3573.00,0.0373
3572.00,0.0374
3571.00,0.0375
3570.00,0.0376
3569.00,0.0379
3568.00,0.0383
3567.00,0.0387
3566.00,0.0391
3565.00,0.0392
3564.00,0.0391
3563.00,0.0389
3562.00,0.0388
3561.00,0.0387
3560.00,0.0387
3559.00,0.0388
3558.00,0.0388
3557.00,0.0389
3556.00,0.0389
3555.00,0.0390
3554.00,0.0392
3553.00,0.0394
3552.00,0.0395
3551.00,0.0396
3550.00,0.0397
3549.00,0.0397
3548.00,0.0398
3547.00,0.0401
3546.00,0.0403
3545.00,0.0405
3544.00,0.0406
3543.00,0.0406
3542.00,0.0405
3541.00,0.0404
3540.00,0.0404
3539.00,0.0404
3538.00,0.0406
3537.00,0.0407
3536.00,0.0409
3535.00,0.0410
3534.00,0.0410
3533.00,0.0410
3532.00,0.0410
3531.00,0.0411
3530.00,0.0412
3529.00,0.0414
3528.00,0.0416
3527.00,0.0418
3526.00,0.0419
3525.00,0.0421
3524.00,0.0422
3523.00,0.0422
3522.00,0.0423
3521.00,0.0423
3520.00,0.0423
3519.00,0.0423
3518.00,0.0424
3517.00,0.0425
3516.00,0.0426
3515.00,0.0426
3514.00,0.0426
3513.00,0.0427
3512.00,0.0428
3511.00,0.0429
3510.00,0.0431
3509.00,0.0432
3508.00,0.0433
3507.00,0.0433
3506.00,0.0433
3505.00,0.0434
3504.00,0.0435
3503.00,0.0437
3502.00,0.0439
3501.00,0.0441
3500.00,0.0441
3499.00,0.0441
3498.00,0.0441
3497.00,0.0442
3496.00,0.0444
3495.00,0.0445
3494.00,0.0446
3493.00,0.0446
3492.00,0.0446
3491.00,0.0447
3490.00,0.0448
3489.00,0.0449
3488.00,0.0450
3487.00,0.0451
3486.00,0.0451
3485.00,0.0452
3484.00,0.0452
3483.00,0.0453
3482.00,0.0454
3481.00,0.0456
3480.00,0.0457
3479.00,0.0458
3478.00,0.0458
3477.00,0.0459
3476.00,0.0459
3475.00,0.0460
3474.00,0.0461
3473.00,0.0462
3472.00,0.0463
3471.00,0.0463
3470.00,0.0464
3469.00,0.0465
3468.00,0.0466
3467.00,0.0467
3466.00,0.0468
3465.00,0.0468
3464.00,0.0469
3463.00,0.0470
3462.00,0.0470
3461.00,0.0471
3460.00,0.0472
3459.00,0.0472
3458.00,0.0473
3457.00,0.0473
3456.00,0.0474
3455.00,0.0474
3454.00,0.0475
3453.00,0.0475
3452.00,0.0476
3451.00,0.0477
3450.00,0.0478
3449.00,0.0480
3448.00,0.0481
3447.00,0.0482
3446.00,0.0483
3445.00,0.0484
3444.00,0.0484
3443.00,0.0485
3442.00,0.0485
3441.00,0.0486
3440.00,0.0486
3439.00,0.0486
3438.00,0.0487
3437.00,0.0488
3436.00,0.0488
3435.00,0.0489
3434.00,0.0490
3433.00,0.0491
3432.00,0.0491
3431.00,0.0492
3430.00,0.0492
3429.00,0.0493
3428.00,0.0494
3427.00,0.0494
3426.00,0.0495
3425.00,0.0496
3424.00,0.0496
3423.00,0.0497
3422.00,0.0498
3421.00,0.0500
3420.00,0.0501
3419.00,0.0502
3418.00,0.0502
3417.00,0.0502
3416.00,0.0501
3415.00,0.0501
3414.00,0.0502
3413.00,0.0502
3412.00,0.0502
3411.00,0.0503
3410.00,0.0503
3409.00,0.0504
3408.00,0.0505
3407.00,0.0505
3406.00,0.0506
3405.00,0.0506
3404.00,0.0507
3403.00,0.0508
3402.00,0.0509
3401.00,0.0510
3400.00,0.0510
3399.00,0.0511
3398.00,0.0511
3397.00,0.0511
3396.00,0.0512
3395.00,0.0513
3394.00,0.0514
3393.00,0.0515
3392.00,0.0515
3391.00,0.0515
3390.00,0.0515
3389.00,0.0515
3388.00,0.0515
3387.00,0.0515
3386.00,0.0516
3385.00,0.0517
3384.00,0.0517
3383.00,0.0517
3382.00,0.0517
3381.00,0.0518
3380.00,0.0518
3379.00,0.0519
3378.00,0.0520
3377.00,0.0520
3376.00,0.0520
3375.00,0.0521
3374.00,0.0521
3373.00,0.0521
3372.00,0.0521
3371.00,0.0521
3370.00,0.0521
3369.00,0.0521
3368.00,0.0521
3367.00,0.0522
3366.00,0.0523
3365.00,0.0524
3364.00,0.0525
3363.00,0.0525
3362.00,0.0525
3361.00,0.0525
3360.00,0.0525
3359.00,0.0525
3358.00,0.0526
3357.00,0.0526
3356.00,0.0527
3355.00,0.0527
3354.00,0.0527
3353.00,0.0527
3352.00,0.0528
3351.00,0.0528
3350.00,0.0529
3349.00,0.0529
3348.00,0.0528
3347.00,0.0528
3346.00,0.0528
3345.00,0.0528
3344.00,0.0528
3343.00,0.0528
3342.00,0.0529
3341.00,0.0529
3340.00,0.0529
3339.00,0.0530
3338.00,0.0530
3337.00,0.0530
3336.00,0.0530
3335.00,0.0530
3334.00,0.0531
3333.00,0.0531
3332.00,0.0531
3331.00,0.0530
3330.00,0.0530
3329.00,0.0530
3328.00,0.0531
3327.00,0.0531
3326.00,0.0531
3325.00,0.0531
3324.00,0.0531
3323.00,0.0531
3322.00,0.0531
3321.00,0.0531
3320.00,0.0531
3319.00,0.0532
3318.00,0.0532
3317.00,0.0532
3316.00,0.0532
3315.00,0.0532
3314.00,0.0532
3313.00,0.0532
3312.00,0.0532
3311.00,0.0532
3310.00,0.0532
3309.00,0.0533
3308.00,0.0533
3307.00,0.0533
3306.00,0.0533
3305.00,0.0532
3304.00,0.0532
3303.00,0.0532
3302.00,0.0532
3301.00,0.0533
3300.00,0.0533
3299.00,0.0533
3298.00,0.0533
3297.00,0.0533
3296.00,0.0533
3295.00,0.0533
3294.00,0.0534
3293.00,0.0534
3292.00,0.0534
3291.00,0.0534
3290.00,0.0534
3289.00,0.0533
3288.00,0.0533
3287.00,0.0533
3286.00,0.0534
3285.00,0.0534
3284.00,0.0534
3283.00,0.0534
3282.00,0.0534
3281.00,0.0534
3280.00,0.0534
3279.00,0.0534
3278.00,0.0534
3277.00,0.0535
3276.00,0.0535
3275.00,0.0535
3274.00,0.0535
3273.00,0.0535
3272.00,0.0535
3271.00,0.0535
3270.00,0.0535
3269.00,0.0535
3268.00,0.0535
3267.00,0.0535
3266.00,0.0535
3265.00,0.0534
3264.00,0.0534
3263.00,0.0534
3262.00,0.0534
3261.00,0.0534
3260.00,0.0533
3259.00,0.0533
3258.00,0.0533
3257.00,0.0533
3256.00,0.0533
3255.00,0.0533
3254.00,0.0533
3253.00,0.0533
3252.00,0.0533
3251.00,0.0533
3250.00,0.0532
3249.00,0.0532
3248.00,0.0533
3247.00,0.0533
3246.00,0.0533
3245.00,0.0533
3244.00,0.0533
3243.00,0.0533
3242.00,0.0533
3241.00,0.0533
3240.00,0.0533
3239.00,0.0533
3238.00,0.0533
3237.00,0.0533
3236.00,0.0533
3235.00,0.0532
3234.00,0.0532
3233.00,0.0531
3232.00,0.0531
3231.00,0.0531
3230.00,0.0532
3229.00,0.0532
3228.00,0.0533
3227.00,0.0533
3226.00,0.0532
3225.00,0.0531
3224.00,0.0531
3223.00,0.0531
3222.00,0.0531
3221.00,0.0531
3220.00,0.0531
3219.00,0.0531
3218.00,0.0531
3217.00,0.0531
3216.00,0.0530
3215.00,0.0530
3214.00,0.0530
3213.00,0.0530
3212.00,0.0529
3211.00,0.0529
3210.00,0.0529
3209.00,0.0529
3208.00,0.0529
3207.00,0.0529
3206.00,0.0529
3205.00,0.0529
3204.00,0.0529
3203.00,0.0528
3202.00,0.0528
3201.00,0.0528
3200.00,0.0528
3199.00,0.0528
3198.00,0.0527
3197.00,0.0527
3196.00,0.0527
3195.00,0.0526
3194.00,0.0525
3193.00,0.0525
3192.00,0.0524
3191.00,0.0524
3190.00,0.0524
3189.00,0.0524
3188.00,0.0524
3187.00,0.0524
3186.00,0.0524
3185.00,0.0524
3184.00,0.0524
3183.00,0.0523
3182.00,0.0523
3181.00,0.0522
3180.00,0.0522
3179.00,0.0521
3178.00,0.0521
3177.00,0.0520
3176.00,0.0520
3175.00,0.0520
3174.00,0.0520
3173.00,0.0519
3172.00,0.0519
3171.00,0.0519
3170.00,0.0519
3169.00,0.0519
3168.00,0.0519
3167.00,0.0518
3166.00,0.0518
3165.00,0.0517
3164.00,0.0517
3163.00,0.0516
3162.00,0.0516
3161.00,0.0516
3160.00,0.0516
3159.00,0.0515
3158.00,0.0514
3157.00,0.0513
3156.00,0.0512
3155.00,0.0512
3154.00,0.0512
3153.00,0.0512
3152.00,0.0512
3151.00,0.0512
3150.00,0.0512
3149.00,0.0511
3148.00,0.0511
3147.00,0.0511
3146.00,0.0510
3145.00,0.0510
3144.00,0.0509
3143.00,0.0509
3142.00,0.0509
3141.00,0.0509
3140.00,0.0509
3139.00,0.0508
3138.00,0.0508
3137.00,0.0507
3136.00,0.0507
3135.00,0.0507
3134.00,0.0506
3133.00,0.0506
3132.00,0.0506
3131.00,0.0506
3130.00,0.0505
3129.00,0.0505
3128.00,0.0504
3127.00,0.0504
3126.00,0.0503
3125.00,0.0503
3124.00,0.0503
3123.00,0.0502
3122.00,0.0502
3121.00,0.0502
3120.00,0.0502
3119.00,0.0502
3118.00,0.0501
3117.00,0.0501
3116.00,0.0501
3115.00,0.0500
3114.00,0.0500
3113.00,0.0500
3112.00,0.0499
3111.00,0.0499
3110.00,0.0498
3109.00,0.0498
3108.00,0.0498
3107.00,0.0497
3106.00,0.0497
3105.00,0.0497
3104.00,0.0496
3103.00,0.0496
3102.00,0.0496
3101.00,0.0496
3100.00,0.0496
3099.00,0.0495
3098.00,0.0495
3097.00,0.0495
3096.00,0.0495
3095.00,0.0495
3094.00,0.0495
3093.00,0.0495
3092.00,0.0494
3091.00,0.0494
3090.00,0.0494
3089.00,0.0493
3088.00,0.0493
3087.00,0.0492
3086.00,0.0492
3085.00,0.0492
3084.00,0.0491
3083.00,0.0491
3082.00,0.0491
3081.00,0.0491
3080.00,0.0491
3079.00,0.0491
3078.00,0.0490
3077.00,0.0490
3076.00,0.0490
3075.00,0.0489
3074.00,0.0489
3073.00,0.0488
3072.00,0.0488
3071.00,0.0487
3070.00,0.0487
3069.00,0.0487
3068.00,0.0487
3067.00,0.0486
3066.00,0.0486
3065.00,0.0486
3064.00,0.0486
3063.00,0.0486
3062.00,0.0485
3061.00,0.0485
3060.00,0.0485
3059.00,0.0484
3058.00,0.0484
3057.00,0.0483
3056.00,0.0482
3055.00,0.0482
3054.00,0.0481
3053.00,0.0480
3052.00,0.0480
3051.00,0.0479
3050.00,0.0479
3049.00,0.0479
3048.00,0.0479
3047.00,0.0479
3046.00,0.0478
3045.00,0.0478
3044.00,0.0478
3043.00,0.0477
3042.00,0.0476
3041.00,0.0475
3040.00,0.0474
3039.00,0.0474
3038.00,0.0474
3037.00,0.0473
3036.00,0.0473
3035.00,0.0473
3034.00,0.0472
3033.00,0.0472
3032.00,0.0471
3031.00,0.0470
3030.00,0.0470
3029.00,0.0470
3028.00,0.0469
3027.00,0.0469
3026.00,0.0468
3025.00,0.0468
3024.00,0.0468
3023.00,0.0467
3022.00,0.0467
3021.00,0.0466
3020.00,0.0465
3019.00,0.0465
3018.00,0.0464
3017.00,0.0464
3016.00,0.0464
3015.00,0.0463
3014.00,0.0463
3013.00,0.0463
3012.00,0.0463
3011.00,0.0462
3010.00,0.0461
3009.00,0.0460
3008.00,0.0459
3007.00,0.0459
3006.00,0.0458
3005.00,0.0458
3004.00,0.0458
3003.00,0.0457
3002.00,0.0457
3001.00,0.0456
3000.00,0.0456
2999.00,0.0456
2998.00,0.0455
2997.00,0.0454
2996.00,0.0454
2995.00,0.0454
2994.00,0.0454
2993.00,0.0454
2992.00,0.0453
2991.00,0.0453
2990.00,0.0452
2989.00,0.0451
2988.00,0.0450
2987.00,0.0450
2986.00,0.0450
2985.00,0.0449
2984.00,0.0449
2983.00,0.0448
2982.00,0.0447
2981.00,0.0447
2980.00,0.0447
2979.00,0.0447
2978.00,0.0447
2977.00,0.0447
2976.00,0.0447
2975.00,0.0447
2974.00,0.0446
2973.00,0.0446
2972.00,0.0446
2971.00,0.0445
2970.00,0.0445
2969.00,0.0445
2968.00,0.0445
2967.00,0.0445
2966.00,0.0445
2965.00,0.0445
2964.00,0.0444
2963.00,0.0444
2962.00,0.0444
2961.00,0.0444
2960.00,0.0443
2959.00,0.0443
2958.00,0.0443
2957.00,0.0443
2956.00,0.0443
2955.00,0.0443
2954.00,0.0444
2953.00,0.0444
2952.00,0.0444
2951.00,0.0444
2950.00,0.0444
2949.00,0.0444
2948.00,0.0444
2947.00,0.0444
2946.00,0.0444
2945.00,0.0444
2944.00,0.0444
2943.00,0.0444
2942.00,0.0444
2941.00,0.0444
2940.00,0.0444
2939.00,0.0443
2938.00,0.0443
2937.00,0.0443
2936.00,0.0443
2935.00,0.0442
2934.00,0.0441
2933.00,0.0441
2932.00,0.0440
2931.00,0.0439
2930.00,0.0438
2929.00,0.0438
2928.00,0.0437
2927.00,0.0436
2926.00,0.0436
2925.00,0.0436
2924.00,0.0435
2923.00,0.0435
2922.00,0.0434
2921.00,0.0433
2920.00,0.0432
2919.00,0.0431
2918.00,0.0429
2917.00,0.0428
2916.00,0.0428
2915.00,0.0429
2914.00,0.0431
2913.00,0.0432
2912.00,0.0433
2911.00,0.0433
2910.00,0.0433
2909.00,0.0433
2908.00,0.0433
2907.00,0.0433
2906.00,0.0433
2905.00,0.0433
2904.00,0.0433
2903.00,0.0432
2902.00,0.0432
2901.00,0.0432
2900.00,0.0431
2899.00,0.0431
2898.00,0.0431
2897.00,0.0431
2896.00,0.0430
2895.00,0.0430
2894.00,0.0429
2893.00,0.0429
2892.00,0.0428
2891.00,0.0428
2890.00,0.0427
2889.00,0.0427
2888.00,0.0426
2887.00,0.0426
2886.00,0.0426
2885.00,0.0426
2884.00,0.0425
2883.00,0.0425
2882.00,0.0424
2881.00,0.0424
2880.00,0.0424
2879.00,0.0423
2878.00,0.0423
2877.00,0.0423
2876.00,0.0422
2875.00,0.0422
2874.00,0.0422
2873.00,0.0421
2872.00,0.0421
2871.00,0.0420
2870.00,0.0419
2869.00,0.0419
2868.00,0.0418
2867.00,0.0417
2866.00,0.0417
2865.00,0.0416
2864.00,0.0416
2863.00,0.0416
2862.00,0.0416
2861.00,0.0416
2860.00,0.0416
2859.00,0.0415
2858.00,0.0414
2857.00,0.0414
2856.00,0.0413
2855.00,0.0412
2854.00,0.0412
2853.00,0.0412
2852.00,0.0411
2851.00,0.0410
2850.00,0.0410
2849.00,0.0410
2848.00,0.0409
2847.00,0.0409
2846.00,0.0409
2845.00,0.0409
2844.00,0.0409
2843.00,0.0409
2842.00,0.0409
2841.00,0.0409
2840.00,0.0408
2839.00,0.0408
2838.00,0.0408
2837.00,0.0407
2836.00,0.0406
2835.00,0.0405
2834.00,0.0405
2833.00,0.0405
2832.00,0.0404
2831.00,0.0404
2830.00,0.0404
2829.00,0.0403
2828.00,0.0403
2827.00,0.0402
2826.00,0.0402
2825.00,0.0401
2824.00,0.0401
2823.00,0.0401
2822.00,0.0400
2821.00,0.0400
2820.00,0.0400
2819.00,0.0400
2818.00,0.0399
2817.00,0.0399
2816.00,0.0399
2815.00,0.0398
2814.00,0.0398
2813.00,0.0398
2812.00,0.0397
2811.00,0.0397
2810.00,0.0396
2809.00,0.0395
2808.00,0.0395
2807.00,0.0394
2806.00,0.0394
2805.00,0.0394
2804.00,0.0393
2803.00,0.0393
2802.00,0.0393
2801.00,0.0393
2800.00,0.0392
2799.00,0.0392
2798.00,0.0391
2797.00,0.0391
2796.00,0.0390
2795.00,0.0390
2794.00,0.0390
2793.00,0.0389
2792.00,0.0389
2791.00,0.0389
2790.00,0.0388
2789.00,0.0388
2788.00,0.0388
2787.00,0.0388
2786.00,0.0388
2785.00,0.0387
2784.00,0.0387
2783.00,0.0387
2782.00,0.0386
2781.00,0.0386
2780.00,0.0385
2779.00,0.0385
2778.00,0.0384
2777.00,0.0384
2776.00,0.0384
2775.00,0.0383
2774.00,0.0383
2773.00,0.0382
2772.00,0.0382
2771.00,0.0382
2770.00,0.0382
2769.00,0.0382
2768.00,0.0382
2767.00,0.0381
2766.00,0.0381
2765.00,0.0380
2764.00,0.0380
2763.00,0.0380
2762.00,0.0380
2761.00,0.0379
2760.00,0.0379
2759.00,0.0379
2758.00,0.0378
2757.00,0.0378
2756.00,0.0378
2755.00,0.0378
2754.00,0.0377
2753.00,0.0377
2752.00,0.0377
2751.00,0.0376
2750.00,0.0376
2749.00,0.0375
2748.00,0.0375
2747.00,0.0375
2746.00,0.0375
2745.00,0.0375
2744.00,0.0374
2743.00,0.0374
2742.00,0.0373
2741.00,0.0373
2740.00,0.0373
2739.00,0.0373
2738.00,0.0373
2737.00,0.0372
2736.00,0.0372
2735.00,0.0371
2734.00,0.0371
2733.00,0.0371
2732.00,0.0370
2731.00,0.0370
2730.00,0.0370
2729.00,0.0370
2728.00,0.0370
2727.00,0.0369
2726.00,0.0368
2725.00,0.0368
2724.00,0.0368
2723.00,0.0368
2722.00,0.0368
2721.00,0.0367
2720.00,0.0367
2719.00,0.0367
2718.00,0.0367
2717.00,0.0367
2716.00,0.0366
2715.00,0.0366
2714.00,0.0366
2713.00,0.0365
2712.00,0.0365
2711.00,0.0365
2710.00,0.0364
2709.00,0.0364
2708.00,0.0364
2707.00,0.0364
2706.00,0.0363
2705.00,0.0363
2704.00,0.0362
2703.00,0.0362
2702.00,0.0362
2701.00,0.0362
2700.00,0.0361
2699.00,0.0361
2698.00,0.0361
2697.00,0.0361
2696.00,0.0362
2695.00,0.0361
2694.00,0.0361
2693.00,0.0361
2692.00,0.0360
2691.00,0.0360
2690.00,0.0360
2689.00,0.0359
2688.00,0.0359
2687.00,0.0359
2686.00,0.0358
2685.00,0.0358
2684.00,0.0358
2683.00,0.0358
2682.00,0.0358
2681.00,0.0358
2680.00,0.0357
2679.00,0.0357
2678.00,0.0357
2677.00,0.0357
2676.00,0.0356
2675.00,0.0356
2674.00,0.0356
2673.00,0.0356
2672.00,0.0356
2671.00,0.0356
2670.00,0.0355
2669.00,0.0355
2668.00,0.0355
2667.00,0.0355
2666.00,0.0355
2665.00,0.0355
2664.00,0.0355
2663.00,0.0355
2662.00,0.0355
2661.00,0.0356
2660.00,0.0355
2659.00,0.0355
2658.00,0.0355
2657.00,0.0355
2656.00,0.0355
2655.00,0.0356
2654.00,0.0356
2653.00,0.0356
2652.00,0.0356
2651.00,0.0355
2650.00,0.0355
2649.00,0.0355
2648.00,0.0355
2647.00,0.0355
2646.00,0.0355
2645.00,0.0355
2644.00,0.0355
2643.00,0.0355
2642.00,0.0355
2641.00,0.0355
2640.00,0.0355
2639.00,0.0355
2638.00,0.0355
2637.00,0.0355
2636.00,0.0355
2635.00,0.0355
2634.00,0.0355
2633.00,0.0355
2632.00,0.0354
2631.00,0.0354
2630.00,0.0354
2629.00,0.0354
2628.00,0.0354
2627.00,0.0354
2626.00,0.0354
2625.00,0.0353
2624.00,0.0353
2623.00,0.0353
2622.00,0.0353
2621.00,0.0353
2620.00,0.0353
2619.00,0.0353
2618.00,0.0353
2617.00,0.0353
2616.00,0.0353
2615.00,0.0353
2614.00,0.0353
2613.00,0.0353
2612.00,0.0353
2611.00,0.0353
2610.00,0.0353
2609.00,0.0353
2608.00,0.0353
2607.00,0.0353
2606.00,0.0353
2605.00,0.0353
2604.00,0.0353
2603.00,0.0352
2602.00,0.0352
2601.00,0.0352
2600.00,0.0352
2599.00,0.0352
2598.00,0.0352
2597.00,0.0351
2596.00,0.0351
2595.00,0.0350
2594.00,0.0350
2593.00,0.0350
2592.00,0.0350
2591.00,0.0351
2590.00,0.0351
2589.00,0.0351
2588.00,0.0350
2587.00,0.0349
2586.00,0.0349
2585.00,0.0350
2584.00,0.0350
2583.00,0.0350
2582.00,0.0350
2581.00,0.0350
2580.00,0.0350
2579.00,0.0350
2578.00,0.0350
2577.00,0.0349
2576.00,0.0349
2575.00,0.0349
2574.00,0.0349
2573.00,0.0349
2572.00,0.0349
2571.00,0.0349
2570.00,0.0349
2569.00,0.0349
2568.00,0.0349
2567.00,0.0349
2566.00,0.0349
2565.00,0.0349
2564.00,0.0349
2563.00,0.0348
2562.00,0.0347
2561.00,0.0347
2560.00,0.0346
2559.00,0.0346
2558.00,0.0346
2557.00,0.0346
2556.00,0.0347
2555.00,0.0347
2554.00,0.0347
2553.00,0.0347
2552.00,0.0347
2551.00,0.0347
2550.00,0.0347
2549.00,0.0346
2548.00,0.0346
2547.00,0.0345
2546.00,0.0345
2545.00,0.0345
2544.00,0.0345
2543.00,0.0345
2542.00,0.0345
2541.00,0.0345
2540.00,0.0345
2539.00,0.0345
2538.00,0.0345
2537.00,0.0344
2536.00,0.0344
2535.00,0.0344
2534.00,0.0344
2533.00,0.0343
2532.00,0.0343
2531.00,0.0343
2530.00,0.0343
2529.00,0.0343
2528.00,0.0343
2527.00,0.0343
2526.00,0.0343
2525.00,0.0344
2524.00,0.0343
2523.00,0.0343
2522.00,0.0343
2521.00,0.0342
2520.00,0.0342
2519.00,0.0342
2518.00,0.0341
2517.00,0.0341
2516.00,0.0341
2515.00,0.0341
2514.00,0.0341
2513.00,0.0341
2512.00,0.0342
2511.00,0.0342
2510.00,0.0341
2509.00,0.0340
2508.00,0.0340
2507.00,0.0339
2506.00,0.0339
2505.00,0.0340
2504.00,0.0340
2503.00,0.0340
2502.00,0.0340
2501.00,0.0340
2500.00,0.0340
2499.00,0.0340
2498.00,0.0340
2497.00,0.0340
2496.00,0.0340
2495.00,0.0340
2494.00,0.0340
2493.00,0.0340
2492.00,0.0339
2491.00,0.0339
2490.00,0.0339
2489.00,0.0338
2488.00,0.0338
2487.00,0.0338
2486.00,0.0337
2485.00,0.0337
2484.00,0.0337
2483.00,0.0337
2482.00,0.0336
2481.00,0.0336
2480.00,0.0336
2479.00,0.0336
2478.00,0.0336
2477.00,0.0336
2476.00,0.0336
2475.00,0.0336
2474.00,0.0335
2473.00,0.0335
2472.00,0.0335
2471.00,0.0335
2470.00,0.0335
2469.00,0.0335
2468.00,0.0335
2467.00,0.0335
2466.00,0.0334
2465.00,0.0334
2464.00,0.0334
2463.00,0.0334
2462.00,0.0334
2461.00,0.0334
2460.00,0.0334
2459.00,0.0334
2458.00,0.0333
2457.00,0.0332
2456.00,0.0332
2455.00,0.0332
2454.00,0.0332
2453.00,0.0332
2452.00,0.0332
2451.00,0.0332
2450.00,0.0332
2449.00,0.0332
2448.00,0.0332
2447.00,0.0332
2446.00,0.0331
2445.00,0.0331
2444.00,0.0330
2443.00,0.0330
2442.00,0.0330
2441.00,0.0330
2440.00,0.0329
2439.00,0.0329
2438.00,0.0329
2437.00,0.0328
2436.00,0.0328
2435.00,0.0327
2434.00,0.0327
2433.00,0.0327
2432.00,0.0327
2431.00,0.0327
2430.00,0.0326
2429.00,0.0326
2428.00,0.0326
2427.00,0.0326
2426.00,0.0326
2425.00,0.0326
2424.00,0.0326
2423.00,0.0326
2422.00,0.0325
2421.00,0.0325
2420.00,0.0325
2419.00,0.0325
2418.00,0.0325
2417.00,0.0324
2416.00,0.0324
2415.00,0.0324
2414.00,0.0323
2413.00,0.0323
2412.00,0.0323
2411.00,0.0323
2410.00,0.0322
2409.00,0.0322
2408.00,0.0321
2407.00,0.0321
2406.00,0.0320
2405.00,0.0320
2404.00,0.0320
2403.00,0.0319
2402.00,0.0319
2401.00,0.0319
2400.00,0.0318
2399.00,0.0318
2398.00,0.0318
2397.00,0.0318
2396.00,0.0318
2395.00,0.0318
2394.00,0.0317
2393.00,0.0316
2392.00,0.0316
2391.00,0.0316
2390.00,0.0315
2389.00,0.0315
2388.00,0.0315
2387.00,0.0314
2386.00,0.0313
2385.00,0.0312
2384.00,0.0311
2383.00,0.0311
2382.00,0.0310
2381.00,0.0310
2380.00,0.0310
2379.00,0.0310
2378.00,0.0310
2377.00,0.0310
2376.00,0.0311
2375.00,0.0311
2374.00,0.0311
2373.00,0.0311
2372.00,0.0310
2371.00,0.0310
2370.00,0.0310
2369.00,0.0310
2368.00,0.0309
2367.00,0.0309
2366.00,0.0309
2365.00,0.0309
2364.00,0.0308
2363.00,0.0307
2362.00,0.0307
2361.00,0.0308
2360.00,0.0310
2359.00,0.0312
2358.00,0.0314
2357.00,0.0314
2356.00,0.0313
2355.00,0.0312
2354.00,0.0310
2353.00,0.0308
2352.00,0.0308
2351.00,0.0308
2350.00,0.0307
2349.00,0.0304
2348.00,0.0300
2347.00,0.0297
2346.00,0.0298
2345.00,0.0301
2344.00,0.0304
2343.00,0.0306
2342.00,0.0308
2341.00,0.0309
2340.00,0.0310
2339.00,0.0310
2338.00,0.0310
2337.00,0.0310
2336.00,0.0309
2335.00,0.0309
2334.00,0.0309
2333.00,0.0309
2332.00,0.0310
2331.00,0.0311
2330.00,0.0312
2329.00,0.0313
2328.00,0.0314
2327.00,0.0315
2326.00,0.0316
2325.00,0.0316
2324.00,0.0315
2323.00,0.0315
2322.00,0.0315
2321.00,0.0315
2320.00,0.0315
2319.00,0.0315
2318.00,0.0315
2317.00,0.0314
2316.00,0.0312
2315.00,0.0310
2314.00,0.0309
2313.00,0.0308
2312.00,0.0308
2311.00,0.0308
2310.00,0.0309
2309.00,0.0309
2308.00,0.0309
2307.00,0.0308
2306.00,0.0308
2305.00,0.0308
2304.00,0.0307
2303.00,0.0307
2302.00,0.0306
2301.00,0.0305
2300.00,0.0305
2299.00,0.0304
2298.00,0.0303
2297.00,0.0303
2296.00,0.0303
2295.00,0.0303
2294.00,0.0304
2293.00,0.0305
2292.00,0.0305
2291.00,0.0305
2290.00,0.0305
2289.00,0.0305
2288.00,0.0306
2287.00,0.0306
2286.00,0.0306
2285.00,0.0305
2284.00,0.0304
2283.00,0.0303
2282.00,0.0303
2281.00,0.0302
2280.00,0.0301
2279.00,0.0301
2278.00,0.0300
2277.00,0.0299
2276.00,0.0299
2275.00,0.0299
2274.00,0.0299
2273.00,0.0299
2272.00,0.0300
2271.00,0.0300
2270.00,0.0300
2269.00,0.0300
2268.00,0.0299
2267.00,0.0299
2266.00,0.0299
2265.00,0.0299
2264.00,0.0299
2263.00,0.0299
2262.00,0.0298
2261.00,0.0298
2260.00,0.0299
2259.00,0.0299
2258.00,0.0298
2257.00,0.0298
2256.00,0.0296
2255.00,0.0295
2254.00,0.0295
2253.00,0.0295
2252.00,0.0296
2251.00,0.0297
2250.00,0.0298
2249.00,0.0297
2248.00,0.0297
2247.00,0.0296
2246.00,0.0296
2245.00,0.0296
2244.00,0.0297
2243.00,0.0297
2242.00,0.0297
2241.00,0.0297
2240.00,0.0296
2239.00,0.0297
2238.00,0.0298
2237.00,0.0298
2236.00,0.0298
2235.00,0.0297
2234.00,0.0297
2233.00,0.0297
2232.00,0.0298
2231.00,0.0299
2230.00,0.0300
2229.00,0.0300
2228.00,0.0299
2227.00,0.0297
2226.00,0.0295
2225.00,0.0294
2224.00,0.0294
2223.00,0.0294
2222.00,0.0295
2221.00,0.0296
2220.00,0.0296
2219.00,0.0296
2218.00,0.0294
2217.00,0.0293
2216.00,0.0292
2215.00,0.0293
2214.00,0.0295
2213.00,0.0296
2212.00,0.0297
2211.00,0.0296
2210.00,0.0294
2209.00,0.0293
2208.00,0.0292
2207.00,0.0292
2206.00,0.0291
2205.00,0.0291
2204.00,0.0291
2203.00,0.0292
2202.00,0.0293
2201.00,0.0294
2200.00,0.0295
2199.00,0.0296
2198.00,0.0296
2197.00,0.0296
2196.00,0.0295
2195.00,0.0294
2194.00,0.0294
2193.00,0.0294
2192.00,0.0293
2191.00,0.0291
2190.00,0.0290
2189.00,0.0291
2188.00,0.0294
2187.00,0.0296
2186.00,0.0296
2185.00,0.0295
2184.00,0.0292
2183.00,0.0289
2182.00,0.0288
2181.00,0.0289
2180.00,0.0289
2179.00,0.0289
2178.00,0.0287
2177.00,0.0285
2176.00,0.0285
2175.00,0.0286
2174.00,0.0288
2173.00,0.0290
2172.00,0.0290
2171.00,0.0290
2170.00,0.0291
2169.00,0.0292
2168.00,0.0293
2167.00,0.0293
2166.00,0.0292
2165.00,0.0293
2164.00,0.0294
2163.00,0.0295
2162.00,0.0294
2161.00,0.0290
2160.00,0.0284
2159.00,0.0278
2158.00,0.0275
2157.00,0.0275
2156.00,0.0276
2155.00,0.0276
2154.00,0.0277
2153.00,0.0278
2152.00,0.0278
2151.00,0.0278
2150.00,0.0277
2149.00,0.0276
2148.00,0.0276
2147.00,0.0276
2146.00,0.0276
2145.00,0.0276
2144.00,0.0276
2143.00,0.0275
2142.00,0.0275
2141.00,0.0274
2140.00,0.0274
2139.00,0.0274
2138.00,0.0274
2137.00,0.0274
2136.00,0.0272
2135.00,0.0270
2134.00,0.0269
2133.00,0.0269
2132.00,0.0269
2131.00,0.0270
2130.00,0.0270
2129.00,0.0270
2128.00,0.0271
2127.00,0.0270
2126.00,0.0270
2125.00,0.0270
2124.00,0.0270
2123.00,0.0271
2122.00,0.0271
2121.00,0.0272
2120.00,0.0272
2119.00,0.0272
2118.00,0.0273
2117.00,0.0273
2116.00,0.0273
2115.00,0.0273
2114.00,0.0273
2113.00,0.0273
2112.00,0.0273
2111.00,0.0273
2110.00,0.0272
2109.00,0.0272
2108.00,0.0271
2107.00,0.0270
2106.00,0.0270
2105.00,0.0270
2104.00,0.0270
2103.00,0.0269
2102.00,0.0270
2101.00,0.0270
2100.00,0.0269
2099.00,0.0269
2098.00,0.0268
2097.00,0.0267
2096.00,0.0267
2095.00,0.0267
2094.00,0.0267
2093.00,0.0267
2092.00,0.0268
2091.00,0.0268
2090.00,0.0268
2089.00,0.0268
2088.00,0.0267
2087.00,0.0267
2086.00,0.0266
2085.00,0.0267
2084.00,0.0267
2083.00,0.0267
2082.00,0.0267
2081.00,0.0266
2080.00,0.0266
2079.00,0.0266
2078.00,0.0266
2077.00,0.0266
2076.00,0.0266
2075.00,0.0266
2074.00,0.0265
2073.00,0.0265
2072.00,0.0265
2071.00,0.0265
2070.00,0.0265
2069.00,0.0265
2068.00,0.0265
2067.00,0.0265
2066.00,0.0265
2065.00,0.0265
2064.00,0.0265
2063.00,0.0264
2062.00,0.0264
2061.00,0.0263
2060.00,0.0263
2059.00,0.0262
2058.00,0.0261
2057.00,0.0261
2056.00,0.0262
2055.00,0.0263
2054.00,0.0264
2053.00,0.0266
2052.00,0.0268
2051.00,0.0269
2050.00,0.0269
2049.00,0.0267
2048.00,0.0266
2047.00,0.0264
2046.00,0.0264
2045.00,0.0264
2044.00,0.0264
2043.00,0.0263
2042.00,0.0262
2041.00,0.0263
2040.00,0.0265
2039.00,0.0267
2038.00,0.0268
2037.00,0.0268
2036.00,0.0267
2035.00,0.0265
2034.00,0.0263
2033.00,0.0262
2032.00,0.0261
2031.00,0.0261
2030.00,0.0262
2029.00,0.0263
2028.00,0.0264
2027.00,0.0263
2026.00,0.0262
2025.00,0.0260
2024.00,0.0258
2023.00,0.0257
2022.00,0.0256
2021.00,0.0257
2020.00,0.0258
2019.00,0.0260
2018.00,0.0260
2017.00,0.0260
2016.00,0.0259
2015.00,0.0257
2014.00,0.0256
2013.00,0.0256
2012.00,0.0256
2011.00,0.0256
2010.00,0.0257
2009.00,0.0256
2008.00,0.0255
2007.00,0.0252
2006.00,0.0250
2005.00,0.0249
2004.00,0.0248
2003.00,0.0248
2002.00,0.0248
2001.00,0.0249
2000.00,0.0251
1999.00,0.0252
1998.00,0.0253
1997.00,0.0253
1996.00,0.0254
1995.00,0.0253
1994.00,0.0253
1993.00,0.0253
1992.00,0.0253
1991.00,0.0252
1990.00,0.0251
1989.00,0.0251
1988.00,0.0249
1987.00,0.0248
1986.00,0.0248
1985.00,0.0249
1984.00,0.0251
1983.00,0.0253
1982.00,0.0255
1981.00,0.0256
1980.00,0.0257
1979.00,0.0255
1978.00,0.0252
1977.00,0.0249
1976.00,0.0248
1975.00,0.0246
1974.00,0.0245
1973.00,0.0244
1972.00,0.0243
1971.00,0.0243
1970.00,0.0243
1969.00,0.0243
1968.00,0.0244
1967.00,0.0243
1966.00,0.0244
1965.00,0.0244
1964.00,0.0244
1963.00,0.0243
1962.00,0.0241
1961.00,0.0241
1960.00,0.0240
1959.00,0.0239
1958.00,0.0238
1957.00,0.0237
1956.00,0.0237
1955.00,0.0237
1954.00,0.0236
1953.00,0.0235
1952.00,0.0234
1951.00,0.0234
1950.00,0.0234
1949.00,0.0234
1948.00,0.0235
1947.00,0.0235
1946.00,0.0236
1945.00,0.0237
1944.00,0.0237
1943.00,0.0236
1942.00,0.0235
1941.00,0.0232
1940.00,0.0230
1939.00,0.0229
1938.00,0.0229
1937.00,0.0229
1936.00,0.0231
1935.00,0.0231
1934.00,0.0230
1933.00,0.0229
1932.00,0.0227
1931.00,0.0226
1930.00,0.0225
1929.00,0.0225
1928.00,0.0225
1927.00,0.0225
1926.00,0.0225
1925.00,0.0226
1924.00,0.0226
1923.00,0.0225
1922.00,0.0225
1921.00,0.0226
1920.00,0.0225
1919.00,0.0224
1918.00,0.0221
1917.00,0.0218
1916.00,0.0217
1915.00,0.0218
1914.00,0.0218
1913.00,0.0219
1912.00,0.0219
1911.00,0.0218
1910.00,0.0218
1909.00,0.0217
1908.00,0.0216
1907.00,0.0215
1906.00,0.0215
1905.00,0.0214
1904.00,0.0214
1903.00,0.0213
1902.00,0.0213
1901.00,0.0213
1900.00,0.0214
1899.00,0.0214
1898.00,0.0213
1897.00,0.0213
1896.00,0.0212
1895.00,0.0210
1894.00,0.0209
1893.00,0.0209
1892.00,0.0210
1891.00,0.0211
1890.00,0.0210
1889.00,0.0208
1888.00,0.0207
1887.00,0.0206
1886.00,0.0206
1885.00,0.0206
1884.00,0.0205
1883.00,0.0205
1882.00,0.0204
1881.00,0.0204
1880.00,0.0203
1879.00,0.0203
1878.00,0.0202
1877.00,0.0202
1876.00,0.0202
1875.00,0.0201
1874.00,0.0201
1873.00,0.0202
1872.00,0.0203
1871.00,0.0204
1870.00,0.0203
1869.00,0.0202
1868.00,0.0199
1867.00,0.0198
1866.00,0.0197
1865.00,0.0197
1864.00,0.0197
1863.00,0.0196
1862.00,0.0195
1861.00,0.0194
1860.00,0.0193
1859.00,0.0192
1858.00,0.0192
1857.00,0.0191
1856.00,0.0191
1855.00,0.0190
1854.00,0.0190
1853.00,0.0189
1852.00,0.0189
1851.00,0.0190
1850.00,0.0190
1849.00,0.0190
1848.00,0.0191
1847.00,0.0192
1846.00,0.0191
1845.00,0.0188
1844.00,0.0184
1843.00,0.0181
1842.00,0.0181
1841.00,0.0183
1840.00,0.0184
1839.00,0.0184
1838.00,0.0183
1837.00,0.0183
1836.00,0.0182
1835.00,0.0181
1834.00,0.0181
1833.00,0.0183
1832.00,0.0185
1831.00,0.0184
1830.00,0.0181
1829.00,0.0178
1828.00,0.0178
1827.00,0.0178
1826.00,0.0178
1825.00,0.0177
1824.00,0.0175
1823.00,0.0174
1822.00,0.0174
1821.00,0.0174
1820.00,0.0174
1819.00,0.0173
1818.00,0.0172
1817.00,0.0171
1816.00,0.0171
1815.00,0.0171
1814.00,0.0172
1813.00,0.0172
1812.00,0.0173
1811.00,0.0172
1810.00,0.0171
1809.00,0.0170
1808.00,0.0171
1807.00,0.0171
1806.00,0.0171
1805.00,0.0172
1804.00,0.0173
1803.00,0.0174
1802.00,0.0175
1801.00,0.0175
1800.00,0.0175
1799.00,0.0175
1798.00,0.0175
1797.00,0.0177
1796.00,0.0179
1795.00,0.0181
1794.00,0.0182
1793.00,0.0182
1792.00,0.0180
1791.00,0.0179
1790.00,0.0180
1789.00,0.0182
1788.00,0.0185
1787.00,0.0187
1786.00,0.0189
1785.00,0.0190
1784.00,0.0193
1783.00,0.0195
1782.00,0.0198
1781.00,0.0200
1780.00,0.0201
1779.00,0.0203
1778.00,0.0206
1777.00,0.0209
1776.00,0.0213
1775.00,0.0217
1774.00,0.0220
1773.00,0.0220
1772.00,0.0220
1771.00,0.0221
1770.00,0.0223
1769.00,0.0225
1768.00,0.0227
1767.00,0.0228
1766.00,0.0230
1765.00,0.0234
1764.00,0.0237
1763.00,0.0238
1762.00,0.0238
1761.00,0.0239
1760.00,0.0242
1759.00,0.0245
1758.00,0.0248
1757.00,0.0249
1756.00,0.0250
1755.00,0.0253
1754.00,0.0256
1753.00,0.0261
1752.00,0.0265
1751.00,0.0268
1750.00,0.0273
1749.00,0.0277
1748.00,0.0280
1747.00,0.0283
1746.00,0.0286
1745.00,0.0290
1744.00,0.0294
1743.00,0.0298
1742.00,0.0302
1741.00,0.0305
1740.00,0.0308
1739.00,0.0310
1738.00,0.0314
1737.00,0.0319
1736.00,0.0325
1735.00,0.0328
1734.00,0.0331
1733.00,0.0335
1732.00,0.0341
1731.00,0.0347
1730.00,0.0352
1729.00,0.0356
1728.00,0.0359
1727.00,0.0363
1726.00,0.0367
1725.00,0.0372
1724.00,0.0377
1723.00,0.0380
1722.00,0.0384
1721.00,0.0388
1720.00,0.0392
1719.00,0.0394
1718.00,0.0395
1717.00,0.0398
1716.00,0.0401
1715.00,0.0403
1714.00,0.0405
1713.00,0.0408
1712.00,0.0410
1711.00,0.0412
1710.00,0.0414
1709.00,0.0417
1708.00,0.0420
1707.00,0.0422
1706.00,0.0424
1705.00,0.0425
1704.00,0.0427
1703.00,0.0429
1702.00,0.0430
1701.00,0.0428
1700.00,0.0427
1699.00,0.0429
1698.00,0.0432
1697.00,0.0435
1696.00,0.0434
1695.00,0.0432
1694.00,0.0432
1693.00,0.0435
1692.00,0.0438
1691.00,0.0440
1690.00,0.0442
1689.00,0.0445
1688.00,0.0448
1687.00,0.0451
1686.00,0.0452
1685.00,0.0453
1684.00,0.0455
1683.00,0.0457
1682.00,0.0460
1681.00,0.0464
1680.00,0.0467
1679.00,0.0470
1678.00,0.0472
1677.00,0.0475
1676.00,0.0477
1675.00,0.0480
1674.00,0.0484
1673.00,0.0488
1672.00,0.0493
1671.00,0.0498
1670.00,0.0502
1669.00,0.0505
1668.00,0.0508
1667.00,0.0511
1666.00,0.0514
1665.00,0.0517
1664.00,0.0521
1663.00,0.0526
1662.00,0.0530
1661.00,0.0534
1660.00,0.0538
1659.00,0.0541
1658.00,0.0544
1657.00,0.0548
1656.00,0.0551
1655.00,0.0554
1654.00,0.0558
1653.00,0.0565
1652.00,0.0568
1651.00,0.0571
1650.00,0.0576
1649.00,0.0582
1648.00,0.0587
1647.00,0.0593
1646.00,0.0596
1645.00,0.0598
1644.00,0.0600
1643.00,0.0603
1642.00,0.0606
1641.00,0.0609
1640.00,0.0612
1639.00,0.0616
1638.00,0.0620
1637.00,0.0624
1636.00,0.0631
1635.00,0.0636
1634.00,0.0639
1633.00,0.0642
1632.00,0.0646
1631.00,0.0649
1630.00,0.0652
1629.00,0.0657
1628.00,0.0662
1627.00,0.0666
1626.00,0.0670
1625.00,0.0674
1624.00,0.0680
1623.00,0.0685
1622.00,0.0689
1621.00,0.0690
1620.00,0.0692
1619.00,0.0693
1618.00,0.0696
1617.00,0.0701
1616.00,0.0706
1615.00,0.0710
1614.00,0.0712
1613.00,0.0715
1612.00,0.0717
1611.00,0.0721
1610.00,0.0725
1609.00,0.0729
1608.00,0.0733
1607.00,0.0736
1606.00,0.0738
1605.00,0.0740
1604.00,0.0743
1603.00,0.0746
1602.00,0.0750
1601.00,0.0753
1600.00,0.0755
1599.00,0.0757
1598.00,0.0759
1597.00,0.0762
1596.00,0.0765
1595.00,0.0769
1594.00,0.0771
1593.00,0.0774
1592.00,0.0775
1591.00,0.0777
1590.00,0.0779
1589.00,0.0781
1588.00,0.0784
1587.00,0.0786
1586.00,0.0787
1585.00,0.0789
1584.00,0.0790
1583.00,0.0792
1582.00,0.0794
1581.00,0.0795
1580.00,0.0795
1579.00,0.0795
1578.00,0.0795
1577.00,0.0797
1576.00,0.0800
1575.00,0.0802
1574.00,0.0801
1573.00,0.0800
1572.00,0.0798
1571.00,0.0798
1570.00,0.0799
1569.00,0.0801
1568.00,0.0800
1567.00,0.0799
1566.00,0.0798
1565.00,0.0795
1564.00,0.0793
1563.00,0.0791
1562.00,0.0787
1561.00,0.0781
1560.00,0.0778
1559.00,0.0785
1558.00,0.0788
1557.00,0.0782
1556.00,0.0778
1555.00,0.0774
1554.00,0.0770
1553.00,0.0766
1552.00,0.0763
1551.00,0.0761
1550.00,0.0758
1549.00,0.0753
1548.00,0.0749
1547.00,0.0744
1546.00,0.0740
1545.00,0.0736
1544.00,0.0734
1543.00,0.0730
1542.00,0.0724
1541.00,0.0718
1540.00,0.0713
1539.00,0.0707
1538.00,0.0701
1537.00,0.0697
1536.00,0.0694
1535.00,0.0691
1534.00,0.0686
1533.00,0.0682
1532.00,0.0677
1531.00,0.0673
1530.00,0.0669
1529.00,0.0665
1528.00,0.0661
1527.00,0.0657
1526.00,0.0653
1525.00,0.0649
1524.00,0.0646
1523.00,0.0642
1522.00,0.0637
1521.00,0.0632
1520.00,0.0628
1519.00,0.0625
1518.00,0.0623
1517.00,0.0619
1516.00,0.0615
1515.00,0.0610
1514.00,0.0605
1513.00,0.0601
1512.00,0.0598
1511.00,0.0597
1510.00,0.0596
1509.00,0.0595
1508.00,0.0594
1507.00,0.0590
1506.00,0.0581
1505.00,0.0572
1504.00,0.0569
1503.00,0.0568
1502.00,0.0566
1501.00,0.0563
1500.00,0.0561
1499.00,0.0558
1498.00,0.0555
1497.00,0.0552
1496.00,0.0550
1495.00,0.0548
1494.00,0.0548
1493.00,0.0549
1492.00,0.0550
1491.00,0.0551
1490.00,0.0551
1489.00,0.0551
1488.00,0.0550
1487.00,0.0548
1486.00,0.0545
1485.00,0.0544
1484.00,0.0543
1483.00,0.0543
1482.00,0.0543
1481.00,0.0543
1480.00,0.0543
1479.00,0.0543
1478.00,0.0544
1477.00,0.0545
1476.00,0.0548
1475.00,0.0550
1474.00,0.0552
1473.00,0.0554
1472.00,0.0555
1471.00,0.0555
1470.00,0.0555
1469.00,0.0556
1468.00,0.0558
1467.00,0.0559
1466.00,0.0561
1465.00,0.0562
1464.00,0.0564
1463.00,0.0565
1462.00,0.0566
1461.00,0.0567
1460.00,0.0569
1459.00,0.0571
1458.00,0.0574
1457.00,0.0576
1456.00,0.0578
1455.00,0.0579
1454.00,0.0581
1453.00,0.0582
1452.00,0.0584
1451.00,0.0586
1450.00,0.0589
1449.00,0.0592
1448.00,0.0595
1447.00,0.0597
1446.00,0.0598
1445.00,0.0599
1444.00,0.0600
1443.00,0.0602
1442.00,0.0603
1441.00,0.0605
1440.00,0.0607
1439.00,0.0608
1438.00,0.0610
1437.00,0.0613
1436.00,0.0618
1435.00,0.0621
1434.00,0.0623
1433.00,0.0625
1432.00,0.0627
1431.00,0.0630
1430.00,0.0633
1429.00,0.0635
1428.00,0.0636
1427.00,0.0638
1426.00,0.0639
1425.00,0.0642
1424.00,0.0645
1423.00,0.0646
1422.00,0.0647
1421.00,0.0647
1420.00,0.0649
1419.00,0.0653
1418.00,0.0657
1417.00,0.0659
1416.00,0.0661
1415.00,0.0662
1414.00,0.0663
1413.00,0.0665
1412.00,0.0667
1411.00,0.0669
1410.00,0.0670
1409.00,0.0671
1408.00,0.0673
1407.00,0.0675
1406.00,0.0677
1405.00,0.0681
1404.00,0.0684
1403.00,0.0686
1402.00,0.0687
1401.00,0.0689
1400.00,0.0692
1399.00,0.0696
1398.00,0.0698
1397.00,0.0701
1396.00,0.0703
1395.00,0.0705
1394.00,0.0707
1393.00,0.0708
1392.00,0.0710
1391.00,0.0712
1390.00,0.0713
1389.00,0.0715
1388.00,0.0719
1387.00,0.0723
1386.00,0.0725
1385.00,0.0727
1384.00,0.0729
1383.00,0.0731
1382.00,0.0732
1381.00,0.0734
1380.00,0.0736
1379.00,0.0737
1378.00,0.0738
1377.00,0.0739
1376.00,0.0741
1375.00,0.0744
1374.00,0.0746
1373.00,0.0747
1372.00,0.0747
1371.00,0.0746
1370.00,0.0745
1369.00,0.0745
1368.00,0.0745
1367.00,0.0744
1366.00,0.0743
1365.00,0.0743
1364.00,0.0743
1363.00,0.0744
1362.00,0.0744
1361.00,0.0743
1360.00,0.0741
1359.00,0.0740
1358.00,0.0738
1357.00,0.0737
1356.00,0.0735
1355.00,0.0734
1354.00,0.0732
1353.00,0.0731
1352.00,0.0729
1351.00,0.0727
1350.00,0.0726
1349.00,0.0725
1348.00,0.0723
1347.00,0.0722
1346.00,0.0720
1345.00,0.0719
1344.00,0.0717
1343.00,0.0715
1342.00,0.0714
1341.00,0.0714
1340.00,0.0714
1339.00,0.0714
1338.00,0.0712
1337.00,0.0709
1336.00,0.0707
1335.00,0.0704
1334.00,0.0702
1333.00,0.0700
1332.00,0.0699
1331.00,0.0698
1330.00,0.0696
1329.00,0.0695
1328.00,0.0694
1327.00,0.0692
1326.00,0.0691
1325.00,0.0689
1324.00,0.0688
1323.00,0.0687
1322.00,0.0687
1321.00,0.0687
1320.00,0.0687
1319.00,0.0687
1318.00,0.0686
1317.00,0.0686
1316.00,0.0685
1315.00,0.0684
1314.00,0.0684
1313.00,0.0683
1312.00,0.0683
1311.00,0.0682
1310.00,0.0681
1309.00,0.0680
1308.00,0.0679
1307.00,0.0679
1306.00,0.0678
1305.00,0.0678
1304.00,0.0677
1303.00,0.0677
1302.00,0.0677
1301.00,0.0677
1300.00,0.0677
1299.00,0.0677
1298.00,0.0677
1297.00,0.0678
1296.00,0.0678
1295.00,0.0678
1294.00,0.0678
1293.00,0.0679
1292.00,0.0679
1291.00,0.0680
1290.00,0.0681
1289.00,0.0682
1288.00,0.0683
1287.00,0.0683
1286.00,0.0683
1285.00,0.0683
1284.00,0.0683
1283.00,0.0684
1282.00,0.0685
1281.00,0.0687
1280.00,0.0687
1279.00,0.0688
1278.00,0.0689
1277.00,0.0689
1276.00,0.0690
1275.00,0.0690
1274.00,0.0691
1273.00,0.0692
1272.00,0.0693
1271.00,0.0694
1270.00,0.0694
1269.00,0.0695
1268.00,0.0695
1267.00,0.0696
1266.00,0.0697
1265.00,0.0698
1264.00,0.0699
1263.00,0.0700
1262.00,0.0701
1261.00,0.0702
1260.00,0.0703
1259.00,0.0705
1258.00,0.0706
1257.00,0.0707
1256.00,0.0709
1255.00,0.0710
1254.00,0.0710
1253.00,0.0711
1252.00,0.0711
1251.00,0.0712
1250.00,0.0713
1249.00,0.0714
1248.00,0.0716
1247.00,0.0717
1246.00,0.0718
1245.00,0.0719
1244.00,0.0719
1243.00,0.0719
1242.00,0.0720
1241.00,0.0721
1240.00,0.0722
1239.00,0.0722
1238.00,0.0722
1237.00,0.0722
1236.00,0.0722
1235.00,0.0722
1234.00,0.0722
1233.00,0.0723
1232.00,0.0723
1231.00,0.0723
1230.00,0.0723
1229.00,0.0723
1228.00,0.0723
1227.00,0.0722
1226.00,0.0722
1225.00,0.0721
1224.00,0.0721
1223.00,0.0720
1222.00,0.0720
1221.00,0.0720
1220.00,0.0719
1219.00,0.0718
1218.00,0.0718
1217.00,0.0717
1216.00,0.0717
1215.00,0.0717
1214.00,0.0717
1213.00,0.0717
1212.00,0.0717
1211.00,0.0717
1210.00,0.0716
1209.00,0.0716
1208.00,0.0716
1207.00,0.0716
1206.00,0.0716
1205.00,0.0716
1204.00,0.0717
1203.00,0.0717
1202.00,0.0717
1201.00,0.0717
1200.00,0.0717
1199.00,0.0717
1198.00,0.0716
1197.00,0.0717
1196.00,0.0717
1195.00,0.0717
1194.00,0.0717
1193.00,0.0717
1192.00,0.0717
1191.00,0.0718
1190.00,0.0718
1189.00,0.0718
1188.00,0.0718
1187.00,0.0719
1186.00,0.0720
1185.00,0.0721
1184.00,0.0722
1183.00,0.0723
1182.00,0.0723
1181.00,0.0724
1180.00,0.0725
1179.00,0.0726
1178.00,0.0728
1177.00,0.0729
1176.00,0.0730
1175.00,0.0731
1174.00,0.0732
1173.00,0.0733
1172.00,0.0735
1171.00,0.0736
1170.00,0.0737
1169.00,0.0739
1168.00,0.0741
1167.00,0.0743
1166.00,0.0744
1165.00,0.0745
1164.00,0.0746
1163.00,0.0747
1162.00,0.0748
1161.00,0.0747
1160.00,0.0746
1159.00,0.0745
1158.00,0.0744
1157.00,0.0745
1156.00,0.0746
1155.00,0.0746
1154.00,0.0746
1153.00,0.0746
1152.00,0.0746
1151.00,0.0747
1150.00,0.0747
1149.00,0.0748
1148.00,0.0749
1147.00,0.0751
1146.00,0.0752
1145.00,0.0754
1144.00,0.0755
1143.00,0.0757
1142.00,0.0758
1141.00,0.0759
1140.00,0.0761
1139.00,0.0764
1138.00,0.0765
1137.00,0.0767
1136.00,0.0769
1135.00,0.0771
1134.00,0.0774
1133.00,0.0778
1132.00,0.0781
1131.00,0.0784
1130.00,0.0788
1129.00,0.0792
1128.00,0.0798
1127.00,0.0803
1126.00,0.0809
1125.00,0.0814
1124.00,0.0821
1123.00,0.0828
1122.00,0.0835
1121.00,0.0843
1120.00,0.0851
1119.00,0.0859
1118.00,0.0867
1117.00,0.0875
1116.00,0.0882
1115.00,0.0887
1114.00,0.0890
1113.00,0.0892
1112.00,0.0895
1111.00,0.0898
1110.00,0.0903
1109.00,0.0908
1108.00,0.0914
1107.00,0.0920
1106.00,0.0925
1105.00,0.0930
1104.00,0.0935
1103.00,0.0940
1102.00,0.0944
1101.00,0.0949
1100.00,0.0953
1099.00,0.0957
1098.00,0.0961
1097.00,0.0965
1096.00,0.0968
1095.00,0.0971
1094.00,0.0973
1093.00,0.0976
1092.00,0.0979
1091.00,0.0982
1090.00,0.0984
1089.00,0.0986
1088.00,0.0989
1087.00,0.0991
1086.00,0.0993
1085.00,0.0994
1084.00,0.0995
1083.00,0.0995
1082.00,0.0996
1081.00,0.0998
1080.00,0.1001
1079.00,0.1003
1078.00,0.1005
1077.00,0.1007
1076.00,0.1009
1075.00,0.1012
1074.00,0.1013
1073.00,0.1015
1072.00,0.1016
1071.00,0.1017
1070.00,0.1020
1069.00,0.1023
1068.00,0.1026
1067.00,0.1029
1066.00,0.1031
1065.00,0.1035
1064.00,0.1039
1063.00,0.1042
1062.00,0.1045
1061.00,0.1047
1060.00,0.1051
1059.00,0.1054
1058.00,0.1057
1057.00,0.1060
1056.00,0.1063
1055.00,0.1066
1054.00,0.1070
1053.00,0.1073
1052.00,0.1079
1051.00,0.1084
1050.00,0.1089
1049.00,0.1093
1048.00,0.1097
1047.00,0.1101
1046.00,0.1104
1045.00,0.1107
1044.00,0.1112
1043.00,0.1118
1042.00,0.1124
1041.00,0.1132
1040.00,0.1140
1039.00,0.1148
1038.00,0.1156
1037.00,0.1163
1036.00,0.1170
1035.00,0.1175
1034.00,0.1178
1033.00,0.1180
1032.00,0.1180
1031.00,0.1179
1030.00,0.1174
1029.00,0.1168
1028.00,0.1160
1027.00,0.1152
1026.00,0.1143
1025.00,0.1134
1024.00,0.1126
1023.00,0.1120
1022.00,0.1114
1021.00,0.1110
1020.00,0.1107
1019.00,0.1105
1018.00,0.1103
1017.00,0.1102
1016.00,0.1103
1015.00,0.1105
1014.00,0.1106
1013.00,0.1108
1012.00,0.1111
1011.00,0.1113
1010.00,0.1115
1009.00,0.1117
1008.00,0.1118
1007.00,0.1118
1006.00,0.1117
1005.00,0.1116
1004.00,0.1112
1003.00,0.1107
1002.00,0.1101
1001.00,0.1094
1000.00,0.1086
999.00,0.1076
998.00,0.1065
997.00,0.1054
996.00,0.1043
995.00,0.1032
994.00,0.1020
993.00,0.1011
992.00,0.1002
991.00,0.0993
990.00,0.0984
989.00,0.0975
988.00,0.0966
987.00,0.0958
986.00,0.0950
985.00,0.0943
984.00,0.0936
983.00,0.0930
982.00,0.0923
981.00,0.0916
980.00,0.0910
979.00,0.0904
978.00,0.0897
977.00,0.0891
976.00,0.0886
975.00,0.0881
974.00,0.0876
973.00,0.0870
972.00,0.0866
971.00,0.0862
970.00,0.0858
969.00,0.0854
968.00,0.0851
967.00,0.0847
966.00,0.0844
965.00,0.0841
964.00,0.0838
963.00,0.0835
962.00,0.0831
961.00,0.0828
960.00,0.0826
959.00,0.0823
958.00,0.0821
957.00,0.0818
956.00,0.0816
955.00,0.0815
954.00,0.0814
953.00,0.0812
952.00,0.0811
951.00,0.0810
950.00,0.0810
949.00,0.0810
948.00,0.0811
947.00,0.0813
946.00,0.0814
945.00,0.0816
944.00,0.0818
943.00,0.0820
942.00,0.0821
941.00,0.0823
940.00,0.0825
939.00,0.0827
938.00,0.0828
937.00,0.0829
936.00,0.0830
935.00,0.0829
934.00,0.0828
933.00,0.0827
932.00,0.0826
931.00,0.0825
930.00,0.0824
929.00,0.0823
928.00,0.0824
927.00,0.0824
926.00,0.0826
925.00,0.0827
924.00,0.0830
923.00,0.0833
922.00,0.0836
921.00,0.0840
920.00,0.0846
919.00,0.0852
918.00,0.0859
917.00,0.0866
916.00,0.0872
915.00,0.0876
914.00,0.0878
913.00,0.0878
912.00,0.0876
911.00,0.0874
910.00,0.0871
909.00,0.0867
908.00,0.0863
907.00,0.0859
906.00,0.0854
905.00,0.0850
904.00,0.0846
903.00,0.0842
902.00,0.0838
901.00,0.0834
900.00,0.0830
899.00,0.0827
898.00,0.0824
897.00,0.0821
896.00,0.0818
895.00,0.0815
894.00,0.0812
893.00,0.0809
892.00,0.0806
891.00,0.0802
890.00,0.0798
889.00,0.0794
888.00,0.0791
887.00,0.0789
886.00,0.0786
885.00,0.0784
884.00,0.0782
883.00,0.0780
882.00,0.0778
881.00,0.0777
880.00,0.0777
879.00,0.0778
878.00,0.0777
877.00,0.0775
876.00,0.0772
875.00,0.0769
874.00,0.0767
873.00,0.0766
872.00,0.0766
871.00,0.0765
870.00,0.0763
869.00,0.0762
868.00,0.0761
867.00,0.0760
866.00,0.0759
865.00,0.0758
864.00,0.0758
863.00,0.0758
862.00,0.0758
861.00,0.0758
860.00,0.0758
859.00,0.0759
858.00,0.0760
857.00,0.0762
856.00,0.0763
855.00,0.0764
854.00,0.0764
853.00,0.0764
852.00,0.0765
851.00,0.0766
850.00,0.0767
849.00,0.0768
848.00,0.0770
847.00,0.0771
846.00,0.0773
845.00,0.0776
844.00,0.0779
843.00,0.0782
842.00,0.0784
841.00,0.0787
840.00,0.0791
839.00,0.0794
838.00,0.0797
837.00,0.0799
836.00,0.0801
835.00,0.0803
834.00,0.0804
833.00,0.0805
832.00,0.0808
831.00,0.0811
830.00,0.0815
829.00,0.0817
828.00,0.0819
827.00,0.0822
826.00,0.0824
825.00,0.0827
824.00,0.0830
823.00,0.0834
822.00,0.0837
821.00,0.0840
820.00,0.0842
819.00,0.0843
818.00,0.0844
817.00,0.0847
816.00,0.0851
815.00,0.0854
814.00,0.0856
813.00,0.0858
812.00,0.0860
811.00,0.0862
810.00,0.0864
809.00,0.0867
808.00,0.0872
807.00,0.0879
806.00,0.0887
805.00,0.0895
804.00,0.0902
803.00,0.0908
802.00,0.0913
801.00,0.0918
800.00,0.0923
799.00,0.0928
798.00,0.0932
797.00,0.0934
796.00,0.0935
795.00,0.0935
794.00,0.0933
793.00,0.0932
792.00,0.0932
791.00,0.0932
790.00,0.0933
789.00,0.0934
788.00,0.0935
787.00,0.0936
786.00,0.0937
785.00,0.0937
784.00,0.0939
783.00,0.0941
782.00,0.0944
781.00,0.0947
780.00,0.0951
779.00,0.0953
778.00,0.0954
777.00,0.0953
776.00,0.0953
775.00,0.0954
774.00,0.0955
773.00,0.0956
772.00,0.0956
771.00,0.0955
770.00,0.0954
769.00,0.0954
768.00,0.0957
767.00,0.0960
766.00,0.0963
765.00,0.0965
764.00,0.0965
763.00,0.0964
762.00,0.0963
761.00,0.0965
760.00,0.0969
759.00,0.0974
758.00,0.0979
757.00,0.0983
756.00,0.0985
755.00,0.0985
754.00,0.0985
753.00,0.0984
752.00,0.0984
751.00,0.0985
750.00,0.0986
749.00,0.0989
748.00,0.0992
747.00,0.0994
746.00,0.0995
745.00,0.0994
744.00,0.0992
743.00,0.0991
742.00,0.0990
741.00,0.0990
740.00,0.0991
739.00,0.0991
738.00,0.0990
737.00,0.0991
736.00,0.0993
735.00,0.0995
734.00,0.0995
733.00,0.0995
732.00,0.0996
731.00,0.0998
730.00,0.1000
729.00,0.1002
728.00,0.1004
727.00,0.1006
726.00,0.1008
725.00,0.1008
724.00,0.1008
723.00,0.1009
722.00,0.1011
721.00,0.1013
720.00,0.1016
719.00,0.1017
718.00,0.1018
717.00,0.1019
716.00,0.1022
715.00,0.1025
714.00,0.1028
713.00,0.1032
712.00,0.1035
711.00,0.1038
710.00,0.1041
709.00,0.1045
708.00,0.1053
707.00,0.1061
706.00,0.1070
705.00,0.1078
704.00,0.1084
703.00,0.1088
702.00,0.1093
701.00,0.1100
700.00,0.1108
699.00,0.1116
698.00,0.1121
697.00,0.1126
696.00,0.1130
695.00,0.1134
694.00,0.1138
693.00,0.1141
692.00,0.1143
691.00,0.1143
690.00,0.1142
689.00,0.1141
688.00,0.1142
687.00,0.1144
686.00,0.1148
685.00,0.1155
684.00,0.1161
683.00,0.1162
682.00,0.1160
681.00,0.1156
680.00,0.1153
679.00,0.1153
678.00,0.1154
677.00,0.1157
676.00,0.1160
675.00,0.1163
674.00,0.1166
673.00,0.1169
672.00,0.1172
671.00,0.1174
670.00,0.1178
669.00,0.1189
668.00,0.1204
667.00,0.1205
666.00,0.1193
665.00,0.1185
664.00,0.1184
663.00,0.1186
662.00,0.1189
661.00,0.1191
660.00,0.1195
659.00,0.1198
658.00,0.1198
657.00,0.1197
656.00,0.1198
655.00,0.1202
654.00,0.1208
653.00,0.1216
652.00,0.1222
651.00,0.1223
650.00,0.1220
