Created as New Dataset,Monday, April 03 2023
cm-1,A
4000.00,0.0128
3999.00,0.0128
3998.00,0.0128
3997.00,0.0127
3996.00,0.0127
3995.00,0.0127
3994.00,0.0127
3993.00,0.0127
3992.00,0.0128
3991.00,0.0128
3990.00,0.0128
3989.00,0.0127
3988.00,0.0127
3987.00,0.0127
3986.00,0.0127
3985.00,0.0127
3984.00,0.0126
3983.00,0.0126
3982.00,0.0126
3981.00,0.0126
3980.00,0.0126
3979.00,0.0127
3978.00,0.0127
3977.00,0.0127
3976.00,0.0126
3975.00,0.0126
3974.00,0.0126
3973.00,0.0126
3972.00,0.0126
3971.00,0.0126
3970.00,0.0126
3969.00,0.0126
3968.00,0.0126
3967.00,0.0125
3966.00,0.0125
3965.00,0.0126
3964.00,0.0126
3963.00,0.0126
3962.00,0.0126
3961.00,0.0126
3960.00,0.0126
3959.00,0.0126
3958.00,0.0126
3957.00,0.0126
3956.00,0.0125
3955.00,0.0125
3954.00,0.0124
3953.00,0.0124
3952.00,0.0124
3951.00,0.0125
3950.00,0.0125
3949.00,0.0126
3948.00,0.0126
3947.00,0.0126
3946.00,0.0126
3945.00,0.0126
3944.00,0.0125
3943.00,0.0125
3942.00,0.0124
3941.00,0.0124
3940.00,0.0124
3939.00,0.0124
3938.00,0.0124
3937.00,0.0125
3936.00,0.0125
3935.00,0.0126
3934.00,0.0126
3933.00,0.0126
3932.00,0.0126
3931.00,0.0126
3930.00,0.0125
3929.00,0.0124
3928.00,0.0124
3927.00,0.0123
3926.00,0.0123
3925.00,0.0123
3924.00,0.0123
3923.00,0.0124
3922.00,0.0125
3921.00,0.0125
3920.00,0.0125
3919.00,0.0126
3918.00,0.0126
3917.00,0.0125
3916.00,0.0125
3915.00,0.0124
3914.00,0.0123
3913.00,0.0123
3912.00,0.0123
3911.00,0.0123
3910.00,0.0123
3909.00,0.0123
3908.00,0.0124
3907.00,0.0124
3906.00,0.0125
3905.00,0.0126
3904.00,0.0127
3903.00,0.0128
3902.00,0.0128
3901.00,0.0127
3900.00,0.0126
3899.00,0.0125
3898.00,0.0124
3897.00,0.0124
3896.00,0.0124
3895.00,0.0124
3894.00,0.0124
3893.00,0.0123
3892.00,0.0123
3891.00,0.0123
3890.00,0.0124
3889.00,0.0124
3888.00,0.0125
3887.00,0.0126
3886.00,0.0125
3885.00,0.0125
3884.00,0.0124
3883.00,0.0124
3882.00,0.0123
3881.00,0.0122
3880.00,0.0122
3879.00,0.0122
3878.00,0.0122
3877.00,0.0123
3876.00,0.0122
3875.00,0.0122
3874.00,0.0122
3873.00,0.0122
3872.00,0.0123
3871.00,0.0123
3870.00,0.0123
3869.00,0.0122
3868.00,0.0123
3867.00,0.0124
3866.00,0.0125
3865.00,0.0124
3864.00,0.0123
3863.00,0.0123
3862.00,0.0123
3861.00,0.0124
3860.00,0.0124
3859.00,0.0123
3858.00,0.0122
3857.00,0.0121
3856.00,0.0121
3855.00,0.0123
3854.00,0.0123
3853.00,0.0122
3852.00,0.0121
3851.00,0.0121
3850.00,0.0122
3849.00,0.0123
3848.00,0.0123
3847.00,0.0123
3846.00,0.0122
3845.00,0.0122
3844.00,0.0122
3843.00,0.0122
3842.00,0.0122
3841.00,0.0122
3840.00,0.0122
3839.00,0.0122
3838.00,0.0121
3837.00,0.0121
3836.00,0.0121
3835.00,0.0121
3834.00,0.0122
3833.00,0.0122
3832.00,0.0122
3831.00,0.0123
3830.00,0.0123
3829.00,0.0123
3828.00,0.0122
3827.00,0.0121
3826.00,0.0121
3825.00,0.0121
3824.00,0.0122
3823.00,0.0123
3822.00,0.0123
3821.00,0.0122
3820.00,0.0121
3819.00,0.0122
3818.00,0.0122
3817.00,0.0121
3816.00,0.0119
3815.00,0.0118
3814.00,0.0118
3813.00,0.0119
3812.00,0.0120
3811.00,0.0119
3810.00,0.0119
3809.00,0.0119
3808.00,0.0120
3807.00,0.0121
3806.00,0.0121
3805.00,0.0121
3804.00,0.0121
3803.00,0.0122
3802.00,0.0121
3801.00,0.0120
3800.00,0.0120
3799.00,0.0120
3798.00,0.0121
3797.00,0.0120
3796.00,0.0120
3795.00,0.0120
3794.00,0.0120
3793.00,0.0119
3792.00,0.0119
3791.00,0.0118
3790.00,0.0118
3789.00,0.0118
3788.00,0.0118
3787.00,0.0118
3786.00,0.0118
3785.00,0.0118
3784.00,0.0119
3783.00,0.0119
3782.00,0.0119
3781.00,0.0119
3780.00,0.0118
3779.00,0.0118
3778.00,0.0118
3777.00,0.0118
3776.00,0.0119
3775.00,0.0119
3774.00,0.0119
3773.00,0.0119
3772.00,0.0120
3771.00,0.0121
3770.00,0.0121
3769.00,0.0121
3768.00,0.0120
3767.00,0.0120
3766.00,0.0120
3765.00,0.0120
3764.00,0.0120
3763.00,0.0121
3762.00,0.0121
3761.00,0.0121
3760.00,0.0121
3759.00,0.0121
3758.00,0.0121
3757.00,0.0122
3756.00,0.0122
3755.00,0.0122
3754.00,0.0122
3753.00,0.0123
3752.00,0.0124
3751.00,0.0125
3750.00,0.0126
3749.00,0.0125
3748.00,0.0123
3747.00,0.0121
3746.00,0.0121
3745.00,0.0120
3744.00,0.0120
3743.00,0.0121
3742.00,0.0122
3741.00,0.0124
3740.00,0.0124
3739.00,0.0124
3738.00,0.0124
3737.00,0.0124
3736.00,0.0124
3735.00,0.0123
3734.00,0.0123
3733.00,0.0123
3732.00,0.0123
3731.00,0.0122
3730.00,0.0122
3729.00,0.0122
3728.00,0.0123
3727.00,0.0123
3726.00,0.0122
3725.00,0.0121
3724.00,0.0120
3723.00,0.0120
3722.00,0.0119
3721.00,0.0118
3720.00,0.0118
3719.00,0.0118
3718.00,0.0118
3717.00,0.0119
3716.00,0.0119
3715.00,0.0120
3714.00,0.0120
3713.00,0.0120
3712.00,0.0120
3711.00,0.0119
3710.00,0.0119
3709.00,0.0120
3708.00,0.0120
3707.00,0.0120
3706.00,0.0119
3705.00,0.0118
3704.00,0.0117
3703.00,0.0116
3702.00,0.0116
3701.00,0.0116
3700.00,0.0117
3699.00,0.0117
3698.00,0.0118
3697.00,0.0119
3696.00,0.0119
3695.00,0.0119
3694.00,0.0119
3693.00,0.0119
3692.00,0.0118
3691.00,0.0117
3690.00,0.0116
3689.00,0.0117
3688.00,0.0117
3687.00,0.0118
3686.00,0.0119
3685.00,0.0120
3684.00,0.0120
3683.00,0.0120
3682.00,0.0120
3681.00,0.0120
3680.00,0.0120
3679.00,0.0119
3678.00,0.0119
3677.00,0.0120
3676.00,0.0120
3675.00,0.0120
3674.00,0.0121
3673.00,0.0123
3672.00,0.0124
3671.00,0.0123
3670.00,0.0121
3669.00,0.0120
3668.00,0.0120
3667.00,0.0121
3666.00,0.0121
3665.00,0.0121
3664.00,0.0121
3663.00,0.0122
3662.00,0.0122
3661.00,0.0122
3660.00,0.0122
3659.00,0.0123
3658.00,0.0124
3657.00,0.0125
3656.00,0.0125
3655.00,0.0125
3654.00,0.0125
3653.00,0.0126
3652.00,0.0127
3651.00,0.0128
3650.00,0.0129
3649.00,0.0129
3648.00,0.0128
3647.00,0.0128
3646.00,0.0128
3645.00,0.0128
3644.00,0.0129
3643.00,0.0128
3642.00,0.0128
3641.00,0.0128
3640.00,0.0129
3639.00,0.0129
3638.00,0.0129
3637.00,0.0129
3636.00,0.0129
3635.00,0.0130
3634.00,0.0131
3633.00,0.0131
3632.00,0.0132
3631.00,0.0134
3630.00,0.0135
3629.00,0.0135
3628.00,0.0134
3627.00,0.0134
3626.00,0.0134
3625.00,0.0135
3624.00,0.0135
3623.00,0.0135
3622.00,0.0135
3621.00,0.0136
3620.00,0.0137
3619.00,0.0137
3618.00,0.0137
3617.00,0.0137
3616.00,0.0137
3615.00,0.0138
3614.00,0.0139
3613.00,0.0140
3612.00,0.0141
3611.00,0.0142
3610.00,0.0142
3609.00,0.0141
3608.00,0.0140
3607.00,0.0139
3606.00,0.0139
3605.00,0.0140
3604.00,0.0140
3603.00,0.0140
3602.00,0.0139
3601.00,0.0139
3600.00,0.0139
3599.00,0.0139
3598.00,0.0140
3597.00,0.0140
3596.00,0.0140
3595.00,0.0141
3594.00,0.0142
3593.00,0.0143
3592.00,0.0144
3591.00,0.0145
3590.00,0.0145
3589.00,0.0145
3588.00,0.0144
3587.00,0.0143
3586.00,0.0143
3585.00,0.0144
3584.00,0.0144
3583.00,0.0144
3582.00,0.0144
3581.00,0.0144
3580.00,0.0144
3579.00,0.0144
3578.00,0.0145
3577.00,0.0145
3576.00,0.0145
3575.00,0.0145
3574.00,0.0146
3573.00,0.0146
3572.00,0.0147
3571.00,0.0147
3570.00,0.0148
3569.00,0.0149
3568.00,0.0150
3567.00,0.0151
3566.00,0.0151
3565.00,0.0151
3564.00,0.0151
3563.00,0.0151
3562.00,0.0150
3561.00,0.0150
3560.00,0.0150
3559.00,0.0150
3558.00,0.0151
3557.00,0.0151
3556.00,0.0152
3555.00,0.0152
3554.00,0.0152
3553.00,0.0152
3552.00,0.0153
3551.00,0.0153
3550.00,0.0154
3549.00,0.0155
3548.00,0.0156
3547.00,0.0156
3546.00,0.0157
3545.00,0.0157
3544.00,0.0157
3543.00,0.0157
3542.00,0.0156
3541.00,0.0156
3540.00,0.0155
3539.00,0.0155
3538.00,0.0156
3537.00,0.0156
3536.00,0.0157
3535.00,0.0158
3534.00,0.0159
3533.00,0.0159
3532.00,0.0159
3531.00,0.0159
3530.00,0.0159
3529.00,0.0160
3528.00,0.0161
3527.00,0.0162
3526.00,0.0163
3525.00,0.0163
3524.00,0.0163
3523.00,0.0163
3522.00,0.0162
3521.00,0.0162
3520.00,0.0162
3519.00,0.0162
3518.00,0.0162
3517.00,0.0162
3516.00,0.0163
3515.00,0.0163
3514.00,0.0163
3513.00,0.0163
3512.00,0.0163
3511.00,0.0163
3510.00,0.0164
3509.00,0.0164
3508.00,0.0165
3507.00,0.0166
3506.00,0.0166
3505.00,0.0166
3504.00,0.0166
3503.00,0.0166
3502.00,0.0167
3501.00,0.0167
3500.00,0.0168
3499.00,0.0168
3498.00,0.0168
3497.00,0.0168
3496.00,0.0169
3495.00,0.0169
3494.00,0.0169
3493.00,0.0169
3492.00,0.0169
3491.00,0.0169
3490.00,0.0169
3489.00,0.0170
3488.00,0.0170
3487.00,0.0171
3486.00,0.0171
3485.00,0.0172
3484.00,0.0171
3483.00,0.0171
3482.00,0.0171
3481.00,0.0172
3480.00,0.0172
3479.00,0.0172
3478.00,0.0173
3477.00,0.0173
3476.00,0.0173
3475.00,0.0173
3474.00,0.0173
3473.00,0.0174
3472.00,0.0174
3471.00,0.0174
3470.00,0.0174
3469.00,0.0175
3468.00,0.0175
3467.00,0.0175
3466.00,0.0176
3465.00,0.0176
3464.00,0.0177
3463.00,0.0177
3462.00,0.0177
3461.00,0.0178
3460.00,0.0178
3459.00,0.0178
3458.00,0.0177
3457.00,0.0178
3456.00,0.0178
3455.00,0.0178
3454.00,0.0178
3453.00,0.0178
3452.00,0.0179
3451.00,0.0179
3450.00,0.0180
3449.00,0.0180
3448.00,0.0180
3447.00,0.0180
3446.00,0.0181
3445.00,0.0181
3444.00,0.0181
3443.00,0.0181
3442.00,0.0182
3441.00,0.0182
3440.00,0.0182
3439.00,0.0182
3438.00,0.0182
3437.00,0.0183
3436.00,0.0183
3435.00,0.0183
3434.00,0.0184
3433.00,0.0185
3432.00,0.0185
3431.00,0.0186
3430.00,0.0186
3429.00,0.0186
3428.00,0.0186
3427.00,0.0186
3426.00,0.0186
3425.00,0.0185
3424.00,0.0185
3423.00,0.0185
3422.00,0.0186
3421.00,0.0186
3420.00,0.0187
3419.00,0.0187
3418.00,0.0186
3417.00,0.0186
3416.00,0.0186
3415.00,0.0186
3414.00,0.0187
3413.00,0.0187
3412.00,0.0187
3411.00,0.0187
3410.00,0.0187
3409.00,0.0187
3408.00,0.0187
3407.00,0.0188
3406.00,0.0188
3405.00,0.0188
3404.00,0.0189
3403.00,0.0189
3402.00,0.0190
3401.00,0.0190
3400.00,0.0190
3399.00,0.0190
3398.00,0.0189
3397.00,0.0189
3396.00,0.0190
3395.00,0.0190
3394.00,0.0191
3393.00,0.0191
3392.00,0.0191
3391.00,0.0191
3390.00,0.0191
3389.00,0.0190
3388.00,0.0191
3387.00,0.0191
3386.00,0.0191
3385.00,0.0191
3384.00,0.0192
3383.00,0.0192
3382.00,0.0192
3381.00,0.0192
3380.00,0.0192
3379.00,0.0192
3378.00,0.0192
3377.00,0.0192
3376.00,0.0192
3375.00,0.0193
3374.00,0.0193
3373.00,0.0193
3372.00,0.0192
3371.00,0.0192
3370.00,0.0191
3369.00,0.0192
3368.00,0.0192
3367.00,0.0192
3366.00,0.0193
3365.00,0.0194
3364.00,0.0194
3363.00,0.0194
3362.00,0.0194
3361.00,0.0194
3360.00,0.0194
3359.00,0.0194
3358.00,0.0194
3357.00,0.0194
3356.00,0.0194
3355.00,0.0194
3354.00,0.0194
3353.00,0.0194
3352.00,0.0195
3351.00,0.0195
3350.00,0.0196
3349.00,0.0196
3348.00,0.0195
3347.00,0.0195
3346.00,0.0194
3345.00,0.0194
3344.00,0.0194
3343.00,0.0194
3342.00,0.0195
3341.00,0.0195
3340.00,0.0195
3339.00,0.0195
3338.00,0.0195
3337.00,0.0195
3336.00,0.0195
3335.00,0.0195
3334.00,0.0195
3333.00,0.0195
3332.00,0.0195
3331.00,0.0195
3330.00,0.0196
3329.00,0.0196
3328.00,0.0196
3327.00,0.0196
3326.00,0.0196
3325.00,0.0197
3324.00,0.0197
3323.00,0.0196
3322.00,0.0196
3321.00,0.0196
3320.00,0.0197
3319.00,0.0197
3318.00,0.0197
3317.00,0.0196
3316.00,0.0196
3315.00,0.0196
3314.00,0.0196
3313.00,0.0197
3312.00,0.0197
3311.00,0.0197
3310.00,0.0197
3309.00,0.0197
3308.00,0.0196
3307.00,0.0196
3306.00,0.0196
3305.00,0.0196
3304.00,0.0196
3303.00,0.0196
3302.00,0.0196
3301.00,0.0197
3300.00,0.0198
3299.00,0.0198
3298.00,0.0198
3297.00,0.0197
3296.00,0.0197
3295.00,0.0197
3294.00,0.0197
3293.00,0.0197
3292.00,0.0198
3291.00,0.0198
3290.00,0.0198
3289.00,0.0198
3288.00,0.0197
3287.00,0.0197
3286.00,0.0198
3285.00,0.0198
3284.00,0.0198
3283.00,0.0197
3282.00,0.0197
3281.00,0.0197
3280.00,0.0197
3279.00,0.0197
3278.00,0.0197
3277.00,0.0197
3276.00,0.0197
3275.00,0.0198
3274.00,0.0198
3273.00,0.0198
3272.00,0.0198
3271.00,0.0197
3270.00,0.0197
3269.00,0.0197
3268.00,0.0196
3267.00,0.0196
3266.00,0.0196
3265.00,0.0195
3264.00,0.0195
3263.00,0.0195
3262.00,0.0194
3261.00,0.0194
3260.00,0.0194
3259.00,0.0194
3258.00,0.0194
3257.00,0.0194
3256.00,0.0194
3255.00,0.0194
3254.00,0.0194
3253.00,0.0194
3252.00,0.0194
3251.00,0.0193
3250.00,0.0193
3249.00,0.0193
3248.00,0.0193
3247.00,0.0193
3246.00,0.0193
3245.00,0.0192
3244.00,0.0192
3243.00,0.0191
3242.00,0.0191
3241.00,0.0191
3240.00,0.0191
3239.00,0.0191
3238.00,0.0191
3237.00,0.0191
3236.00,0.0190
3235.00,0.0189
3234.00,0.0189
3233.00,0.0189
3232.00,0.0190
3231.00,0.0190
3230.00,0.0190
3229.00,0.0190
3228.00,0.0190
3227.00,0.0189
3226.00,0.0189
3225.00,0.0189
3224.00,0.0189
3223.00,0.0189
3222.00,0.0189
3221.00,0.0189
3220.00,0.0188
3219.00,0.0188
3218.00,0.0187
3217.00,0.0187
3216.00,0.0186
3215.00,0.0186
3214.00,0.0187
3213.00,0.0187
3212.00,0.0187
3211.00,0.0186
3210.00,0.0186
3209.00,0.0186
3208.00,0.0186
3207.00,0.0186
3206.00,0.0186
3205.00,0.0186
3204.00,0.0185
3203.00,0.0185
3202.00,0.0184
3201.00,0.0184
3200.00,0.0184
3199.00,0.0184
3198.00,0.0184
3197.00,0.0183
3196.00,0.0183
3195.00,0.0183
3194.00,0.0183
3193.00,0.0183
3192.00,0.0183
3191.00,0.0182
3190.00,0.0182
3189.00,0.0182
3188.00,0.0182
3187.00,0.0182
3186.00,0.0182
3185.00,0.0182
3184.00,0.0181
3183.00,0.0181
3182.00,0.0181
3181.00,0.0180
3180.00,0.0180
3179.00,0.0179
3178.00,0.0179
3177.00,0.0178
3176.00,0.0178
3175.00,0.0178
3174.00,0.0178
3173.00,0.0178
3172.00,0.0178
3171.00,0.0178
3170.00,0.0178
3169.00,0.0178
3168.00,0.0178
3167.00,0.0177
3166.00,0.0177
3165.00,0.0176
3164.00,0.0176
3163.00,0.0176
3162.00,0.0176
3161.00,0.0176
3160.00,0.0176
3159.00,0.0175
3158.00,0.0175
3157.00,0.0175
3156.00,0.0174
3155.00,0.0174
3154.00,0.0174
3153.00,0.0173
3152.00,0.0173
3151.00,0.0173
3150.00,0.0172
3149.00,0.0172
3148.00,0.0173
3147.00,0.0173
3146.00,0.0173
3145.00,0.0173
3144.00,0.0172
3143.00,0.0172
3142.00,0.0172
3141.00,0.0172
3140.00,0.0171
3139.00,0.0171
3138.00,0.0172
3137.00,0.0172
3136.00,0.0172
3135.00,0.0171
3134.00,0.0171
3133.00,0.0171
3132.00,0.0170
3131.00,0.0170
3130.00,0.0170
3129.00,0.0169
3128.00,0.0169
3127.00,0.0169
3126.00,0.0168
3125.00,0.0168
3124.00,0.0168
3123.00,0.0168
3122.00,0.0168
3121.00,0.0168
3120.00,0.0168
3119.00,0.0168
3118.00,0.0168
3117.00,0.0168
3116.00,0.0168
3115.00,0.0168
3114.00,0.0167
3113.00,0.0167
3112.00,0.0167
3111.00,0.0166
3110.00,0.0166
3109.00,0.0166
3108.00,0.0166
3107.00,0.0166
3106.00,0.0166
3105.00,0.0166
3104.00,0.0166
3103.00,0.0166
3102.00,0.0166
3101.00,0.0166
3100.00,0.0166
3099.00,0.0165
3098.00,0.0165
3097.00,0.0165
3096.00,0.0165
3095.00,0.0165
3094.00,0.0165
3093.00,0.0165
3092.00,0.0165
3091.00,0.0165
3090.00,0.0165
3089.00,0.0165
3088.00,0.0165
3087.00,0.0164
3086.00,0.0164
3085.00,0.0164
3084.00,0.0164
3083.00,0.0163
3082.00,0.0163
3081.00,0.0163
3080.00,0.0163
3079.00,0.0163
3078.00,0.0163
3077.00,0.0163
3076.00,0.0163
3075.00,0.0163
3074.00,0.0162
3073.00,0.0162
3072.00,0.0162
3071.00,0.0162
3070.00,0.0162
3069.00,0.0161
3068.00,0.0161
3067.00,0.0161
3066.00,0.0162
3065.00,0.0162
3064.00,0.0162
3063.00,0.0162
3062.00,0.0161
3061.00,0.0161
3060.00,0.0161
3059.00,0.0161
3058.00,0.0160
3057.00,0.0160
3056.00,0.0160
3055.00,0.0160
3054.00,0.0160
3053.00,0.0160
3052.00,0.0159
3051.00,0.0159
3050.00,0.0159
3049.00,0.0159
3048.00,0.0159
3047.00,0.0159
3046.00,0.0159
3045.00,0.0159
3044.00,0.0159
3043.00,0.0158
3042.00,0.0158
3041.00,0.0157
3040.00,0.0157
3039.00,0.0157
3038.00,0.0157
3037.00,0.0157
3036.00,0.0157
3035.00,0.0157
3034.00,0.0156
3033.00,0.0156
3032.00,0.0155
3031.00,0.0155
3030.00,0.0155
3029.00,0.0155
3028.00,0.0155
3027.00,0.0155
3026.00,0.0155
3025.00,0.0155
3024.00,0.0155
3023.00,0.0154
3022.00,0.0154
3021.00,0.0154
3020.00,0.0153
3019.00,0.0153
3018.00,0.0153
3017.00,0.0153
3016.00,0.0152
3015.00,0.0152
3014.00,0.0152
3013.00,0.0152
3012.00,0.0152
3011.00,0.0152
3010.00,0.0152
3009.00,0.0151
3008.00,0.0151
3007.00,0.0151
3006.00,0.0151
3005.00,0.0151
3004.00,0.0151
3003.00,0.0151
3002.00,0.0151
3001.00,0.0152
3000.00,0.0152
2999.00,0.0151
2998.00,0.0151
2997.00,0.0151
2996.00,0.0150
2995.00,0.0150
2994.00,0.0150
2993.00,0.0150
2992.00,0.0150
2991.00,0.0150
2990.00,0.0150
2989.00,0.0150
2988.00,0.0149
2987.00,0.0149
2986.00,0.0149
2985.00,0.0149
2984.00,0.0149
2983.00,0.0148
2982.00,0.0148
2981.00,0.0148
2980.00,0.0148
2979.00,0.0148
2978.00,0.0148
2977.00,0.0148
2976.00,0.0148
2975.00,0.0148
2974.00,0.0148
2973.00,0.0148
2972.00,0.0148
2971.00,0.0147
2970.00,0.0147
2969.00,0.0146
2968.00,0.0146
2967.00,0.0146
2966.00,0.0146
2965.00,0.0145
2964.00,0.0145
2963.00,0.0144
2962.00,0.0143
2961.00,0.0143
2960.00,0.0142
2959.00,0.0142
2958.00,0.0142
2957.00,0.0142
2956.00,0.0142
2955.00,0.0142
2954.00,0.0142
2953.00,0.0142
2952.00,0.0142
2951.00,0.0143
2950.00,0.0143
2949.00,0.0143
2948.00,0.0143
2947.00,0.0143
2946.00,0.0143
2945.00,0.0143
2944.00,0.0142
2943.00,0.0142
2942.00,0.0142
2941.00,0.0141
2940.00,0.0141
2939.00,0.0140
2938.00,0.0139
2937.00,0.0138
2936.00,0.0137
2935.00,0.0137
2934.00,0.0136
2933.00,0.0135
2932.00,0.0134
2931.00,0.0133
2930.00,0.0131
2929.00,0.0130
2928.00,0.0129
2927.00,0.0128
2926.00,0.0127
2925.00,0.0126
2924.00,0.0126
2923.00,0.0126
2922.00,0.0125
2921.00,0.0125
2920.00,0.0124
2919.00,0.0124
2918.00,0.0123
2917.00,0.0123
2916.00,0.0123
2915.00,0.0125
2914.00,0.0127
2913.00,0.0130
2912.00,0.0131
2911.00,0.0133
2910.00,0.0134
2909.00,0.0134
2908.00,0.0135
2907.00,0.0136
2906.00,0.0137
2905.00,0.0138
2904.00,0.0138
2903.00,0.0139
2902.00,0.0139
2901.00,0.0139
2900.00,0.0139
2899.00,0.0139
2898.00,0.0139
2897.00,0.0139
2896.00,0.0140
2895.00,0.0140
2894.00,0.0140
2893.00,0.0141
2892.00,0.0141
2891.00,0.0141
2890.00,0.0141
2889.00,0.0141
2888.00,0.0141
2887.00,0.0141
2886.00,0.0141
2885.00,0.0141
2884.00,0.0141
2883.00,0.0141
2882.00,0.0140
2881.00,0.0140
2880.00,0.0140
2879.00,0.0140
2878.00,0.0140
2877.00,0.0140
2876.00,0.0140
2875.00,0.0140
2874.00,0.0139
2873.00,0.0139
2872.00,0.0139
2871.00,0.0138
2870.00,0.0138
2869.00,0.0137
2868.00,0.0137
2867.00,0.0136
2866.00,0.0136
2865.00,0.0135
2864.00,0.0135
2863.00,0.0134
2862.00,0.0133
2861.00,0.0133
2860.00,0.0132
2859.00,0.0131
2858.00,0.0130
2857.00,0.0129
2856.00,0.0128
2855.00,0.0128
2854.00,0.0127
2853.00,0.0127
2852.00,0.0126
2851.00,0.0126
2850.00,0.0126
2849.00,0.0127
2848.00,0.0127
2847.00,0.0128
2846.00,0.0129
2845.00,0.0130
2844.00,0.0131
2843.00,0.0132
2842.00,0.0133
2841.00,0.0133
2840.00,0.0134
2839.00,0.0134
2838.00,0.0134
2837.00,0.0134
2836.00,0.0134
2835.00,0.0133
2834.00,0.0133
2833.00,0.0133
2832.00,0.0134
2831.00,0.0134
2830.00,0.0134
2829.00,0.0134
2828.00,0.0134
2827.00,0.0134
2826.00,0.0134
2825.00,0.0134
2824.00,0.0134
2823.00,0.0134
2822.00,0.0134
2821.00,0.0134
2820.00,0.0134
2819.00,0.0133
2818.00,0.0133
2817.00,0.0133
2816.00,0.0134
2815.00,0.0134
2814.00,0.0134
2813.00,0.0133
2812.00,0.0133
2811.00,0.0133
2810.00,0.0133
2809.00,0.0132
2808.00,0.0132
2807.00,0.0132
2806.00,0.0131
2805.00,0.0131
2804.00,0.0131
2803.00,0.0131
2802.00,0.0131
2801.00,0.0131
2800.00,0.0131
2799.00,0.0131
2798.00,0.0131
2797.00,0.0131
2796.00,0.0131
2795.00,0.0131
2794.00,0.0131
2793.00,0.0130
2792.00,0.0130
2791.00,0.0130
2790.00,0.0130
2789.00,0.0130
2788.00,0.0130
2787.00,0.0130
2786.00,0.0130
2785.00,0.0130
2784.00,0.0130
2783.00,0.0130
2782.00,0.0130
2781.00,0.0129
2780.00,0.0129
2779.00,0.0129
2778.00,0.0128
2777.00,0.0128
2776.00,0.0128
2775.00,0.0128
2774.00,0.0128
2773.00,0.0128
2772.00,0.0128
2771.00,0.0128
2770.00,0.0128
2769.00,0.0128
2768.00,0.0128
2767.00,0.0128
2766.00,0.0128
2765.00,0.0127
2764.00,0.0127
2763.00,0.0127
2762.00,0.0127
2761.00,0.0127
2760.00,0.0127
2759.00,0.0127
2758.00,0.0126
2757.00,0.0126
2756.00,0.0126
2755.00,0.0126
2754.00,0.0126
2753.00,0.0126
2752.00,0.0126
2751.00,0.0126
2750.00,0.0126
2749.00,0.0126
2748.00,0.0126
2747.00,0.0126
2746.00,0.0126
2745.00,0.0125
2744.00,0.0125
2743.00,0.0125
2742.00,0.0125
2741.00,0.0125
2740.00,0.0125
2739.00,0.0125
2738.00,0.0125
2737.00,0.0125
2736.00,0.0124
2735.00,0.0124
2734.00,0.0124
2733.00,0.0124
2732.00,0.0124
2731.00,0.0124
2730.00,0.0124
2729.00,0.0124
2728.00,0.0124
2727.00,0.0123
2726.00,0.0124
2725.00,0.0124
2724.00,0.0124
2723.00,0.0124
2722.00,0.0123
2721.00,0.0123
2720.00,0.0123
2719.00,0.0123
2718.00,0.0123
2717.00,0.0123
2716.00,0.0122
2715.00,0.0122
2714.00,0.0122
2713.00,0.0122
2712.00,0.0122
2711.00,0.0122
2710.00,0.0122
2709.00,0.0122
2708.00,0.0122
2707.00,0.0122
2706.00,0.0122
2705.00,0.0122
2704.00,0.0122
2703.00,0.0121
2702.00,0.0121
2701.00,0.0121
2700.00,0.0121
2699.00,0.0121
2698.00,0.0121
2697.00,0.0121
2696.00,0.0121
2695.00,0.0121
2694.00,0.0121
2693.00,0.0121
2692.00,0.0121
2691.00,0.0120
2690.00,0.0120
2689.00,0.0120
2688.00,0.0120
2687.00,0.0120
2686.00,0.0120
2685.00,0.0120
2684.00,0.0120
2683.00,0.0119
2682.00,0.0119
2681.00,0.0119
2680.00,0.0119
2679.00,0.0119
2678.00,0.0120
2677.00,0.0120
2676.00,0.0119
2675.00,0.0119
2674.00,0.0119
2673.00,0.0119
2672.00,0.0119
2671.00,0.0119
2670.00,0.0119
2669.00,0.0119
2668.00,0.0119
2667.00,0.0119
2666.00,0.0119
2665.00,0.0119
2664.00,0.0120
2663.00,0.0120
2662.00,0.0120
2661.00,0.0120
2660.00,0.0119
2659.00,0.0119
2658.00,0.0119
2657.00,0.0119
2656.00,0.0119
2655.00,0.0119
2654.00,0.0120
2653.00,0.0120
2652.00,0.0120
2651.00,0.0120
2650.00,0.0119
2649.00,0.0119
2648.00,0.0119
2647.00,0.0119
2646.00,0.0119
2645.00,0.0119
2644.00,0.0119
2643.00,0.0119
2642.00,0.0119
2641.00,0.0119
2640.00,0.0119
2639.00,0.0119
2638.00,0.0118
2637.00,0.0118
2636.00,0.0118
2635.00,0.0118
2634.00,0.0118
2633.00,0.0118
2632.00,0.0118
2631.00,0.0118
2630.00,0.0118
2629.00,0.0119
2628.00,0.0119
2627.00,0.0119
2626.00,0.0118
2625.00,0.0118
2624.00,0.0118
2623.00,0.0118
2622.00,0.0118
2621.00,0.0118
2620.00,0.0118
2619.00,0.0117
2618.00,0.0117
2617.00,0.0117
2616.00,0.0117
2615.00,0.0117
2614.00,0.0117
2613.00,0.0118
2612.00,0.0118
2611.00,0.0118
2610.00,0.0117
2609.00,0.0117
2608.00,0.0117
2607.00,0.0118
2606.00,0.0118
2605.00,0.0118
2604.00,0.0118
2603.00,0.0118
2602.00,0.0118
2601.00,0.0117
2600.00,0.0117
2599.00,0.0116
2598.00,0.0117
2597.00,0.0117
2596.00,0.0116
2595.00,0.0116
2594.00,0.0116
2593.00,0.0116
2592.00,0.0117
2591.00,0.0117
2590.00,0.0117
2589.00,0.0116
2588.00,0.0116
2587.00,0.0116
2586.00,0.0116
2585.00,0.0115
2584.00,0.0115
2583.00,0.0115
2582.00,0.0116
2581.00,0.0116
2580.00,0.0116
2579.00,0.0116
2578.00,0.0116
2577.00,0.0116
2576.00,0.0116
2575.00,0.0116
2574.00,0.0115
2573.00,0.0115
2572.00,0.0115
2571.00,0.0115
2570.00,0.0115
2569.00,0.0116
2568.00,0.0116
2567.00,0.0116
2566.00,0.0116
2565.00,0.0116
2564.00,0.0116
2563.00,0.0115
2562.00,0.0115
2561.00,0.0114
2560.00,0.0114
2559.00,0.0114
2558.00,0.0114
2557.00,0.0114
2556.00,0.0114
2555.00,0.0114
2554.00,0.0115
2553.00,0.0115
2552.00,0.0115
2551.00,0.0115
2550.00,0.0115
2549.00,0.0114
2548.00,0.0114
2547.00,0.0114
2546.00,0.0114
2545.00,0.0114
2544.00,0.0114
2543.00,0.0114
2542.00,0.0113
2541.00,0.0113
2540.00,0.0113
2539.00,0.0114
2538.00,0.0114
2537.00,0.0114
2536.00,0.0114
2535.00,0.0114
2534.00,0.0114
2533.00,0.0113
2532.00,0.0113
2531.00,0.0113
2530.00,0.0113
2529.00,0.0113
2528.00,0.0113
2527.00,0.0113
2526.00,0.0113
2525.00,0.0114
2524.00,0.0113
2523.00,0.0113
2522.00,0.0114
2521.00,0.0114
2520.00,0.0114
2519.00,0.0114
2518.00,0.0113
2517.00,0.0113
2516.00,0.0113
2515.00,0.0113
2514.00,0.0113
2513.00,0.0113
2512.00,0.0113
2511.00,0.0112
2510.00,0.0112
2509.00,0.0111
2508.00,0.0111
2507.00,0.0111
2506.00,0.0111
2505.00,0.0111
2504.00,0.0112
2503.00,0.0112
2502.00,0.0112
2501.00,0.0112
2500.00,0.0112
2499.00,0.0112
2498.00,0.0112
2497.00,0.0113
2496.00,0.0113
2495.00,0.0113
2494.00,0.0113
2493.00,0.0113
2492.00,0.0113
2491.00,0.0113
2490.00,0.0113
2489.00,0.0113
2488.00,0.0113
2487.00,0.0112
2486.00,0.0112
2485.00,0.0112
2484.00,0.0112
2483.00,0.0112
2482.00,0.0112
2481.00,0.0112
2480.00,0.0112
2479.00,0.0112
2478.00,0.0112
2477.00,0.0112
2476.00,0.0112
2475.00,0.0112
2474.00,0.0111
2473.00,0.0111
2472.00,0.0111
2471.00,0.0110
2470.00,0.0110
2469.00,0.0111
2468.00,0.0111
2467.00,0.0111
2466.00,0.0111
2465.00,0.0111
2464.00,0.0111
2463.00,0.0111
2462.00,0.0111
2461.00,0.0111
2460.00,0.0111
2459.00,0.0111
2458.00,0.0111
2457.00,0.0111
2456.00,0.0111
2455.00,0.0111
2454.00,0.0111
2453.00,0.0111
2452.00,0.0112
2451.00,0.0112
2450.00,0.0111
2449.00,0.0111
2448.00,0.0111
2447.00,0.0111
2446.00,0.0111
2445.00,0.0111
2444.00,0.0111
2443.00,0.0110
2442.00,0.0110
2441.00,0.0110
2440.00,0.0111
2439.00,0.0110
2438.00,0.0110
2437.00,0.0110
2436.00,0.0109
2435.00,0.0109
2434.00,0.0110
2433.00,0.0110
2432.00,0.0110
2431.00,0.0110
2430.00,0.0109
2429.00,0.0109
2428.00,0.0109
2427.00,0.0109
2426.00,0.0109
2425.00,0.0110
2424.00,0.0110
2423.00,0.0110
2422.00,0.0109
2421.00,0.0109
2420.00,0.0109
2419.00,0.0109
2418.00,0.0109
2417.00,0.0109
2416.00,0.0109
2415.00,0.0109
2414.00,0.0109
2413.00,0.0109
2412.00,0.0109
2411.00,0.0109
2410.00,0.0108
2409.00,0.0108
2408.00,0.0108
2407.00,0.0107
2406.00,0.0107
2405.00,0.0108
2404.00,0.0108
2403.00,0.0108
2402.00,0.0108
2401.00,0.0108
2400.00,0.0108
2399.00,0.0107
2398.00,0.0107
2397.00,0.0107
2396.00,0.0107
2395.00,0.0107
2394.00,0.0107
2393.00,0.0107
2392.00,0.0107
2391.00,0.0107
2390.00,0.0106
2389.00,0.0106
2388.00,0.0107
2387.00,0.0107
2386.00,0.0107
2385.00,0.0107
2384.00,0.0107
2383.00,0.0106
2382.00,0.0105
2381.00,0.0104
2380.00,0.0102
2379.00,0.0101
2378.00,0.0100
2377.00,0.0100
2376.00,0.0100
2375.00,0.0100
2374.00,0.0099
2373.00,0.0099
2372.00,0.0099
2371.00,0.0100
2370.00,0.0102
2369.00,0.0103
2368.00,0.0103
2367.00,0.0102
2366.00,0.0101
2365.00,0.0100
2364.00,0.0099
2363.00,0.0100
2362.00,0.0102
2361.00,0.0103
2360.00,0.0104
2359.00,0.0103
2358.00,0.0102
2357.00,0.0100
2356.00,0.0100
2355.00,0.0100
2354.00,0.0100
2353.00,0.0101
2352.00,0.0101
2351.00,0.0101
2350.00,0.0101
2349.00,0.0101
2348.00,0.0101
2347.00,0.0101
2346.00,0.0101
2345.00,0.0101
2344.00,0.0102
2343.00,0.0102
2342.00,0.0102
2341.00,0.0101
2340.00,0.0101
2339.00,0.0101
2338.00,0.0101
2337.00,0.0101
2336.00,0.0101
2335.00,0.0101
2334.00,0.0101
2333.00,0.0101
2332.00,0.0101
2331.00,0.0101
2330.00,0.0101
2329.00,0.0102
2328.00,0.0104
2327.00,0.0105
2326.00,0.0106
2325.00,0.0106
2324.00,0.0105
2323.00,0.0103
2322.00,0.0102
2321.00,0.0102
2320.00,0.0103
2319.00,0.0103
2318.00,0.0104
2317.00,0.0104
2316.00,0.0104
2315.00,0.0104
2314.00,0.0103
2313.00,0.0103
2312.00,0.0103
2311.00,0.0103
2310.00,0.0104
2309.00,0.0104
2308.00,0.0104
2307.00,0.0104
2306.00,0.0104
2305.00,0.0103
2304.00,0.0103
2303.00,0.0103
2302.00,0.0103
2301.00,0.0103
2300.00,0.0103
2299.00,0.0103
2298.00,0.0103
2297.00,0.0104
2296.00,0.0104
2295.00,0.0105
2294.00,0.0105
2293.00,0.0106
2292.00,0.0106
2291.00,0.0106
2290.00,0.0107
2289.00,0.0107
2288.00,0.0108
2287.00,0.0108
2286.00,0.0108
2285.00,0.0107
2284.00,0.0106
2283.00,0.0106
2282.00,0.0106
2281.00,0.0106
2280.00,0.0106
2279.00,0.0105
2278.00,0.0104
2277.00,0.0104
2276.00,0.0104
2275.00,0.0104
2274.00,0.0104
2273.00,0.0104
2272.00,0.0104
2271.00,0.0104
2270.00,0.0103
2269.00,0.0103
2268.00,0.0103
2267.00,0.0103
2266.00,0.0104
2265.00,0.0104
2264.00,0.0104
2263.00,0.0104
2262.00,0.0104
2261.00,0.0104
2260.00,0.0105
2259.00,0.0106
2258.00,0.0106
2257.00,0.0104
2256.00,0.0102
2255.00,0.0101
2254.00,0.0101
2253.00,0.0102
2252.00,0.0102
2251.00,0.0103
2250.00,0.0103
2249.00,0.0102
2248.00,0.0102
2247.00,0.0101
2246.00,0.0101
2245.00,0.0101
2244.00,0.0102
2243.00,0.0103
2242.00,0.0104
2241.00,0.0104
2240.00,0.0104
2239.00,0.0104
2238.00,0.0104
2237.00,0.0103
2236.00,0.0103
2235.00,0.0104
2234.00,0.0105
2233.00,0.0106
2232.00,0.0106
2231.00,0.0105
2230.00,0.0105
2229.00,0.0105
2228.00,0.0104
2227.00,0.0104
2226.00,0.0103
2225.00,0.0102
2224.00,0.0102
2223.00,0.0101
2222.00,0.0102
2221.00,0.0102
2220.00,0.0103
2219.00,0.0103
2218.00,0.0102
2217.00,0.0101
2216.00,0.0101
2215.00,0.0102
2214.00,0.0103
2213.00,0.0104
2212.00,0.0104
2211.00,0.0104
2210.00,0.0103
2209.00,0.0101
2208.00,0.0100
2207.00,0.0099
2206.00,0.0099
2205.00,0.0099
2204.00,0.0100
2203.00,0.0101
2202.00,0.0101
2201.00,0.0101
2200.00,0.0102
2199.00,0.0103
2198.00,0.0104
2197.00,0.0105
2196.00,0.0104
2195.00,0.0103
2194.00,0.0102
2193.00,0.0101
2192.00,0.0100
2191.00,0.0100
2190.00,0.0100
2189.00,0.0102
2188.00,0.0104
2187.00,0.0105
2186.00,0.0106
2185.00,0.0105
2184.00,0.0104
2183.00,0.0102
2182.00,0.0101
2181.00,0.0101
2180.00,0.0102
2179.00,0.0102
2178.00,0.0101
2177.00,0.0101
2176.00,0.0100
2175.00,0.0101
2174.00,0.0103
2173.00,0.0105
2172.00,0.0107
2171.00,0.0108
2170.00,0.0109
2169.00,0.0109
2168.00,0.0107
2167.00,0.0106
2166.00,0.0104
2165.00,0.0103
2164.00,0.0103
2163.00,0.0104
2162.00,0.0103
2161.00,0.0101
2160.00,0.0098
2159.00,0.0096
2158.00,0.0095
2157.00,0.0096
2156.00,0.0096
2155.00,0.0095
2154.00,0.0094
2153.00,0.0094
2152.00,0.0094
2151.00,0.0094
2150.00,0.0094
2149.00,0.0094
2148.00,0.0094
2147.00,0.0096
2146.00,0.0097
2145.00,0.0097
2144.00,0.0097
2143.00,0.0097
2142.00,0.0096
2141.00,0.0096
2140.00,0.0095
2139.00,0.0095
2138.00,0.0095
2137.00,0.0094
2136.00,0.0093
2135.00,0.0093
2134.00,0.0092
2133.00,0.0092
2132.00,0.0092
2131.00,0.0092
2130.00,0.0092
2129.00,0.0092
2128.00,0.0093
2127.00,0.0094
2126.00,0.0094
2125.00,0.0093
2124.00,0.0093
2123.00,0.0093
2122.00,0.0093
2121.00,0.0094
2120.00,0.0095
2119.00,0.0096
2118.00,0.0096
2117.00,0.0096
2116.00,0.0095
2115.00,0.0095
2114.00,0.0095
2113.00,0.0095
2112.00,0.0096
2111.00,0.0096
2110.00,0.0096
2109.00,0.0096
2108.00,0.0095
2107.00,0.0095
2106.00,0.0094
2105.00,0.0094
2104.00,0.0093
2103.00,0.0092
2102.00,0.0093
2101.00,0.0093
2100.00,0.0093
2099.00,0.0092
2098.00,0.0092
2097.00,0.0092
2096.00,0.0093
2095.00,0.0093
2094.00,0.0093
2093.00,0.0094
2092.00,0.0094
2091.00,0.0094
2090.00,0.0093
2089.00,0.0091
2088.00,0.0090
2087.00,0.0090
2086.00,0.0090
2085.00,0.0091
2084.00,0.0092
2083.00,0.0092
2082.00,0.0091
2081.00,0.0090
2080.00,0.0090
2079.00,0.0090
2078.00,0.0091
2077.00,0.0092
2076.00,0.0093
2075.00,0.0093
2074.00,0.0093
2073.00,0.0093
2072.00,0.0092
2071.00,0.0092
2070.00,0.0092
2069.00,0.0092
2068.00,0.0092
2067.00,0.0091
2066.00,0.0091
2065.00,0.0091
2064.00,0.0090
2063.00,0.0089
2062.00,0.0089
2061.00,0.0089
2060.00,0.0089
2059.00,0.0088
2058.00,0.0088
2057.00,0.0088
2056.00,0.0089
2055.00,0.0090
2054.00,0.0091
2053.00,0.0092
2052.00,0.0092
2051.00,0.0093
2050.00,0.0093
2049.00,0.0093
2048.00,0.0092
2047.00,0.0091
2046.00,0.0091
2045.00,0.0091
2044.00,0.0090
2043.00,0.0090
2042.00,0.0090
2041.00,0.0092
2040.00,0.0094
2039.00,0.0096
2038.00,0.0097
2037.00,0.0098
2036.00,0.0097
2035.00,0.0096
2034.00,0.0094
2033.00,0.0092
2032.00,0.0091
2031.00,0.0090
2030.00,0.0091
2029.00,0.0092
2028.00,0.0093
2027.00,0.0092
2026.00,0.0092
2025.00,0.0092
2024.00,0.0093
2023.00,0.0093
2022.00,0.0093
2021.00,0.0093
2020.00,0.0092
2019.00,0.0092
2018.00,0.0092
2017.00,0.0093
2016.00,0.0093
2015.00,0.0093
2014.00,0.0093
2013.00,0.0093
2012.00,0.0093
2011.00,0.0093
2010.00,0.0093
2009.00,0.0094
2008.00,0.0094
2007.00,0.0093
2006.00,0.0092
2005.00,0.0091
2004.00,0.0090
2003.00,0.0089
2002.00,0.0089
2001.00,0.0089
2000.00,0.0088
1999.00,0.0089
1998.00,0.0090
1997.00,0.0091
1996.00,0.0092
1995.00,0.0091
1994.00,0.0091
1993.00,0.0090
1992.00,0.0089
1991.00,0.0089
1990.00,0.0090
1989.00,0.0091
1988.00,0.0091
1987.00,0.0090
1986.00,0.0090
1985.00,0.0091
1984.00,0.0092
1983.00,0.0094
1982.00,0.0095
1981.00,0.0095
1980.00,0.0095
1979.00,0.0094
1978.00,0.0093
1977.00,0.0092
1976.00,0.0091
1975.00,0.0090
1974.00,0.0089
1973.00,0.0088
1972.00,0.0088
1971.00,0.0088
1970.00,0.0089
1969.00,0.0089
1968.00,0.0088
1967.00,0.0087
1966.00,0.0087
1965.00,0.0087
1964.00,0.0088
1963.00,0.0088
1962.00,0.0088
1961.00,0.0087
1960.00,0.0086
1959.00,0.0085
1958.00,0.0085
1957.00,0.0084
1956.00,0.0084
1955.00,0.0085
1954.00,0.0085
1953.00,0.0085
1952.00,0.0085
1951.00,0.0084
1950.00,0.0084
1949.00,0.0084
1948.00,0.0085
1947.00,0.0085
1946.00,0.0086
1945.00,0.0086
1944.00,0.0085
1943.00,0.0085
1942.00,0.0083
1941.00,0.0082
1940.00,0.0081
1939.00,0.0080
1938.00,0.0080
1937.00,0.0080
1936.00,0.0080
1935.00,0.0081
1934.00,0.0082
1933.00,0.0082
1932.00,0.0083
1931.00,0.0082
1930.00,0.0082
1929.00,0.0081
1928.00,0.0081
1927.00,0.0080
1926.00,0.0080
1925.00,0.0080
1924.00,0.0080
1923.00,0.0080
1922.00,0.0080
1921.00,0.0081
1920.00,0.0081
1919.00,0.0081
1918.00,0.0081
1917.00,0.0080
1916.00,0.0080
1915.00,0.0080
1914.00,0.0080
1913.00,0.0080
1912.00,0.0079
1911.00,0.0079
1910.00,0.0078
1909.00,0.0078
1908.00,0.0078
1907.00,0.0078
1906.00,0.0078
1905.00,0.0079
1904.00,0.0078
1903.00,0.0078
1902.00,0.0079
1901.00,0.0079
1900.00,0.0079
1899.00,0.0078
1898.00,0.0078
1897.00,0.0078
1896.00,0.0077
1895.00,0.0076
1894.00,0.0076
1893.00,0.0077
1892.00,0.0077
1891.00,0.0077
1890.00,0.0077
1889.00,0.0077
1888.00,0.0076
1887.00,0.0076
1886.00,0.0076
1885.00,0.0076
1884.00,0.0076
1883.00,0.0076
1882.00,0.0076
1881.00,0.0076
1880.00,0.0076
1879.00,0.0075
1878.00,0.0075
1877.00,0.0074
1876.00,0.0075
1875.00,0.0075
1874.00,0.0075
1873.00,0.0076
1872.00,0.0076
1871.00,0.0076
1870.00,0.0076
1869.00,0.0075
1868.00,0.0074
1867.00,0.0074
1866.00,0.0074
1865.00,0.0075
1864.00,0.0075
1863.00,0.0074
1862.00,0.0074
1861.00,0.0074
1860.00,0.0073
1859.00,0.0074
1858.00,0.0074
1857.00,0.0074
1856.00,0.0074
1855.00,0.0074
1854.00,0.0074
1853.00,0.0073
1852.00,0.0073
1851.00,0.0073
1850.00,0.0073
1849.00,0.0073
1848.00,0.0073
1847.00,0.0073
1846.00,0.0074
1845.00,0.0074
1844.00,0.0073
1843.00,0.0072
1842.00,0.0071
1841.00,0.0071
1840.00,0.0072
1839.00,0.0072
1838.00,0.0072
1837.00,0.0072
1836.00,0.0072
1835.00,0.0071
1834.00,0.0072
1833.00,0.0072
1832.00,0.0072
1831.00,0.0071
1830.00,0.0070
1829.00,0.0069
1828.00,0.0068
1827.00,0.0068
1826.00,0.0068
1825.00,0.0068
1824.00,0.0068
1823.00,0.0069
1822.00,0.0069
1821.00,0.0070
1820.00,0.0070
1819.00,0.0069
1818.00,0.0069
1817.00,0.0069
1816.00,0.0068
1815.00,0.0068
1814.00,0.0068
1813.00,0.0068
1812.00,0.0068
1811.00,0.0067
1810.00,0.0067
1809.00,0.0067
1808.00,0.0068
1807.00,0.0068
1806.00,0.0068
1805.00,0.0069
1804.00,0.0069
1803.00,0.0068
1802.00,0.0068
1801.00,0.0068
1800.00,0.0067
1799.00,0.0067
1798.00,0.0068
1797.00,0.0069
1796.00,0.0070
1795.00,0.0071
1794.00,0.0072
1793.00,0.0072
1792.00,0.0070
1791.00,0.0068
1790.00,0.0068
1789.00,0.0068
1788.00,0.0069
1787.00,0.0069
1786.00,0.0069
1785.00,0.0069
1784.00,0.0069
1783.00,0.0069
1782.00,0.0069
1781.00,0.0069
1780.00,0.0069
1779.00,0.0070
1778.00,0.0071
1777.00,0.0072
1776.00,0.0073
1775.00,0.0074
1774.00,0.0075
1773.00,0.0076
1772.00,0.0075
1771.00,0.0073
1770.00,0.0073
1769.00,0.0074
1768.00,0.0074
1767.00,0.0075
1766.00,0.0075
1765.00,0.0076
1764.00,0.0077
1763.00,0.0077
1762.00,0.0077
1761.00,0.0077
1760.00,0.0078
1759.00,0.0078
1758.00,0.0079
1757.00,0.0079
1756.00,0.0080
1755.00,0.0081
1754.00,0.0082
1753.00,0.0084
1752.00,0.0086
1751.00,0.0087
1750.00,0.0088
1749.00,0.0088
1748.00,0.0088
1747.00,0.0088
1746.00,0.0089
1745.00,0.0090
1744.00,0.0091
1743.00,0.0092
1742.00,0.0093
1741.00,0.0095
1740.00,0.0098
1739.00,0.0099
1738.00,0.0099
1737.00,0.0101
1736.00,0.0103
1735.00,0.0106
1734.00,0.0106
1733.00,0.0105
1732.00,0.0104
1731.00,0.0104
1730.00,0.0104
1729.00,0.0105
1728.00,0.0107
1727.00,0.0108
1726.00,0.0109
1725.00,0.0110
1724.00,0.0111
1723.00,0.0112
1722.00,0.0112
1721.00,0.0112
1720.00,0.0112
1719.00,0.0112
1718.00,0.0113
1717.00,0.0114
1716.00,0.0113
1715.00,0.0112
1714.00,0.0112
1713.00,0.0112
1712.00,0.0113
1711.00,0.0114
1710.00,0.0115
1709.00,0.0115
1708.00,0.0116
1707.00,0.0116
1706.00,0.0116
1705.00,0.0116
1704.00,0.0117
1703.00,0.0119
1702.00,0.0121
1701.00,0.0125
1700.00,0.0127
1699.00,0.0128
1698.00,0.0128
1697.00,0.0127
1696.00,0.0127
1695.00,0.0127
1694.00,0.0128
1693.00,0.0130
1692.00,0.0131
1691.00,0.0132
1690.00,0.0134
1689.00,0.0135
1688.00,0.0136
1687.00,0.0137
1686.00,0.0138
1685.00,0.0139
1684.00,0.0139
1683.00,0.0140
1682.00,0.0143
1681.00,0.0145
1680.00,0.0148
1679.00,0.0150
1678.00,0.0152
1677.00,0.0154
1676.00,0.0157
1675.00,0.0160
1674.00,0.0161
1673.00,0.0162
1672.00,0.0163
1671.00,0.0166
1670.00,0.0168
1669.00,0.0170
1668.00,0.0171
1667.00,0.0173
1666.00,0.0174
1665.00,0.0176
1664.00,0.0179
1663.00,0.0181
1662.00,0.0183
1661.00,0.0185
1660.00,0.0187
1659.00,0.0188
1658.00,0.0189
1657.00,0.0189
1656.00,0.0189
1655.00,0.0189
1654.00,0.0191
1653.00,0.0193
1652.00,0.0196
1651.00,0.0198
1650.00,0.0199
1649.00,0.0201
1648.00,0.0204
1647.00,0.0206
1646.00,0.0207
1645.00,0.0208
1644.00,0.0209
1643.00,0.0209
1642.00,0.0209
1641.00,0.0210
1640.00,0.0210
1639.00,0.0210
1638.00,0.0211
1637.00,0.0213
1636.00,0.0214
1635.00,0.0215
1634.00,0.0216
1633.00,0.0216
1632.00,0.0217
1631.00,0.0217
1630.00,0.0217
1629.00,0.0217
1628.00,0.0217
1627.00,0.0217
1626.00,0.0217
1625.00,0.0217
1624.00,0.0218
1623.00,0.0218
1622.00,0.0218
1621.00,0.0217
1620.00,0.0216
1619.00,0.0216
1618.00,0.0217
1617.00,0.0217
1616.00,0.0216
1615.00,0.0215
1614.00,0.0214
1613.00,0.0214
1612.00,0.0214
1611.00,0.0215
1610.00,0.0215
1609.00,0.0215
1608.00,0.0215
1607.00,0.0216
1606.00,0.0216
1605.00,0.0215
1604.00,0.0214
1603.00,0.0215
1602.00,0.0215
1601.00,0.0215
1600.00,0.0215
1599.00,0.0216
1598.00,0.0216
1597.00,0.0216
1596.00,0.0216
1595.00,0.0217
1594.00,0.0217
1593.00,0.0216
1592.00,0.0216
1591.00,0.0216
1590.00,0.0217
1589.00,0.0217
1588.00,0.0217
1587.00,0.0218
1586.00,0.0218
1585.00,0.0218
1584.00,0.0218
1583.00,0.0218
1582.00,0.0218
1581.00,0.0219
1580.00,0.0218
1579.00,0.0218
1578.00,0.0219
1577.00,0.0219
1576.00,0.0220
1575.00,0.0220
1574.00,0.0220
1573.00,0.0219
1572.00,0.0219
1571.00,0.0220
1570.00,0.0221
1569.00,0.0221
1568.00,0.0221
1567.00,0.0221
1566.00,0.0221
1565.00,0.0221
1564.00,0.0220
1563.00,0.0219
1562.00,0.0217
1561.00,0.0214
1560.00,0.0215
1559.00,0.0220
1558.00,0.0220
1557.00,0.0221
1556.00,0.0221
1555.00,0.0220
1554.00,0.0219
1553.00,0.0218
1552.00,0.0216
1551.00,0.0215
1550.00,0.0215
1549.00,0.0215
1548.00,0.0215
1547.00,0.0214
1546.00,0.0214
1545.00,0.0214
1544.00,0.0213
1543.00,0.0213
1542.00,0.0214
1541.00,0.0212
1540.00,0.0206
1539.00,0.0200
1538.00,0.0199
1537.00,0.0199
1536.00,0.0199
1535.00,0.0199
1534.00,0.0198
1533.00,0.0197
1532.00,0.0196
1531.00,0.0196
1530.00,0.0196
1529.00,0.0196
1528.00,0.0196
1527.00,0.0195
1526.00,0.0195
1525.00,0.0195
1524.00,0.0194
1523.00,0.0193
1522.00,0.0193
1521.00,0.0191
1520.00,0.0188
1519.00,0.0186
1518.00,0.0184
1517.00,0.0183
1516.00,0.0182
1515.00,0.0181
1514.00,0.0181
1513.00,0.0181
1512.00,0.0180
1511.00,0.0178
1510.00,0.0176
1509.00,0.0174
1508.00,0.0173
1507.00,0.0170
1506.00,0.0167
1505.00,0.0167
1504.00,0.0168
1503.00,0.0168
1502.00,0.0167
1501.00,0.0166
1500.00,0.0165
1499.00,0.0164
1498.00,0.0163
1497.00,0.0162
1496.00,0.0162
1495.00,0.0161
1494.00,0.0161
1493.00,0.0161
1492.00,0.0162
1491.00,0.0161
1490.00,0.0160
1489.00,0.0157
1488.00,0.0155
1487.00,0.0154
1486.00,0.0154
1485.00,0.0154
1484.00,0.0154
1483.00,0.0154
1482.00,0.0154
1481.00,0.0154
1480.00,0.0154
1479.00,0.0154
1478.00,0.0153
1477.00,0.0154
1476.00,0.0155
1475.00,0.0157
1474.00,0.0160
1473.00,0.0161
1472.00,0.0159
1471.00,0.0157
1470.00,0.0156
1469.00,0.0156
1468.00,0.0156
1467.00,0.0156
1466.00,0.0157
1465.00,0.0158
1464.00,0.0159
1463.00,0.0159
1462.00,0.0159
1461.00,0.0158
1460.00,0.0158
1459.00,0.0159
1458.00,0.0162
1457.00,0.0163
1456.00,0.0163
1455.00,0.0162
1454.00,0.0162
1453.00,0.0163
1452.00,0.0164
1451.00,0.0165
1450.00,0.0166
1449.00,0.0167
1448.00,0.0167
1447.00,0.0167
1446.00,0.0167
1445.00,0.0167
1444.00,0.0168
1443.00,0.0168
1442.00,0.0168
1441.00,0.0169
1440.00,0.0169
1439.00,0.0169
1438.00,0.0170
1437.00,0.0171
1436.00,0.0172
1435.00,0.0171
1434.00,0.0171
1433.00,0.0172
1432.00,0.0172
1431.00,0.0172
1430.00,0.0172
1429.00,0.0172
1428.00,0.0173
1427.00,0.0174
1426.00,0.0174
1425.00,0.0174
1424.00,0.0175
1423.00,0.0175
1422.00,0.0174
1421.00,0.0174
1420.00,0.0175
1419.00,0.0175
1418.00,0.0175
1417.00,0.0176
1416.00,0.0177
1415.00,0.0178
1414.00,0.0178
1413.00,0.0179
1412.00,0.0179
1411.00,0.0179
1410.00,0.0179
1409.00,0.0179
1408.00,0.0180
1407.00,0.0179
1406.00,0.0179
1405.00,0.0180
1404.00,0.0181
1403.00,0.0182
1402.00,0.0183
1401.00,0.0184
1400.00,0.0184
1399.00,0.0185
1398.00,0.0185
1397.00,0.0186
1396.00,0.0187
1395.00,0.0187
1394.00,0.0187
1393.00,0.0187
1392.00,0.0188
1391.00,0.0189
1390.00,0.0190
1389.00,0.0191
1388.00,0.0192
1387.00,0.0193
1386.00,0.0193
1385.00,0.0194
1384.00,0.0195
1383.00,0.0196
1382.00,0.0196
1381.00,0.0196
1380.00,0.0197
1379.00,0.0197
1378.00,0.0196
1377.00,0.0196
1376.00,0.0196
1375.00,0.0196
1374.00,0.0197
1373.00,0.0197
1372.00,0.0197
1371.00,0.0197
1370.00,0.0197
1369.00,0.0196
1368.00,0.0196
1367.00,0.0195
1366.00,0.0195
1365.00,0.0194
1364.00,0.0193
1363.00,0.0192
1362.00,0.0192
1361.00,0.0192
1360.00,0.0192
1359.00,0.0192
1358.00,0.0192
1357.00,0.0191
1356.00,0.0191
1355.00,0.0190
1354.00,0.0190
1353.00,0.0189
1352.00,0.0189
1351.00,0.0188
1350.00,0.0188
1349.00,0.0188
1348.00,0.0188
1347.00,0.0188
1346.00,0.0188
1345.00,0.0188
1344.00,0.0188
1343.00,0.0187
1342.00,0.0186
1341.00,0.0186
1340.00,0.0185
1339.00,0.0185
1338.00,0.0185
1337.00,0.0185
1336.00,0.0185
1335.00,0.0185
1334.00,0.0185
1333.00,0.0185
1332.00,0.0185
1331.00,0.0185
1330.00,0.0185
1329.00,0.0185
1328.00,0.0185
1327.00,0.0185
1326.00,0.0184
1325.00,0.0184
1324.00,0.0184
1323.00,0.0185
1322.00,0.0185
1321.00,0.0185
1320.00,0.0186
1319.00,0.0186
1318.00,0.0186
1317.00,0.0186
1316.00,0.0186
1315.00,0.0186
1314.00,0.0186
1313.00,0.0186
1312.00,0.0187
1311.00,0.0187
1310.00,0.0187
1309.00,0.0187
1308.00,0.0187
1307.00,0.0187
1306.00,0.0186
1305.00,0.0186
1304.00,0.0187
1303.00,0.0187
1302.00,0.0186
1301.00,0.0186
1300.00,0.0186
1299.00,0.0186
1298.00,0.0187
1297.00,0.0187
1296.00,0.0188
1295.00,0.0188
1294.00,0.0187
1293.00,0.0187
1292.00,0.0188
1291.00,0.0189
1290.00,0.0189
1289.00,0.0189
1288.00,0.0189
1287.00,0.0190
1286.00,0.0190
1285.00,0.0190
1284.00,0.0191
1283.00,0.0191
1282.00,0.0192
1281.00,0.0193
1280.00,0.0193
1279.00,0.0193
1278.00,0.0193
1277.00,0.0194
1276.00,0.0195
1275.00,0.0195
1274.00,0.0196
1273.00,0.0197
1272.00,0.0198
1271.00,0.0198
1270.00,0.0199
1269.00,0.0199
1268.00,0.0200
1267.00,0.0201
1266.00,0.0201
1265.00,0.0202
1264.00,0.0203
1263.00,0.0204
1262.00,0.0205
1261.00,0.0206
1260.00,0.0208
1259.00,0.0209
1258.00,0.0210
1257.00,0.0211
1256.00,0.0212
1255.00,0.0214
1254.00,0.0215
1253.00,0.0216
1252.00,0.0218
1251.00,0.0219
1250.00,0.0221
1249.00,0.0222
1248.00,0.0224
1247.00,0.0226
1246.00,0.0228
1245.00,0.0229
1244.00,0.0230
1243.00,0.0231
1242.00,0.0233
1241.00,0.0234
1240.00,0.0236
1239.00,0.0237
1238.00,0.0238
1237.00,0.0239
1236.00,0.0240
1235.00,0.0242
1234.00,0.0243
1233.00,0.0244
1232.00,0.0245
1231.00,0.0246
1230.00,0.0247
1229.00,0.0248
1228.00,0.0249
1227.00,0.0250
1226.00,0.0251
1225.00,0.0251
1224.00,0.0252
1223.00,0.0253
1222.00,0.0253
1221.00,0.0253
1220.00,0.0254
1219.00,0.0254
1218.00,0.0254
1217.00,0.0254
1216.00,0.0254
1215.00,0.0255
1214.00,0.0255
1213.00,0.0256
1212.00,0.0257
1211.00,0.0258
1210.00,0.0258
1209.00,0.0259
1208.00,0.0260
1207.00,0.0261
1206.00,0.0261
1205.00,0.0262
1204.00,0.0263
1203.00,0.0263
1202.00,0.0264
1201.00,0.0264
1200.00,0.0265
1199.00,0.0265
1198.00,0.0266
1197.00,0.0267
1196.00,0.0268
1195.00,0.0269
1194.00,0.0269
1193.00,0.0269
1192.00,0.0270
1191.00,0.0270
1190.00,0.0271
1189.00,0.0272
1188.00,0.0272
1187.00,0.0273
1186.00,0.0275
1185.00,0.0276
1184.00,0.0278
1183.00,0.0279
1182.00,0.0280
1181.00,0.0281
1180.00,0.0282
1179.00,0.0284
1178.00,0.0285
1177.00,0.0286
1176.00,0.0288
1175.00,0.0289
1174.00,0.0290
1173.00,0.0291
1172.00,0.0292
1171.00,0.0293
1170.00,0.0295
1169.00,0.0296
1168.00,0.0297
1167.00,0.0299
1166.00,0.0300
1165.00,0.0301
1164.00,0.0302
1163.00,0.0304
1162.00,0.0306
1161.00,0.0306
1160.00,0.0307
1159.00,0.0308
1158.00,0.0309
1157.00,0.0310
1156.00,0.0311
1155.00,0.0312
1154.00,0.0312
1153.00,0.0313
1152.00,0.0313
1151.00,0.0315
1150.00,0.0316
1149.00,0.0317
1148.00,0.0319
1147.00,0.0320
1146.00,0.0322
1145.00,0.0323
1144.00,0.0323
1143.00,0.0324
1142.00,0.0325
1141.00,0.0326
1140.00,0.0328
1139.00,0.0329
1138.00,0.0330
1137.00,0.0332
1136.00,0.0333
1135.00,0.0336
1134.00,0.0338
1133.00,0.0339
1132.00,0.0341
1131.00,0.0342
1130.00,0.0343
1129.00,0.0345
1128.00,0.0348
1127.00,0.0350
1126.00,0.0352
1125.00,0.0355
1124.00,0.0357
1123.00,0.0360
1122.00,0.0363
1121.00,0.0366
1120.00,0.0369
1119.00,0.0372
1118.00,0.0374
1117.00,0.0377
1116.00,0.0380
1115.00,0.0384
1114.00,0.0387
1113.00,0.0390
1112.00,0.0394
1111.00,0.0397
1110.00,0.0401
1109.00,0.0404
1108.00,0.0407
1107.00,0.0410
1106.00,0.0413
1105.00,0.0417
1104.00,0.0421
1103.00,0.0425
1102.00,0.0428
1101.00,0.0432
1100.00,0.0436
1099.00,0.0439
1098.00,0.0442
1097.00,0.0445
1096.00,0.0447
1095.00,0.0449
1094.00,0.0451
1093.00,0.0453
1092.00,0.0456
1091.00,0.0460
1090.00,0.0463
1089.00,0.0465
1088.00,0.0468
1087.00,0.0470
1086.00,0.0472
1085.00,0.0475
1084.00,0.0478
1083.00,0.0480
1082.00,0.0482
1081.00,0.0483
1080.00,0.0485
1079.00,0.0487
1078.00,0.0488
1077.00,0.0490
1076.00,0.0492
1075.00,0.0494
1074.00,0.0495
1073.00,0.0497
1072.00,0.0498
1071.00,0.0499
1070.00,0.0500
1069.00,0.0500
1068.00,0.0501
1067.00,0.0503
1066.00,0.0505
1065.00,0.0507
1064.00,0.0510
1063.00,0.0512
1062.00,0.0513
1061.00,0.0513
1060.00,0.0514
1059.00,0.0515
1058.00,0.0516
1057.00,0.0517
1056.00,0.0517
1055.00,0.0519
1054.00,0.0520
1053.00,0.0521
1052.00,0.0522
1051.00,0.0523
1050.00,0.0524
1049.00,0.0525
1048.00,0.0525
1047.00,0.0525
1046.00,0.0525
1045.00,0.0524
1044.00,0.0523
1043.00,0.0522
1042.00,0.0522
1041.00,0.0522
1040.00,0.0522
1039.00,0.0521
1038.00,0.0520
1037.00,0.0518
1036.00,0.0517
1035.00,0.0516
1034.00,0.0515
1033.00,0.0513
1032.00,0.0512
1031.00,0.0510
1030.00,0.0508
1029.00,0.0505
1028.00,0.0502
1027.00,0.0498
1026.00,0.0495
1025.00,0.0491
1024.00,0.0488
1023.00,0.0485
1022.00,0.0482
1021.00,0.0479
1020.00,0.0477
1019.00,0.0474
1018.00,0.0470
1017.00,0.0466
1016.00,0.0462
1015.00,0.0459
1014.00,0.0455
1013.00,0.0451
1012.00,0.0448
1011.00,0.0445
1010.00,0.0442
1009.00,0.0439
1008.00,0.0435
1007.00,0.0431
1006.00,0.0427
1005.00,0.0423
1004.00,0.0420
1003.00,0.0416
1002.00,0.0413
1001.00,0.0410
1000.00,0.0406
999.00,0.0403
998.00,0.0399
997.00,0.0396
996.00,0.0393
995.00,0.0389
994.00,0.0386
993.00,0.0383
992.00,0.0381
991.00,0.0378
990.00,0.0374
989.00,0.0371
988.00,0.0368
987.00,0.0365
986.00,0.0362
985.00,0.0359
984.00,0.0356
983.00,0.0354
982.00,0.0353
981.00,0.0351
980.00,0.0350
979.00,0.0348
978.00,0.0345
977.00,0.0343
976.00,0.0340
975.00,0.0338
974.00,0.0336
973.00,0.0333
972.00,0.0331
971.00,0.0329
970.00,0.0327
969.00,0.0325
968.00,0.0324
967.00,0.0322
966.00,0.0321
965.00,0.0319
964.00,0.0317
963.00,0.0315
962.00,0.0313
961.00,0.0312
960.00,0.0311
959.00,0.0310
958.00,0.0309
957.00,0.0308
956.00,0.0307
955.00,0.0306
954.00,0.0305
953.00,0.0304
952.00,0.0303
951.00,0.0302
950.00,0.0301
949.00,0.0300
948.00,0.0300
947.00,0.0299
946.00,0.0299
945.00,0.0298
944.00,0.0297
943.00,0.0297
942.00,0.0296
941.00,0.0296
940.00,0.0296
939.00,0.0295
938.00,0.0294
937.00,0.0294
936.00,0.0294
935.00,0.0294
934.00,0.0294
933.00,0.0294
932.00,0.0293
931.00,0.0292
930.00,0.0290
929.00,0.0289
928.00,0.0288
927.00,0.0288
926.00,0.0287
925.00,0.0287
924.00,0.0287
923.00,0.0286
922.00,0.0286
921.00,0.0286
920.00,0.0286
919.00,0.0286
918.00,0.0287
917.00,0.0288
916.00,0.0289
915.00,0.0288
914.00,0.0287
913.00,0.0285
912.00,0.0284
911.00,0.0283
910.00,0.0282
909.00,0.0282
908.00,0.0282
907.00,0.0282
906.00,0.0283
905.00,0.0282
904.00,0.0281
903.00,0.0280
902.00,0.0278
901.00,0.0277
900.00,0.0277
899.00,0.0277
898.00,0.0276
897.00,0.0276
896.00,0.0275
895.00,0.0274
894.00,0.0273
893.00,0.0272
892.00,0.0271
891.00,0.0270
890.00,0.0269
889.00,0.0268
888.00,0.0267
887.00,0.0267
886.00,0.0266
885.00,0.0265
884.00,0.0265
883.00,0.0264
882.00,0.0264
881.00,0.0264
880.00,0.0264
879.00,0.0264
878.00,0.0264
877.00,0.0264
876.00,0.0263
875.00,0.0260
874.00,0.0259
873.00,0.0259
872.00,0.0259
871.00,0.0260
870.00,0.0259
869.00,0.0258
868.00,0.0256
867.00,0.0255
866.00,0.0254
865.00,0.0253
864.00,0.0253
863.00,0.0253
862.00,0.0253
861.00,0.0253
860.00,0.0253
859.00,0.0252
858.00,0.0252
857.00,0.0252
856.00,0.0252
855.00,0.0253
854.00,0.0253
853.00,0.0252
852.00,0.0252
851.00,0.0252
850.00,0.0252
849.00,0.0252
848.00,0.0252
847.00,0.0252
846.00,0.0252
845.00,0.0254
844.00,0.0256
843.00,0.0259
842.00,0.0259
841.00,0.0259
840.00,0.0259
839.00,0.0259
838.00,0.0260
837.00,0.0260
836.00,0.0261
835.00,0.0261
834.00,0.0261
833.00,0.0262
832.00,0.0264
831.00,0.0268
830.00,0.0271
829.00,0.0274
828.00,0.0276
827.00,0.0278
826.00,0.0279
825.00,0.0279
824.00,0.0281
823.00,0.0284
822.00,0.0287
821.00,0.0290
820.00,0.0291
819.00,0.0292
818.00,0.0291
817.00,0.0292
816.00,0.0293
815.00,0.0294
814.00,0.0296
813.00,0.0298
812.00,0.0299
811.00,0.0300
810.00,0.0301
809.00,0.0302
808.00,0.0304
807.00,0.0306
806.00,0.0309
805.00,0.0313
804.00,0.0316
803.00,0.0319
802.00,0.0321
801.00,0.0323
800.00,0.0325
799.00,0.0326
798.00,0.0327
797.00,0.0328
796.00,0.0329
795.00,0.0329
794.00,0.0329
793.00,0.0328
792.00,0.0327
791.00,0.0327
790.00,0.0327
789.00,0.0328
788.00,0.0329
787.00,0.0330
786.00,0.0331
785.00,0.0332
784.00,0.0331
783.00,0.0331
782.00,0.0331
781.00,0.0333
780.00,0.0336
779.00,0.0338
778.00,0.0338
777.00,0.0336
776.00,0.0335
775.00,0.0333
774.00,0.0333
773.00,0.0332
772.00,0.0330
771.00,0.0328
770.00,0.0326
769.00,0.0326
768.00,0.0328
767.00,0.0329
766.00,0.0331
765.00,0.0331
764.00,0.0331
763.00,0.0331
762.00,0.0331
761.00,0.0332
760.00,0.0333
759.00,0.0333
758.00,0.0334
757.00,0.0335
756.00,0.0336
755.00,0.0336
754.00,0.0336
753.00,0.0335
752.00,0.0335
751.00,0.0334
750.00,0.0334
749.00,0.0335
748.00,0.0337
747.00,0.0339
746.00,0.0339
745.00,0.0339
744.00,0.0338
743.00,0.0336
742.00,0.0336
741.00,0.0336
740.00,0.0338
739.00,0.0338
738.00,0.0339
737.00,0.0339
736.00,0.0339
735.00,0.0339
734.00,0.0339
733.00,0.0338
732.00,0.0339
731.00,0.0341
730.00,0.0344
729.00,0.0346
728.00,0.0346
727.00,0.0344
726.00,0.0342
725.00,0.0340
724.00,0.0341
723.00,0.0341
722.00,0.0342
721.00,0.0343
720.00,0.0344
719.00,0.0344
718.00,0.0346
717.00,0.0347
716.00,0.0349
715.00,0.0351
714.00,0.0353
713.00,0.0355
712.00,0.0356
711.00,0.0356
710.00,0.0356
709.00,0.0355
708.00,0.0356
707.00,0.0358
706.00,0.0360
705.00,0.0360
704.00,0.0360
703.00,0.0361
702.00,0.0362
701.00,0.0364
700.00,0.0365
699.00,0.0367
698.00,0.0368
697.00,0.0369
696.00,0.0371
695.00,0.0373
694.00,0.0374
693.00,0.0375
692.00,0.0374
691.00,0.0374
690.00,0.0374
689.00,0.0376
688.00,0.0377
687.00,0.0377
686.00,0.0379
685.00,0.0381
684.00,0.0382
683.00,0.0382
682.00,0.0382
681.00,0.0383
680.00,0.0384
679.00,0.0384
678.00,0.0382
677.00,0.0382
676.00,0.0383
675.00,0.0387
674.00,0.0390
673.00,0.0393
672.00,0.0394
671.00,0.0393
670.00,0.0389
669.00,0.0385
668.00,0.0385
667.00,0.0390
666.00,0.0394
665.00,0.0394
664.00,0.0392
663.00,0.0391
662.00,0.0392
661.00,0.0393
660.00,0.0394
659.00,0.0396
658.00,0.0397
657.00,0.0397
656.00,0.0405
655.00,0.0409
654.00,0.0413
653.00,0.0417
652.00,0.0419
651.00,0.0419
650.00,0.0417
