Created as New Dataset,
cm-1,A
4000.00,0.0312
3999.00,0.0312
3998.00,0.0312
3997.00,0.0312
3996.00,0.0312
3995.00,0.0312
3994.00,0.0312
3993.00,0.0313
3992.00,0.0313
3991.00,0.0312
3990.00,0.0312
3989.00,0.0311
3988.00,0.0311
3987.00,0.0311
3986.00,0.0310
3985.00,0.0310
3984.00,0.0310
3983.00,0.0311
3982.00,0.0311
3981.00,0.0311
3980.00,0.0311
3979.00,0.0311
3978.00,0.0310
3977.00,0.0310
3976.00,0.0310
3975.00,0.0311
3974.00,0.0311
3973.00,0.0311
3972.00,0.0311
3971.00,0.0311
3970.00,0.0310
3969.00,0.0310
3968.00,0.0309
3967.00,0.0309
3966.00,0.0309
3965.00,0.0309
3964.00,0.0309
3963.00,0.0309
3962.00,0.0309
3961.00,0.0310
3960.00,0.0310
3959.00,0.0310
3958.00,0.0310
3957.00,0.0309
3956.00,0.0308
3955.00,0.0308
3954.00,0.0308
3953.00,0.0308
3952.00,0.0308
3951.00,0.0309
3950.00,0.0310
3949.00,0.0311
3948.00,0.0311
3947.00,0.0311
3946.00,0.0311
3945.00,0.0311
3944.00,0.0312
3943.00,0.0311
3942.00,0.0310
3941.00,0.0310
3940.00,0.0309
3939.00,0.0308
3938.00,0.0307
3937.00,0.0306
3936.00,0.0306
3935.00,0.0308
3934.00,0.0309
3933.00,0.0310
3932.00,0.0310
3931.00,0.0311
3930.00,0.0311
3929.00,0.0310
3928.00,0.0310
3927.00,0.0310
3926.00,0.0309
3925.00,0.0309
3924.00,0.0309
3923.00,0.0309
3922.00,0.0309
3921.00,0.0309
3920.00,0.0308
3919.00,0.0308
3918.00,0.0308
3917.00,0.0308
3916.00,0.0307
3915.00,0.0306
3914.00,0.0305
3913.00,0.0305
3912.00,0.0304
3911.00,0.0304
3910.00,0.0303
3909.00,0.0304
3908.00,0.0305
3907.00,0.0306
3906.00,0.0308
3905.00,0.0309
3904.00,0.0309
3903.00,0.0311
3902.00,0.0313
3901.00,0.0314
3900.00,0.0313
3899.00,0.0311
3898.00,0.0308
3897.00,0.0306
3896.00,0.0306
3895.00,0.0306
3894.00,0.0306
3893.00,0.0307
3892.00,0.0306
3891.00,0.0304
3890.00,0.0303
3889.00,0.0304
3888.00,0.0307
3887.00,0.0307
3886.00,0.0305
3885.00,0.0302
3884.00,0.0304
3883.00,0.0308
3882.00,0.0311
3881.00,0.0310
3880.00,0.0306
3879.00,0.0303
3878.00,0.0303
3877.00,0.0305
3876.00,0.0305
3875.00,0.0303
3874.00,0.0301
3873.00,0.0303
3872.00,0.0307
3871.00,0.0308
3870.00,0.0305
3869.00,0.0302
3868.00,0.0303
3867.00,0.0306
3866.00,0.0307
3865.00,0.0305
3864.00,0.0303
3863.00,0.0304
3862.00,0.0305
3861.00,0.0304
3860.00,0.0302
3859.00,0.0300
3858.00,0.0299
3857.00,0.0299
3856.00,0.0300
3855.00,0.0299
3854.00,0.0297
3853.00,0.0296
3852.00,0.0297
3851.00,0.0300
3850.00,0.0302
3849.00,0.0302
3848.00,0.0300
3847.00,0.0298
3846.00,0.0297
3845.00,0.0297
3844.00,0.0296
3843.00,0.0296
3842.00,0.0297
3841.00,0.0299
3840.00,0.0301
3839.00,0.0301
3838.00,0.0300
3837.00,0.0299
3836.00,0.0299
3835.00,0.0299
3834.00,0.0300
3833.00,0.0300
3832.00,0.0298
3831.00,0.0297
3830.00,0.0296
3829.00,0.0298
3828.00,0.0298
3827.00,0.0297
3826.00,0.0295
3825.00,0.0295
3824.00,0.0297
3823.00,0.0299
3822.00,0.0298
3821.00,0.0295
3820.00,0.0293
3819.00,0.0296
3818.00,0.0299
3817.00,0.0299
3816.00,0.0294
3815.00,0.0291
3814.00,0.0292
3813.00,0.0294
3812.00,0.0294
3811.00,0.0292
3810.00,0.0290
3809.00,0.0291
3808.00,0.0290
3807.00,0.0287
3806.00,0.0285
3805.00,0.0287
3804.00,0.0292
3803.00,0.0294
3802.00,0.0292
3801.00,0.0289
3800.00,0.0289
3799.00,0.0293
3798.00,0.0296
3797.00,0.0295
3796.00,0.0292
3795.00,0.0290
3794.00,0.0290
3793.00,0.0290
3792.00,0.0290
3791.00,0.0288
3790.00,0.0288
3789.00,0.0287
3788.00,0.0287
3787.00,0.0288
3786.00,0.0288
3785.00,0.0288
3784.00,0.0287
3783.00,0.0287
3782.00,0.0288
3781.00,0.0289
3780.00,0.0288
3779.00,0.0287
3778.00,0.0286
3777.00,0.0287
3776.00,0.0287
3775.00,0.0286
3774.00,0.0284
3773.00,0.0283
3772.00,0.0284
3771.00,0.0285
3770.00,0.0285
3769.00,0.0285
3768.00,0.0287
3767.00,0.0289
3766.00,0.0289
3765.00,0.0287
3764.00,0.0285
3763.00,0.0286
3762.00,0.0287
3761.00,0.0287
3760.00,0.0286
3759.00,0.0286
3758.00,0.0286
3757.00,0.0285
3756.00,0.0285
3755.00,0.0285
3754.00,0.0284
3753.00,0.0282
3752.00,0.0281
3751.00,0.0283
3750.00,0.0284
3749.00,0.0284
3748.00,0.0286
3747.00,0.0290
3746.00,0.0292
3745.00,0.0288
3744.00,0.0280
3743.00,0.0277
3742.00,0.0280
3741.00,0.0284
3740.00,0.0284
3739.00,0.0283
3738.00,0.0283
3737.00,0.0284
3736.00,0.0286
3735.00,0.0288
3734.00,0.0290
3733.00,0.0289
3732.00,0.0285
3731.00,0.0281
3730.00,0.0280
3729.00,0.0281
3728.00,0.0283
3727.00,0.0282
3726.00,0.0281
3725.00,0.0282
3724.00,0.0283
3723.00,0.0284
3722.00,0.0283
3721.00,0.0282
3720.00,0.0282
3719.00,0.0281
3718.00,0.0279
3717.00,0.0277
3716.00,0.0276
3715.00,0.0277
3714.00,0.0277
3713.00,0.0276
3712.00,0.0277
3711.00,0.0279
3710.00,0.0281
3709.00,0.0282
3708.00,0.0281
3707.00,0.0279
3706.00,0.0278
3705.00,0.0277
3704.00,0.0278
3703.00,0.0279
3702.00,0.0279
3701.00,0.0279
3700.00,0.0279
3699.00,0.0279
3698.00,0.0279
3697.00,0.0278
3696.00,0.0277
3695.00,0.0278
3694.00,0.0279
3693.00,0.0279
3692.00,0.0280
3691.00,0.0281
3690.00,0.0283
3689.00,0.0283
3688.00,0.0281
3687.00,0.0280
3686.00,0.0280
3685.00,0.0281
3684.00,0.0280
3683.00,0.0279
3682.00,0.0278
3681.00,0.0277
3680.00,0.0276
3679.00,0.0276
3678.00,0.0279
3677.00,0.0284
3676.00,0.0285
3675.00,0.0284
3674.00,0.0284
3673.00,0.0288
3672.00,0.0291
3671.00,0.0290
3670.00,0.0288
3669.00,0.0288
3668.00,0.0289
3667.00,0.0290
3666.00,0.0290
3665.00,0.0289
3664.00,0.0288
3663.00,0.0288
3662.00,0.0288
3661.00,0.0288
3660.00,0.0289
3659.00,0.0291
3658.00,0.0293
3657.00,0.0295
3656.00,0.0295
3655.00,0.0296
3654.00,0.0299
3653.00,0.0303
3652.00,0.0304
3651.00,0.0304
3650.00,0.0308
3649.00,0.0315
3648.00,0.0320
3647.00,0.0321
3646.00,0.0319
3645.00,0.0317
3644.00,0.0315
3643.00,0.0314
3642.00,0.0313
3641.00,0.0313
3640.00,0.0314
3639.00,0.0314
3638.00,0.0315
3637.00,0.0316
3636.00,0.0318
3635.00,0.0319
3634.00,0.0318
3633.00,0.0319
3632.00,0.0322
3631.00,0.0327
3630.00,0.0332
3629.00,0.0335
3628.00,0.0336
3627.00,0.0337
3626.00,0.0338
3625.00,0.0337
3624.00,0.0336
3623.00,0.0335
3622.00,0.0337
3621.00,0.0341
3620.00,0.0344
3619.00,0.0347
3618.00,0.0349
3617.00,0.0350
3616.00,0.0351
3615.00,0.0352
3614.00,0.0352
3613.00,0.0352
3612.00,0.0352
3611.00,0.0354
3610.00,0.0355
3609.00,0.0356
3608.00,0.0356
3607.00,0.0357
3606.00,0.0358
3605.00,0.0358
3604.00,0.0357
3603.00,0.0356
3602.00,0.0357
3601.00,0.0358
3600.00,0.0360
3599.00,0.0361
3598.00,0.0363
3597.00,0.0365
3596.00,0.0367
3595.00,0.0369
3594.00,0.0370
3593.00,0.0370
3592.00,0.0370
3591.00,0.0370
3590.00,0.0372
3589.00,0.0375
3588.00,0.0380
3587.00,0.0383
3586.00,0.0385
3585.00,0.0384
3584.00,0.0383
3583.00,0.0382
3582.00,0.0381
3581.00,0.0382
3580.00,0.0382
3579.00,0.0383
3578.00,0.0384
3577.00,0.0384
3576.00,0.0384
3575.00,0.0384
3574.00,0.0385
3573.00,0.0385
3572.00,0.0385
3571.00,0.0386
3570.00,0.0388
3569.00,0.0392
3568.00,0.0397
3567.00,0.0403
3566.00,0.0407
3565.00,0.0408
3564.00,0.0407
3563.00,0.0405
3562.00,0.0403
3561.00,0.0402
3560.00,0.0402
3559.00,0.0401
3558.00,0.0401
3557.00,0.0400
3556.00,0.0400
3555.00,0.0401
3554.00,0.0403
3553.00,0.0405
3552.00,0.0408
3551.00,0.0409
3550.00,0.0410
3549.00,0.0411
3548.00,0.0413
3547.00,0.0415
3546.00,0.0417
3545.00,0.0419
3544.00,0.0419
3543.00,0.0418
3542.00,0.0417
3541.00,0.0416
3540.00,0.0416
3539.00,0.0416
3538.00,0.0417
3537.00,0.0419
3536.00,0.0421
3535.00,0.0421
3534.00,0.0422
3533.00,0.0422
3532.00,0.0422
3531.00,0.0422
3530.00,0.0424
3529.00,0.0426
3528.00,0.0428
3527.00,0.0430
3526.00,0.0431
3525.00,0.0432
3524.00,0.0433
3523.00,0.0434
3522.00,0.0434
3521.00,0.0435
3520.00,0.0435
3519.00,0.0435
3518.00,0.0435
3517.00,0.0436
3516.00,0.0437
3515.00,0.0437
3514.00,0.0438
3513.00,0.0439
3512.00,0.0440
3511.00,0.0442
3510.00,0.0443
3509.00,0.0445
3508.00,0.0445
3507.00,0.0445
3506.00,0.0445
3505.00,0.0446
3504.00,0.0447
3503.00,0.0448
3502.00,0.0450
3501.00,0.0451
3500.00,0.0451
3499.00,0.0451
3498.00,0.0451
3497.00,0.0452
3496.00,0.0452
3495.00,0.0453
3494.00,0.0454
3493.00,0.0455
3492.00,0.0455
3491.00,0.0455
3490.00,0.0456
3489.00,0.0456
3488.00,0.0457
3487.00,0.0458
3486.00,0.0459
3485.00,0.0460
3484.00,0.0461
3483.00,0.0462
3482.00,0.0464
3481.00,0.0465
3480.00,0.0466
3479.00,0.0466
3478.00,0.0467
3477.00,0.0467
3476.00,0.0467
3475.00,0.0467
3474.00,0.0468
3473.00,0.0469
3472.00,0.0471
3471.00,0.0471
3470.00,0.0472
3469.00,0.0472
3468.00,0.0473
3467.00,0.0473
3466.00,0.0473
3465.00,0.0474
3464.00,0.0475
3463.00,0.0476
3462.00,0.0477
3461.00,0.0478
3460.00,0.0479
3459.00,0.0479
3458.00,0.0479
3457.00,0.0480
3456.00,0.0480
3455.00,0.0481
3454.00,0.0482
3453.00,0.0483
3452.00,0.0484
3451.00,0.0484
3450.00,0.0484
3449.00,0.0485
3448.00,0.0487
3447.00,0.0488
3446.00,0.0489
3445.00,0.0490
3444.00,0.0489
3443.00,0.0489
3442.00,0.0490
3441.00,0.0490
3440.00,0.0491
3439.00,0.0491
3438.00,0.0491
3437.00,0.0492
3436.00,0.0492
3435.00,0.0493
3434.00,0.0494
3433.00,0.0495
3432.00,0.0496
3431.00,0.0496
3430.00,0.0496
3429.00,0.0496
3428.00,0.0497
3427.00,0.0497
3426.00,0.0497
3425.00,0.0498
3424.00,0.0499
3423.00,0.0500
3422.00,0.0501
3421.00,0.0503
3420.00,0.0504
3419.00,0.0504
3418.00,0.0504
3417.00,0.0504
3416.00,0.0504
3415.00,0.0504
3414.00,0.0505
3413.00,0.0506
3412.00,0.0507
3411.00,0.0507
3410.00,0.0508
3409.00,0.0508
3408.00,0.0509
3407.00,0.0510
3406.00,0.0511
3405.00,0.0511
3404.00,0.0512
3403.00,0.0512
3402.00,0.0512
3401.00,0.0512
3400.00,0.0512
3399.00,0.0512
3398.00,0.0512
3397.00,0.0513
3396.00,0.0513
3395.00,0.0514
3394.00,0.0515
3393.00,0.0516
3392.00,0.0517
3391.00,0.0518
3390.00,0.0518
3389.00,0.0518
3388.00,0.0518
3387.00,0.0518
3386.00,0.0518
3385.00,0.0519
3384.00,0.0520
3383.00,0.0520
3382.00,0.0520
3381.00,0.0520
3380.00,0.0520
3379.00,0.0520
3378.00,0.0520
3377.00,0.0521
3376.00,0.0521
3375.00,0.0522
3374.00,0.0522
3373.00,0.0523
3372.00,0.0523
3371.00,0.0523
3370.00,0.0523
3369.00,0.0523
3368.00,0.0523
3367.00,0.0524
3366.00,0.0525
3365.00,0.0526
3364.00,0.0527
3363.00,0.0527
3362.00,0.0527
3361.00,0.0527
3360.00,0.0527
3359.00,0.0527
3358.00,0.0528
3357.00,0.0528
3356.00,0.0529
3355.00,0.0529
3354.00,0.0529
3353.00,0.0528
3352.00,0.0528
3351.00,0.0528
3350.00,0.0528
3349.00,0.0529
3348.00,0.0529
3347.00,0.0529
3346.00,0.0529
3345.00,0.0529
3344.00,0.0529
3343.00,0.0529
3342.00,0.0530
3341.00,0.0530
3340.00,0.0531
3339.00,0.0531
3338.00,0.0532
3337.00,0.0532
3336.00,0.0532
3335.00,0.0533
3334.00,0.0533
3333.00,0.0533
3332.00,0.0534
3331.00,0.0534
3330.00,0.0534
3329.00,0.0534
3328.00,0.0534
3327.00,0.0534
3326.00,0.0534
3325.00,0.0535
3324.00,0.0535
3323.00,0.0535
3322.00,0.0535
3321.00,0.0535
3320.00,0.0534
3319.00,0.0534
3318.00,0.0534
3317.00,0.0534
3316.00,0.0534
3315.00,0.0534
3314.00,0.0535
3313.00,0.0535
3312.00,0.0536
3311.00,0.0536
3310.00,0.0537
3309.00,0.0537
3308.00,0.0537
3307.00,0.0538
3306.00,0.0538
3305.00,0.0538
3304.00,0.0538
3303.00,0.0538
3302.00,0.0538
3301.00,0.0537
3300.00,0.0537
3299.00,0.0537
3298.00,0.0537
3297.00,0.0538
3296.00,0.0538
3295.00,0.0538
3294.00,0.0537
3293.00,0.0537
3292.00,0.0538
3291.00,0.0538
3290.00,0.0539
3289.00,0.0539
3288.00,0.0540
3287.00,0.0540
3286.00,0.0540
3285.00,0.0541
3284.00,0.0541
3283.00,0.0540
3282.00,0.0540
3281.00,0.0540
3280.00,0.0540
3279.00,0.0540
3278.00,0.0540
3277.00,0.0540
3276.00,0.0541
3275.00,0.0541
3274.00,0.0542
3273.00,0.0543
3272.00,0.0543
3271.00,0.0542
3270.00,0.0542
3269.00,0.0542
3268.00,0.0541
3267.00,0.0542
3266.00,0.0542
3265.00,0.0542
3264.00,0.0542
3263.00,0.0542
3262.00,0.0542
3261.00,0.0542
3260.00,0.0542
3259.00,0.0542
3258.00,0.0542
3257.00,0.0543
3256.00,0.0543
3255.00,0.0543
3254.00,0.0543
3253.00,0.0542
3252.00,0.0542
3251.00,0.0541
3250.00,0.0542
3249.00,0.0542
3248.00,0.0543
3247.00,0.0544
3246.00,0.0545
3245.00,0.0546
3244.00,0.0546
3243.00,0.0545
3242.00,0.0544
3241.00,0.0544
3240.00,0.0543
3239.00,0.0544
3238.00,0.0544
3237.00,0.0545
3236.00,0.0545
3235.00,0.0545
3234.00,0.0545
3233.00,0.0546
3232.00,0.0546
3231.00,0.0546
3230.00,0.0547
3229.00,0.0547
3228.00,0.0547
3227.00,0.0546
3226.00,0.0546
3225.00,0.0546
3224.00,0.0546
3223.00,0.0546
3222.00,0.0546
3221.00,0.0546
3220.00,0.0546
3219.00,0.0546
3218.00,0.0546
3217.00,0.0545
3216.00,0.0545
3215.00,0.0544
3214.00,0.0544
3213.00,0.0545
3212.00,0.0545
3211.00,0.0546
3210.00,0.0546
3209.00,0.0546
3208.00,0.0545
3207.00,0.0545
3206.00,0.0545
3205.00,0.0545
3204.00,0.0545
3203.00,0.0545
3202.00,0.0545
3201.00,0.0546
3200.00,0.0546
3199.00,0.0546
3198.00,0.0546
3197.00,0.0546
3196.00,0.0546
3195.00,0.0546
3194.00,0.0546
3193.00,0.0545
3192.00,0.0545
3191.00,0.0545
3190.00,0.0545
3189.00,0.0545
3188.00,0.0545
3187.00,0.0545
3186.00,0.0545
3185.00,0.0545
3184.00,0.0545
3183.00,0.0545
3182.00,0.0545
3181.00,0.0545
3180.00,0.0544
3179.00,0.0544
3178.00,0.0543
3177.00,0.0543
3176.00,0.0543
3175.00,0.0543
3174.00,0.0543
3173.00,0.0543
3172.00,0.0543
3171.00,0.0543
3170.00,0.0543
3169.00,0.0543
3168.00,0.0542
3167.00,0.0542
3166.00,0.0542
3165.00,0.0542
3164.00,0.0542
3163.00,0.0542
3162.00,0.0542
3161.00,0.0541
3160.00,0.0541
3159.00,0.0541
3158.00,0.0541
3157.00,0.0540
3156.00,0.0540
3155.00,0.0539
3154.00,0.0539
3153.00,0.0539
3152.00,0.0539
3151.00,0.0539
3150.00,0.0539
3149.00,0.0538
3148.00,0.0538
3147.00,0.0538
3146.00,0.0539
3145.00,0.0539
3144.00,0.0538
3143.00,0.0538
3142.00,0.0538
3141.00,0.0538
3140.00,0.0538
3139.00,0.0537
3138.00,0.0537
3137.00,0.0537
3136.00,0.0536
3135.00,0.0536
3134.00,0.0536
3133.00,0.0535
3132.00,0.0535
3131.00,0.0535
3130.00,0.0535
3129.00,0.0535
3128.00,0.0535
3127.00,0.0536
3126.00,0.0535
3125.00,0.0535
3124.00,0.0535
3123.00,0.0535
3122.00,0.0534
3121.00,0.0534
3120.00,0.0534
3119.00,0.0533
3118.00,0.0532
3117.00,0.0532
3116.00,0.0532
3115.00,0.0533
3114.00,0.0533
3113.00,0.0534
3112.00,0.0534
3111.00,0.0533
3110.00,0.0533
3109.00,0.0532
3108.00,0.0531
3107.00,0.0531
3106.00,0.0531
3105.00,0.0531
3104.00,0.0531
3103.00,0.0531
3102.00,0.0531
3101.00,0.0531
3100.00,0.0531
3099.00,0.0531
3098.00,0.0531
3097.00,0.0531
3096.00,0.0531
3095.00,0.0531
3094.00,0.0531
3093.00,0.0530
3092.00,0.0530
3091.00,0.0529
3090.00,0.0529
3089.00,0.0529
3088.00,0.0530
3087.00,0.0530
3086.00,0.0530
3085.00,0.0529
3084.00,0.0529
3083.00,0.0529
3082.00,0.0529
3081.00,0.0529
3080.00,0.0529
3079.00,0.0528
3078.00,0.0528
3077.00,0.0528
3076.00,0.0528
3075.00,0.0528
3074.00,0.0528
3073.00,0.0528
3072.00,0.0528
3071.00,0.0528
3070.00,0.0528
3069.00,0.0528
3068.00,0.0527
3067.00,0.0527
3066.00,0.0527
3065.00,0.0527
3064.00,0.0527
3063.00,0.0527
3062.00,0.0526
3061.00,0.0526
3060.00,0.0525
3059.00,0.0525
3058.00,0.0524
3057.00,0.0524
3056.00,0.0524
3055.00,0.0524
3054.00,0.0524
3053.00,0.0524
3052.00,0.0524
3051.00,0.0523
3050.00,0.0523
3049.00,0.0522
3048.00,0.0522
3047.00,0.0522
3046.00,0.0521
3045.00,0.0521
3044.00,0.0521
3043.00,0.0521
3042.00,0.0521
3041.00,0.0521
3040.00,0.0521
3039.00,0.0520
3038.00,0.0520
3037.00,0.0520
3036.00,0.0519
3035.00,0.0519
3034.00,0.0518
3033.00,0.0519
3032.00,0.0519
3031.00,0.0519
3030.00,0.0518
3029.00,0.0518
3028.00,0.0517
3027.00,0.0516
3026.00,0.0516
3025.00,0.0515
3024.00,0.0515
3023.00,0.0515
3022.00,0.0515
3021.00,0.0515
3020.00,0.0515
3019.00,0.0515
3018.00,0.0515
3017.00,0.0515
3016.00,0.0515
3015.00,0.0515
3014.00,0.0515
3013.00,0.0515
3012.00,0.0516
3011.00,0.0516
3010.00,0.0516
3009.00,0.0516
3008.00,0.0516
3007.00,0.0516
3006.00,0.0516
3005.00,0.0516
3004.00,0.0517
3003.00,0.0517
3002.00,0.0517
3001.00,0.0517
3000.00,0.0517
2999.00,0.0517
2998.00,0.0517
2997.00,0.0518
2996.00,0.0518
2995.00,0.0518
2994.00,0.0518
2993.00,0.0518
2992.00,0.0518
2991.00,0.0518
2990.00,0.0517
2989.00,0.0517
2988.00,0.0518
2987.00,0.0518
2986.00,0.0519
2985.00,0.0520
2984.00,0.0522
2983.00,0.0523
2982.00,0.0523
2981.00,0.0523
2980.00,0.0522
2979.00,0.0520
2978.00,0.0519
2977.00,0.0519
2976.00,0.0518
2975.00,0.0518
2974.00,0.0518
2973.00,0.0518
2972.00,0.0517
2971.00,0.0516
2970.00,0.0514
2969.00,0.0512
2968.00,0.0511
2967.00,0.0510
2966.00,0.0508
2965.00,0.0507
2964.00,0.0506
2963.00,0.0505
2962.00,0.0504
2961.00,0.0503
2960.00,0.0503
2959.00,0.0502
2958.00,0.0502
2957.00,0.0501
2956.00,0.0501
2955.00,0.0500
2954.00,0.0500
2953.00,0.0500
2952.00,0.0500
2951.00,0.0499
2950.00,0.0499
2949.00,0.0498
2948.00,0.0498
2947.00,0.0497
2946.00,0.0497
2945.00,0.0497
2944.00,0.0496
2943.00,0.0495
2942.00,0.0494
2941.00,0.0493
2940.00,0.0492
2939.00,0.0491
2938.00,0.0490
2937.00,0.0490
2936.00,0.0489
2935.00,0.0488
2934.00,0.0487
2933.00,0.0486
2932.00,0.0485
2931.00,0.0484
2930.00,0.0483
2929.00,0.0481
2928.00,0.0480
2927.00,0.0479
2926.00,0.0478
2925.00,0.0477
2924.00,0.0477
2923.00,0.0476
2922.00,0.0476
2921.00,0.0476
2920.00,0.0476
2919.00,0.0476
2918.00,0.0475
2917.00,0.0475
2916.00,0.0475
2915.00,0.0477
2914.00,0.0479
2913.00,0.0480
2912.00,0.0482
2911.00,0.0483
2910.00,0.0484
2909.00,0.0484
2908.00,0.0485
2907.00,0.0485
2906.00,0.0485
2905.00,0.0484
2904.00,0.0484
2903.00,0.0484
2902.00,0.0484
2901.00,0.0485
2900.00,0.0485
2899.00,0.0485
2898.00,0.0484
2897.00,0.0484
2896.00,0.0484
2895.00,0.0484
2894.00,0.0484
2893.00,0.0485
2892.00,0.0485
2891.00,0.0486
2890.00,0.0486
2889.00,0.0486
2888.00,0.0485
2887.00,0.0485
2886.00,0.0485
2885.00,0.0484
2884.00,0.0484
2883.00,0.0484
2882.00,0.0484
2881.00,0.0483
2880.00,0.0482
2879.00,0.0481
2878.00,0.0481
2877.00,0.0480
2876.00,0.0479
2875.00,0.0478
2874.00,0.0477
2873.00,0.0476
2872.00,0.0476
2871.00,0.0475
2870.00,0.0475
2869.00,0.0474
2868.00,0.0474
2867.00,0.0473
2866.00,0.0472
2865.00,0.0471
2864.00,0.0471
2863.00,0.0470
2862.00,0.0469
2861.00,0.0468
2860.00,0.0467
2859.00,0.0467
2858.00,0.0466
2857.00,0.0465
2856.00,0.0464
2855.00,0.0463
2854.00,0.0463
2853.00,0.0463
2852.00,0.0463
2851.00,0.0462
2850.00,0.0462
2849.00,0.0462
2848.00,0.0462
2847.00,0.0463
2846.00,0.0463
2845.00,0.0464
2844.00,0.0464
2843.00,0.0465
2842.00,0.0465
2841.00,0.0466
2840.00,0.0466
2839.00,0.0466
2838.00,0.0466
2837.00,0.0466
2836.00,0.0466
2835.00,0.0466
2834.00,0.0465
2833.00,0.0465
2832.00,0.0465
2831.00,0.0465
2830.00,0.0465
2829.00,0.0465
2828.00,0.0464
2827.00,0.0464
2826.00,0.0464
2825.00,0.0463
2824.00,0.0462
2823.00,0.0462
2822.00,0.0461
2821.00,0.0461
2820.00,0.0461
2819.00,0.0461
2818.00,0.0461
2817.00,0.0461
2816.00,0.0460
2815.00,0.0460
2814.00,0.0460
2813.00,0.0460
2812.00,0.0459
2811.00,0.0459
2810.00,0.0459
2809.00,0.0458
2808.00,0.0458
2807.00,0.0458
2806.00,0.0457
2805.00,0.0457
2804.00,0.0457
2803.00,0.0456
2802.00,0.0456
2801.00,0.0456
2800.00,0.0455
2799.00,0.0455
2798.00,0.0454
2797.00,0.0454
2796.00,0.0454
2795.00,0.0453
2794.00,0.0453
2793.00,0.0452
2792.00,0.0452
2791.00,0.0452
2790.00,0.0452
2789.00,0.0452
2788.00,0.0452
2787.00,0.0451
2786.00,0.0451
2785.00,0.0451
2784.00,0.0450
2783.00,0.0450
2782.00,0.0450
2781.00,0.0449
2780.00,0.0449
2779.00,0.0448
2778.00,0.0449
2777.00,0.0449
2776.00,0.0449
2775.00,0.0449
2774.00,0.0449
2773.00,0.0448
2772.00,0.0447
2771.00,0.0447
2770.00,0.0446
2769.00,0.0446
2768.00,0.0445
2767.00,0.0445
2766.00,0.0444
2765.00,0.0444
2764.00,0.0444
2763.00,0.0444
2762.00,0.0444
2761.00,0.0443
2760.00,0.0443
2759.00,0.0443
2758.00,0.0442
2757.00,0.0442
2756.00,0.0442
2755.00,0.0441
2754.00,0.0441
2753.00,0.0441
2752.00,0.0441
2751.00,0.0441
2750.00,0.0441
2749.00,0.0441
2748.00,0.0441
2747.00,0.0440
2746.00,0.0439
2745.00,0.0439
2744.00,0.0438
2743.00,0.0438
2742.00,0.0438
2741.00,0.0438
2740.00,0.0438
2739.00,0.0437
2738.00,0.0437
2737.00,0.0436
2736.00,0.0436
2735.00,0.0435
2734.00,0.0435
2733.00,0.0435
2732.00,0.0435
2731.00,0.0435
2730.00,0.0435
2729.00,0.0435
2728.00,0.0435
2727.00,0.0434
2726.00,0.0434
2725.00,0.0433
2724.00,0.0433
2723.00,0.0432
2722.00,0.0432
2721.00,0.0432
2720.00,0.0432
2719.00,0.0432
2718.00,0.0432
2717.00,0.0431
2716.00,0.0431
2715.00,0.0431
2714.00,0.0431
2713.00,0.0431
2712.00,0.0430
2711.00,0.0430
2710.00,0.0430
2709.00,0.0430
2708.00,0.0429
2707.00,0.0429
2706.00,0.0428
2705.00,0.0428
2704.00,0.0427
2703.00,0.0427
2702.00,0.0427
2701.00,0.0427
2700.00,0.0426
2699.00,0.0426
2698.00,0.0426
2697.00,0.0426
2696.00,0.0425
2695.00,0.0425
2694.00,0.0425
2693.00,0.0425
2692.00,0.0425
2691.00,0.0425
2690.00,0.0424
2689.00,0.0424
2688.00,0.0423
2687.00,0.0423
2686.00,0.0423
2685.00,0.0422
2684.00,0.0422
2683.00,0.0421
2682.00,0.0421
2681.00,0.0421
2680.00,0.0421
2679.00,0.0421
2678.00,0.0421
2677.00,0.0421
2676.00,0.0421
2675.00,0.0421
2674.00,0.0421
2673.00,0.0421
2672.00,0.0420
2671.00,0.0420
2670.00,0.0419
2669.00,0.0419
2668.00,0.0419
2667.00,0.0418
2666.00,0.0418
2665.00,0.0418
2664.00,0.0418
2663.00,0.0418
2662.00,0.0418
2661.00,0.0418
2660.00,0.0418
2659.00,0.0418
2658.00,0.0418
2657.00,0.0418
2656.00,0.0418
2655.00,0.0418
2654.00,0.0419
2653.00,0.0419
2652.00,0.0419
2651.00,0.0419
2650.00,0.0419
2649.00,0.0419
2648.00,0.0419
2647.00,0.0419
2646.00,0.0419
2645.00,0.0418
2644.00,0.0419
2643.00,0.0419
2642.00,0.0419
2641.00,0.0419
2640.00,0.0419
2639.00,0.0418
2638.00,0.0418
2637.00,0.0418
2636.00,0.0418
2635.00,0.0418
2634.00,0.0418
2633.00,0.0418
2632.00,0.0418
2631.00,0.0417
2630.00,0.0417
2629.00,0.0417
2628.00,0.0417
2627.00,0.0417
2626.00,0.0417
2625.00,0.0417
2624.00,0.0417
2623.00,0.0417
2622.00,0.0416
2621.00,0.0416
2620.00,0.0416
2619.00,0.0416
2618.00,0.0417
2617.00,0.0417
2616.00,0.0417
2615.00,0.0417
2614.00,0.0417
2613.00,0.0417
2612.00,0.0417
2611.00,0.0417
2610.00,0.0416
2609.00,0.0416
2608.00,0.0416
2607.00,0.0416
2606.00,0.0416
2605.00,0.0416
2604.00,0.0416
2603.00,0.0416
2602.00,0.0415
2601.00,0.0415
2600.00,0.0416
2599.00,0.0416
2598.00,0.0417
2597.00,0.0417
2596.00,0.0417
2595.00,0.0416
2594.00,0.0416
2593.00,0.0416
2592.00,0.0417
2591.00,0.0417
2590.00,0.0416
2589.00,0.0416
2588.00,0.0415
2587.00,0.0414
2586.00,0.0413
2585.00,0.0413
2584.00,0.0413
2583.00,0.0414
2582.00,0.0414
2581.00,0.0414
2580.00,0.0414
2579.00,0.0414
2578.00,0.0414
2577.00,0.0415
2576.00,0.0415
2575.00,0.0415
2574.00,0.0414
2573.00,0.0414
2572.00,0.0413
2571.00,0.0413
2570.00,0.0413
2569.00,0.0413
2568.00,0.0413
2567.00,0.0413
2566.00,0.0413
2565.00,0.0414
2564.00,0.0414
2563.00,0.0414
2562.00,0.0413
2561.00,0.0413
2560.00,0.0412
2559.00,0.0412
2558.00,0.0412
2557.00,0.0412
2556.00,0.0412
2555.00,0.0413
2554.00,0.0413
2553.00,0.0414
2552.00,0.0413
2551.00,0.0413
2550.00,0.0413
2549.00,0.0412
2548.00,0.0412
2547.00,0.0412
2546.00,0.0411
2545.00,0.0411
2544.00,0.0411
2543.00,0.0411
2542.00,0.0411
2541.00,0.0412
2540.00,0.0412
2539.00,0.0413
2538.00,0.0413
2537.00,0.0413
2536.00,0.0413
2535.00,0.0413
2534.00,0.0413
2533.00,0.0412
2532.00,0.0412
2531.00,0.0411
2530.00,0.0412
2529.00,0.0412
2528.00,0.0412
2527.00,0.0411
2526.00,0.0411
2525.00,0.0411
2524.00,0.0411
2523.00,0.0410
2522.00,0.0410
2521.00,0.0410
2520.00,0.0410
2519.00,0.0410
2518.00,0.0410
2517.00,0.0409
2516.00,0.0409
2515.00,0.0409
2514.00,0.0409
2513.00,0.0410
2512.00,0.0410
2511.00,0.0410
2510.00,0.0409
2509.00,0.0408
2508.00,0.0408
2507.00,0.0407
2506.00,0.0407
2505.00,0.0407
2504.00,0.0407
2503.00,0.0408
2502.00,0.0408
2501.00,0.0408
2500.00,0.0407
2499.00,0.0407
2498.00,0.0406
2497.00,0.0406
2496.00,0.0406
2495.00,0.0407
2494.00,0.0407
2493.00,0.0408
2492.00,0.0408
2491.00,0.0408
2490.00,0.0407
2489.00,0.0407
2488.00,0.0407
2487.00,0.0406
2486.00,0.0406
2485.00,0.0405
2484.00,0.0405
2483.00,0.0405
2482.00,0.0405
2481.00,0.0406
2480.00,0.0406
2479.00,0.0406
2478.00,0.0406
2477.00,0.0406
2476.00,0.0406
2475.00,0.0406
2474.00,0.0406
2473.00,0.0405
2472.00,0.0405
2471.00,0.0405
2470.00,0.0404
2469.00,0.0404
2468.00,0.0404
2467.00,0.0404
2466.00,0.0403
2465.00,0.0403
2464.00,0.0403
2463.00,0.0403
2462.00,0.0403
2461.00,0.0403
2460.00,0.0403
2459.00,0.0404
2458.00,0.0404
2457.00,0.0404
2456.00,0.0403
2455.00,0.0403
2454.00,0.0403
2453.00,0.0403
2452.00,0.0404
2451.00,0.0404
2450.00,0.0403
2449.00,0.0402
2448.00,0.0401
2447.00,0.0401
2446.00,0.0400
2445.00,0.0400
2444.00,0.0400
2443.00,0.0400
2442.00,0.0400
2441.00,0.0400
2440.00,0.0400
2439.00,0.0400
2438.00,0.0399
2437.00,0.0399
2436.00,0.0399
2435.00,0.0399
2434.00,0.0399
2433.00,0.0399
2432.00,0.0399
2431.00,0.0399
2430.00,0.0399
2429.00,0.0399
2428.00,0.0398
2427.00,0.0398
2426.00,0.0397
2425.00,0.0397
2424.00,0.0397
2423.00,0.0397
2422.00,0.0396
2421.00,0.0396
2420.00,0.0395
2419.00,0.0395
2418.00,0.0395
2417.00,0.0396
2416.00,0.0396
2415.00,0.0396
2414.00,0.0396
2413.00,0.0396
2412.00,0.0396
2411.00,0.0395
2410.00,0.0395
2409.00,0.0395
2408.00,0.0394
2407.00,0.0394
2406.00,0.0394
2405.00,0.0393
2404.00,0.0393
2403.00,0.0392
2402.00,0.0392
2401.00,0.0392
2400.00,0.0392
2399.00,0.0392
2398.00,0.0391
2397.00,0.0391
2396.00,0.0391
2395.00,0.0391
2394.00,0.0390
2393.00,0.0390
2392.00,0.0390
2391.00,0.0389
2390.00,0.0388
2389.00,0.0386
2388.00,0.0384
2387.00,0.0382
2386.00,0.0380
2385.00,0.0377
2384.00,0.0375
2383.00,0.0373
2382.00,0.0372
2381.00,0.0372
2380.00,0.0373
2379.00,0.0374
2378.00,0.0376
2377.00,0.0378
2376.00,0.0379
2375.00,0.0381
2374.00,0.0381
2373.00,0.0381
2372.00,0.0380
2371.00,0.0379
2370.00,0.0378
2369.00,0.0377
2368.00,0.0376
2367.00,0.0377
2366.00,0.0377
2365.00,0.0378
2364.00,0.0380
2363.00,0.0381
2362.00,0.0384
2361.00,0.0387
2360.00,0.0390
2359.00,0.0392
2358.00,0.0394
2357.00,0.0395
2356.00,0.0393
2355.00,0.0389
2354.00,0.0383
2353.00,0.0379
2352.00,0.0379
2351.00,0.0381
2350.00,0.0382
2349.00,0.0378
2348.00,0.0372
2347.00,0.0367
2346.00,0.0367
2345.00,0.0372
2344.00,0.0377
2343.00,0.0380
2342.00,0.0381
2341.00,0.0381
2340.00,0.0381
2339.00,0.0381
2338.00,0.0381
2337.00,0.0381
2336.00,0.0381
2335.00,0.0381
2334.00,0.0380
2333.00,0.0380
2332.00,0.0380
2331.00,0.0382
2330.00,0.0383
2329.00,0.0385
2328.00,0.0386
2327.00,0.0386
2326.00,0.0385
2325.00,0.0384
2324.00,0.0384
2323.00,0.0385
2322.00,0.0386
2321.00,0.0386
2320.00,0.0385
2319.00,0.0384
2318.00,0.0383
2317.00,0.0382
2316.00,0.0380
2315.00,0.0379
2314.00,0.0378
2313.00,0.0378
2312.00,0.0378
2311.00,0.0377
2310.00,0.0377
2309.00,0.0376
2308.00,0.0376
2307.00,0.0376
2306.00,0.0376
2305.00,0.0376
2304.00,0.0375
2303.00,0.0375
2302.00,0.0375
2301.00,0.0375
2300.00,0.0375
2299.00,0.0375
2298.00,0.0376
2297.00,0.0376
2296.00,0.0376
2295.00,0.0376
2294.00,0.0376
2293.00,0.0377
2292.00,0.0377
2291.00,0.0378
2290.00,0.0377
2289.00,0.0377
2288.00,0.0376
2287.00,0.0376
2286.00,0.0376
2285.00,0.0376
2284.00,0.0376
2283.00,0.0376
2282.00,0.0376
2281.00,0.0377
2280.00,0.0377
2279.00,0.0377
2278.00,0.0377
2277.00,0.0377
2276.00,0.0377
2275.00,0.0377
2274.00,0.0377
2273.00,0.0377
2272.00,0.0377
2271.00,0.0376
2270.00,0.0375
2269.00,0.0374
2268.00,0.0374
2267.00,0.0373
2266.00,0.0373
2265.00,0.0373
2264.00,0.0373
2263.00,0.0373
2262.00,0.0373
2261.00,0.0373
2260.00,0.0373
2259.00,0.0373
2258.00,0.0374
2257.00,0.0375
2256.00,0.0375
2255.00,0.0375
2254.00,0.0374
2253.00,0.0373
2252.00,0.0372
2251.00,0.0372
2250.00,0.0372
2249.00,0.0372
2248.00,0.0372
2247.00,0.0372
2246.00,0.0371
2245.00,0.0370
2244.00,0.0370
2243.00,0.0371
2242.00,0.0373
2241.00,0.0374
2240.00,0.0374
2239.00,0.0373
2238.00,0.0373
2237.00,0.0373
2236.00,0.0373
2235.00,0.0373
2234.00,0.0373
2233.00,0.0373
2232.00,0.0373
2231.00,0.0373
2230.00,0.0373
2229.00,0.0374
2228.00,0.0374
2227.00,0.0374
2226.00,0.0373
2225.00,0.0372
2224.00,0.0370
2223.00,0.0369
2222.00,0.0370
2221.00,0.0370
2220.00,0.0370
2219.00,0.0370
2218.00,0.0370
2217.00,0.0371
2216.00,0.0372
2215.00,0.0373
2214.00,0.0374
2213.00,0.0374
2212.00,0.0372
2211.00,0.0370
2210.00,0.0369
2209.00,0.0368
2208.00,0.0368
2207.00,0.0368
2206.00,0.0368
2205.00,0.0369
2204.00,0.0370
2203.00,0.0371
2202.00,0.0371
2201.00,0.0371
2200.00,0.0371
2199.00,0.0371
2198.00,0.0371
2197.00,0.0371
2196.00,0.0370
2195.00,0.0370
2194.00,0.0369
2193.00,0.0368
2192.00,0.0367
2191.00,0.0367
2190.00,0.0368
2189.00,0.0369
2188.00,0.0369
2187.00,0.0368
2186.00,0.0366
2185.00,0.0366
2184.00,0.0366
2183.00,0.0367
2182.00,0.0368
2181.00,0.0369
2180.00,0.0370
2179.00,0.0371
2178.00,0.0371
2177.00,0.0370
2176.00,0.0368
2175.00,0.0367
2174.00,0.0366
2173.00,0.0366
2172.00,0.0366
2171.00,0.0364
2170.00,0.0363
2169.00,0.0363
2168.00,0.0364
2167.00,0.0365
2166.00,0.0367
2165.00,0.0369
2164.00,0.0371
2163.00,0.0372
2162.00,0.0373
2161.00,0.0371
2160.00,0.0366
2159.00,0.0362
2158.00,0.0359
2157.00,0.0359
2156.00,0.0360
2155.00,0.0361
2154.00,0.0362
2153.00,0.0361
2152.00,0.0359
2151.00,0.0357
2150.00,0.0356
2149.00,0.0355
2148.00,0.0354
2147.00,0.0353
2146.00,0.0353
2145.00,0.0353
2144.00,0.0353
2143.00,0.0354
2142.00,0.0355
2141.00,0.0355
2140.00,0.0354
2139.00,0.0352
2138.00,0.0350
2137.00,0.0349
2136.00,0.0348
2135.00,0.0347
2134.00,0.0346
2133.00,0.0346
2132.00,0.0346
2131.00,0.0346
2130.00,0.0345
2129.00,0.0344
2128.00,0.0344
2127.00,0.0343
2126.00,0.0343
2125.00,0.0344
2124.00,0.0344
2123.00,0.0345
2122.00,0.0345
2121.00,0.0346
2120.00,0.0346
2119.00,0.0347
2118.00,0.0348
2117.00,0.0349
2116.00,0.0348
2115.00,0.0347
2114.00,0.0346
2113.00,0.0345
2112.00,0.0345
2111.00,0.0344
2110.00,0.0344
2109.00,0.0344
2108.00,0.0344
2107.00,0.0343
2106.00,0.0342
2105.00,0.0342
2104.00,0.0342
2103.00,0.0342
2102.00,0.0343
2101.00,0.0342
2100.00,0.0342
2099.00,0.0343
2098.00,0.0343
2097.00,0.0343
2096.00,0.0342
2095.00,0.0341
2094.00,0.0341
2093.00,0.0341
2092.00,0.0341
2091.00,0.0341
2090.00,0.0341
2089.00,0.0340
2088.00,0.0339
2087.00,0.0338
2086.00,0.0338
2085.00,0.0339
2084.00,0.0339
2083.00,0.0340
2082.00,0.0340
2081.00,0.0339
2080.00,0.0338
2079.00,0.0337
2078.00,0.0338
2077.00,0.0339
2076.00,0.0340
2075.00,0.0340
2074.00,0.0339
2073.00,0.0338
2072.00,0.0336
2071.00,0.0336
2070.00,0.0336
2069.00,0.0336
2068.00,0.0337
2067.00,0.0337
2066.00,0.0337
2065.00,0.0336
2064.00,0.0335
2063.00,0.0335
2062.00,0.0336
2061.00,0.0338
2060.00,0.0339
2059.00,0.0340
2058.00,0.0340
2057.00,0.0339
2056.00,0.0339
2055.00,0.0338
2054.00,0.0338
2053.00,0.0338
2052.00,0.0338
2051.00,0.0338
2050.00,0.0338
2049.00,0.0337
2048.00,0.0336
2047.00,0.0336
2046.00,0.0337
2045.00,0.0338
2044.00,0.0337
2043.00,0.0337
2042.00,0.0337
2041.00,0.0337
2040.00,0.0338
2039.00,0.0338
2038.00,0.0338
2037.00,0.0338
2036.00,0.0338
2035.00,0.0336
2034.00,0.0334
2033.00,0.0331
2032.00,0.0330
2031.00,0.0330
2030.00,0.0331
2029.00,0.0333
2028.00,0.0333
2027.00,0.0332
2026.00,0.0331
2025.00,0.0330
2024.00,0.0329
2023.00,0.0328
2022.00,0.0329
2021.00,0.0329
2020.00,0.0330
2019.00,0.0329
2018.00,0.0328
2017.00,0.0327
2016.00,0.0326
2015.00,0.0327
2014.00,0.0329
2013.00,0.0330
2012.00,0.0329
2011.00,0.0327
2010.00,0.0325
2009.00,0.0322
2008.00,0.0321
2007.00,0.0320
2006.00,0.0320
2005.00,0.0321
2004.00,0.0322
2003.00,0.0322
2002.00,0.0323
2001.00,0.0323
2000.00,0.0324
1999.00,0.0325
1998.00,0.0326
1997.00,0.0326
1996.00,0.0326
1995.00,0.0325
1994.00,0.0324
1993.00,0.0324
1992.00,0.0324
1991.00,0.0323
1990.00,0.0322
1989.00,0.0321
1988.00,0.0320
1987.00,0.0318
1986.00,0.0318
1985.00,0.0318
1984.00,0.0319
1983.00,0.0319
1982.00,0.0321
1981.00,0.0323
1980.00,0.0323
1979.00,0.0322
1978.00,0.0321
1977.00,0.0320
1976.00,0.0320
1975.00,0.0318
1974.00,0.0317
1973.00,0.0316
1972.00,0.0316
1971.00,0.0317
1970.00,0.0318
1969.00,0.0318
1968.00,0.0318
1967.00,0.0316
1966.00,0.0313
1965.00,0.0311
1964.00,0.0311
1963.00,0.0312
1962.00,0.0313
1961.00,0.0313
1960.00,0.0311
1959.00,0.0308
1958.00,0.0307
1957.00,0.0306
1956.00,0.0304
1955.00,0.0302
1954.00,0.0301
1953.00,0.0301
1952.00,0.0302
1951.00,0.0302
1950.00,0.0301
1949.00,0.0301
1948.00,0.0301
1947.00,0.0301
1946.00,0.0302
1945.00,0.0303
1944.00,0.0303
1943.00,0.0301
1942.00,0.0299
1941.00,0.0297
1940.00,0.0297
1939.00,0.0297
1938.00,0.0297
1937.00,0.0298
1936.00,0.0297
1935.00,0.0297
1934.00,0.0297
1933.00,0.0296
1932.00,0.0296
1931.00,0.0295
1930.00,0.0294
1929.00,0.0293
1928.00,0.0292
1927.00,0.0292
1926.00,0.0293
1925.00,0.0295
1924.00,0.0295
1923.00,0.0294
1922.00,0.0292
1921.00,0.0291
1920.00,0.0292
1919.00,0.0291
1918.00,0.0290
1917.00,0.0288
1916.00,0.0286
1915.00,0.0286
1914.00,0.0285
1913.00,0.0285
1912.00,0.0285
1911.00,0.0285
1910.00,0.0285
1909.00,0.0283
1908.00,0.0282
1907.00,0.0280
1906.00,0.0279
1905.00,0.0279
1904.00,0.0279
1903.00,0.0279
1902.00,0.0278
1901.00,0.0278
1900.00,0.0278
1899.00,0.0277
1898.00,0.0276
1897.00,0.0276
1896.00,0.0275
1895.00,0.0275
1894.00,0.0274
1893.00,0.0275
1892.00,0.0276
1891.00,0.0275
1890.00,0.0273
1889.00,0.0271
1888.00,0.0269
1887.00,0.0268
1886.00,0.0268
1885.00,0.0268
1884.00,0.0267
1883.00,0.0266
1882.00,0.0266
1881.00,0.0266
1880.00,0.0265
1879.00,0.0265
1878.00,0.0263
1877.00,0.0263
1876.00,0.0262
1875.00,0.0261
1874.00,0.0262
1873.00,0.0263
1872.00,0.0265
1871.00,0.0266
1870.00,0.0265
1869.00,0.0261
1868.00,0.0258
1867.00,0.0257
1866.00,0.0257
1865.00,0.0257
1864.00,0.0257
1863.00,0.0256
1862.00,0.0255
1861.00,0.0255
1860.00,0.0254
1859.00,0.0253
1858.00,0.0252
1857.00,0.0252
1856.00,0.0252
1855.00,0.0252
1854.00,0.0251
1853.00,0.0250
1852.00,0.0249
1851.00,0.0248
1850.00,0.0247
1849.00,0.0247
1848.00,0.0247
1847.00,0.0248
1846.00,0.0248
1845.00,0.0246
1844.00,0.0241
1843.00,0.0237
1842.00,0.0238
1841.00,0.0240
1840.00,0.0242
1839.00,0.0241
1838.00,0.0240
1837.00,0.0238
1836.00,0.0237
1835.00,0.0236
1834.00,0.0237
1833.00,0.0239
1832.00,0.0241
1831.00,0.0240
1830.00,0.0237
1829.00,0.0234
1828.00,0.0234
1827.00,0.0235
1826.00,0.0235
1825.00,0.0232
1824.00,0.0229
1823.00,0.0227
1822.00,0.0227
1821.00,0.0227
1820.00,0.0227
1819.00,0.0226
1818.00,0.0225
1817.00,0.0224
1816.00,0.0223
1815.00,0.0223
1814.00,0.0224
1813.00,0.0224
1812.00,0.0224
1811.00,0.0222
1810.00,0.0220
1809.00,0.0218
1808.00,0.0218
1807.00,0.0218
1806.00,0.0218
1805.00,0.0220
1804.00,0.0221
1803.00,0.0223
1802.00,0.0222
1801.00,0.0221
1800.00,0.0220
1799.00,0.0219
1798.00,0.0219
1797.00,0.0220
1796.00,0.0222
1795.00,0.0224
1794.00,0.0225
1793.00,0.0223
1792.00,0.0220
1791.00,0.0218
1790.00,0.0218
1789.00,0.0220
1788.00,0.0222
1787.00,0.0223
1786.00,0.0223
1785.00,0.0224
1784.00,0.0226
1783.00,0.0229
1782.00,0.0232
1781.00,0.0233
1780.00,0.0234
1779.00,0.0235
1778.00,0.0237
1777.00,0.0240
1776.00,0.0243
1775.00,0.0247
1774.00,0.0250
1773.00,0.0250
1772.00,0.0248
1771.00,0.0247
1770.00,0.0249
1769.00,0.0252
1768.00,0.0254
1767.00,0.0255
1766.00,0.0257
1765.00,0.0262
1764.00,0.0267
1763.00,0.0270
1762.00,0.0270
1761.00,0.0270
1760.00,0.0273
1759.00,0.0277
1758.00,0.0281
1757.00,0.0282
1756.00,0.0282
1755.00,0.0285
1754.00,0.0288
1753.00,0.0292
1752.00,0.0296
1751.00,0.0299
1750.00,0.0304
1749.00,0.0309
1748.00,0.0313
1747.00,0.0316
1746.00,0.0320
1745.00,0.0323
1744.00,0.0327
1743.00,0.0331
1742.00,0.0335
1741.00,0.0338
1740.00,0.0340
1739.00,0.0341
1738.00,0.0344
1737.00,0.0349
1736.00,0.0354
1735.00,0.0356
1734.00,0.0356
1733.00,0.0359
1732.00,0.0365
1731.00,0.0371
1730.00,0.0376
1729.00,0.0378
1728.00,0.0380
1727.00,0.0383
1726.00,0.0386
1725.00,0.0389
1724.00,0.0392
1723.00,0.0395
1722.00,0.0398
1721.00,0.0402
1720.00,0.0406
1719.00,0.0407
1718.00,0.0407
1717.00,0.0409
1716.00,0.0412
1715.00,0.0414
1714.00,0.0415
1713.00,0.0417
1712.00,0.0418
1711.00,0.0418
1710.00,0.0419
1709.00,0.0421
1708.00,0.0424
1707.00,0.0426
1706.00,0.0427
1705.00,0.0428
1704.00,0.0429
1703.00,0.0431
1702.00,0.0432
1701.00,0.0429
1700.00,0.0424
1699.00,0.0423
1698.00,0.0428
1697.00,0.0432
1696.00,0.0431
1695.00,0.0427
1694.00,0.0426
1693.00,0.0431
1692.00,0.0435
1691.00,0.0438
1690.00,0.0439
1689.00,0.0440
1688.00,0.0441
1687.00,0.0442
1686.00,0.0443
1685.00,0.0443
1684.00,0.0444
1683.00,0.0446
1682.00,0.0449
1681.00,0.0453
1680.00,0.0456
1679.00,0.0457
1678.00,0.0459
1677.00,0.0461
1676.00,0.0462
1675.00,0.0463
1674.00,0.0465
1673.00,0.0470
1672.00,0.0475
1671.00,0.0480
1670.00,0.0483
1669.00,0.0485
1668.00,0.0486
1667.00,0.0488
1666.00,0.0490
1665.00,0.0494
1664.00,0.0497
1663.00,0.0501
1662.00,0.0504
1661.00,0.0507
1660.00,0.0511
1659.00,0.0514
1658.00,0.0516
1657.00,0.0519
1656.00,0.0522
1655.00,0.0524
1654.00,0.0526
1653.00,0.0529
1652.00,0.0529
1651.00,0.0533
1650.00,0.0542
1649.00,0.0550
1648.00,0.0556
1647.00,0.0560
1646.00,0.0562
1645.00,0.0562
1644.00,0.0565
1643.00,0.0569
1642.00,0.0572
1641.00,0.0575
1640.00,0.0578
1639.00,0.0581
1638.00,0.0584
1637.00,0.0589
1636.00,0.0595
1635.00,0.0599
1634.00,0.0601
1633.00,0.0603
1632.00,0.0607
1631.00,0.0610
1630.00,0.0614
1629.00,0.0618
1628.00,0.0623
1627.00,0.0627
1626.00,0.0630
1625.00,0.0634
1624.00,0.0639
1623.00,0.0643
1622.00,0.0646
1621.00,0.0648
1620.00,0.0649
1619.00,0.0650
1618.00,0.0652
1617.00,0.0656
1616.00,0.0660
1615.00,0.0665
1614.00,0.0669
1613.00,0.0672
1612.00,0.0674
1611.00,0.0676
1610.00,0.0679
1609.00,0.0683
1608.00,0.0687
1607.00,0.0690
1606.00,0.0693
1605.00,0.0695
1604.00,0.0698
1603.00,0.0702
1602.00,0.0706
1601.00,0.0708
1600.00,0.0710
1599.00,0.0712
1598.00,0.0713
1597.00,0.0716
1596.00,0.0719
1595.00,0.0723
1594.00,0.0726
1593.00,0.0728
1592.00,0.0729
1591.00,0.0732
1590.00,0.0734
1589.00,0.0737
1588.00,0.0738
1587.00,0.0740
1586.00,0.0742
1585.00,0.0743
1584.00,0.0745
1583.00,0.0747
1582.00,0.0749
1581.00,0.0750
1580.00,0.0750
1579.00,0.0751
1578.00,0.0751
1577.00,0.0753
1576.00,0.0757
1575.00,0.0759
1574.00,0.0760
1573.00,0.0761
1572.00,0.0761
1571.00,0.0761
1570.00,0.0764
1569.00,0.0766
1568.00,0.0766
1567.00,0.0765
1566.00,0.0765
1565.00,0.0764
1564.00,0.0762
1563.00,0.0759
1562.00,0.0756
1561.00,0.0751
1560.00,0.0749
1559.00,0.0762
1558.00,0.0768
1557.00,0.0763
1556.00,0.0759
1555.00,0.0757
1554.00,0.0754
1553.00,0.0751
1552.00,0.0750
1551.00,0.0750
1550.00,0.0749
1549.00,0.0745
1548.00,0.0741
1547.00,0.0737
1546.00,0.0734
1545.00,0.0732
1544.00,0.0732
1543.00,0.0730
1542.00,0.0726
1541.00,0.0723
1540.00,0.0723
1539.00,0.0718
1538.00,0.0711
1537.00,0.0707
1536.00,0.0706
1535.00,0.0704
1534.00,0.0703
1533.00,0.0701
1532.00,0.0698
1531.00,0.0693
1530.00,0.0689
1529.00,0.0685
1528.00,0.0683
1527.00,0.0680
1526.00,0.0678
1525.00,0.0674
1524.00,0.0671
1523.00,0.0668
1522.00,0.0665
1521.00,0.0663
1520.00,0.0661
1519.00,0.0660
1518.00,0.0660
1517.00,0.0658
1516.00,0.0655
1515.00,0.0649
1514.00,0.0644
1513.00,0.0640
1512.00,0.0637
1511.00,0.0635
1510.00,0.0634
1509.00,0.0633
1508.00,0.0634
1507.00,0.0633
1506.00,0.0626
1505.00,0.0616
1504.00,0.0612
1503.00,0.0612
1502.00,0.0610
1501.00,0.0608
1500.00,0.0605
1499.00,0.0603
1498.00,0.0600
1497.00,0.0598
1496.00,0.0598
1495.00,0.0597
1494.00,0.0597
1493.00,0.0597
1492.00,0.0599
1491.00,0.0600
1490.00,0.0603
1489.00,0.0604
1488.00,0.0603
1487.00,0.0600
1486.00,0.0596
1485.00,0.0593
1484.00,0.0592
1483.00,0.0591
1482.00,0.0591
1481.00,0.0591
1480.00,0.0591
1479.00,0.0591
1478.00,0.0591
1477.00,0.0592
1476.00,0.0593
1475.00,0.0594
1474.00,0.0595
1473.00,0.0596
1472.00,0.0596
1471.00,0.0595
1470.00,0.0593
1469.00,0.0593
1468.00,0.0594
1467.00,0.0595
1466.00,0.0596
1465.00,0.0597
1464.00,0.0599
1463.00,0.0599
1462.00,0.0600
1461.00,0.0600
1460.00,0.0601
1459.00,0.0602
1458.00,0.0603
1457.00,0.0605
1456.00,0.0605
1455.00,0.0605
1454.00,0.0607
1453.00,0.0609
1452.00,0.0610
1451.00,0.0611
1450.00,0.0613
1449.00,0.0615
1448.00,0.0617
1447.00,0.0619
1446.00,0.0619
1445.00,0.0618
1444.00,0.0619
1443.00,0.0620
1442.00,0.0621
1441.00,0.0621
1440.00,0.0622
1439.00,0.0623
1438.00,0.0624
1437.00,0.0626
1436.00,0.0629
1435.00,0.0631
1434.00,0.0633
1433.00,0.0634
1432.00,0.0636
1431.00,0.0638
1430.00,0.0639
1429.00,0.0640
1428.00,0.0641
1427.00,0.0641
1426.00,0.0642
1425.00,0.0644
1424.00,0.0646
1423.00,0.0648
1422.00,0.0648
1421.00,0.0648
1420.00,0.0650
1419.00,0.0654
1418.00,0.0658
1417.00,0.0660
1416.00,0.0661
1415.00,0.0661
1414.00,0.0660
1413.00,0.0661
1412.00,0.0662
1411.00,0.0665
1410.00,0.0666
1409.00,0.0667
1408.00,0.0668
1407.00,0.0670
1406.00,0.0672
1405.00,0.0675
1404.00,0.0678
1403.00,0.0680
1402.00,0.0681
1401.00,0.0683
1400.00,0.0687
1399.00,0.0691
1398.00,0.0694
1397.00,0.0697
1396.00,0.0700
1395.00,0.0702
1394.00,0.0703
1393.00,0.0703
1392.00,0.0703
1391.00,0.0703
1390.00,0.0704
1389.00,0.0706
1388.00,0.0709
1387.00,0.0713
1386.00,0.0716
1385.00,0.0717
1384.00,0.0718
1383.00,0.0719
1382.00,0.0720
1381.00,0.0721
1380.00,0.0722
1379.00,0.0723
1378.00,0.0724
1377.00,0.0724
1376.00,0.0726
1375.00,0.0728
1374.00,0.0730
1373.00,0.0730
1372.00,0.0728
1371.00,0.0727
1370.00,0.0727
1369.00,0.0728
1368.00,0.0728
1367.00,0.0728
1366.00,0.0727
1365.00,0.0726
1364.00,0.0728
1363.00,0.0730
1362.00,0.0731
1361.00,0.0730
1360.00,0.0729
1359.00,0.0727
1358.00,0.0726
1357.00,0.0725
1356.00,0.0723
1355.00,0.0723
1354.00,0.0722
1353.00,0.0721
1352.00,0.0719
1351.00,0.0718
1350.00,0.0717
1349.00,0.0716
1348.00,0.0715
1347.00,0.0715
1346.00,0.0714
1345.00,0.0713
1344.00,0.0711
1343.00,0.0710
1342.00,0.0710
1341.00,0.0711
1340.00,0.0712
1339.00,0.0712
1338.00,0.0712
1337.00,0.0710
1336.00,0.0707
1335.00,0.0705
1334.00,0.0703
1333.00,0.0702
1332.00,0.0700
1331.00,0.0699
1330.00,0.0698
1329.00,0.0697
1328.00,0.0696
1327.00,0.0695
1326.00,0.0694
1325.00,0.0693
1324.00,0.0692
1323.00,0.0692
1322.00,0.0691
1321.00,0.0691
1320.00,0.0691
1319.00,0.0691
1318.00,0.0691
1317.00,0.0691
1316.00,0.0691
1315.00,0.0691
1314.00,0.0691
1313.00,0.0690
1312.00,0.0690
1311.00,0.0689
1310.00,0.0688
1309.00,0.0687
1308.00,0.0688
1307.00,0.0688
1306.00,0.0687
1305.00,0.0687
1304.00,0.0687
1303.00,0.0687
1302.00,0.0688
1301.00,0.0688
1300.00,0.0688
1299.00,0.0689
1298.00,0.0688
1297.00,0.0688
1296.00,0.0688
1295.00,0.0687
1294.00,0.0688
1293.00,0.0688
1292.00,0.0689
1291.00,0.0690
1290.00,0.0691
1289.00,0.0692
1288.00,0.0692
1287.00,0.0693
1286.00,0.0693
1285.00,0.0693
1284.00,0.0693
1283.00,0.0694
1282.00,0.0695
1281.00,0.0696
1280.00,0.0697
1279.00,0.0698
1278.00,0.0698
1277.00,0.0699
1276.00,0.0700
1275.00,0.0701
1274.00,0.0702
1273.00,0.0703
1272.00,0.0703
1271.00,0.0704
1270.00,0.0705
1269.00,0.0705
1268.00,0.0706
1267.00,0.0707
1266.00,0.0707
1265.00,0.0707
1264.00,0.0707
1263.00,0.0707
1262.00,0.0707
1261.00,0.0708
1260.00,0.0710
1259.00,0.0711
1258.00,0.0712
1257.00,0.0713
1256.00,0.0713
1255.00,0.0714
1254.00,0.0716
1253.00,0.0717
1252.00,0.0718
1251.00,0.0718
1250.00,0.0718
1249.00,0.0719
1248.00,0.0719
1247.00,0.0719
1246.00,0.0719
1245.00,0.0719
1244.00,0.0719
1243.00,0.0719
1242.00,0.0719
1241.00,0.0719
1240.00,0.0719
1239.00,0.0718
1238.00,0.0718
1237.00,0.0717
1236.00,0.0717
1235.00,0.0717
1234.00,0.0716
1233.00,0.0716
1232.00,0.0715
1231.00,0.0715
1230.00,0.0715
1229.00,0.0714
1228.00,0.0713
1227.00,0.0712
1226.00,0.0712
1225.00,0.0712
1224.00,0.0711
1223.00,0.0711
1222.00,0.0710
1221.00,0.0708
1220.00,0.0707
1219.00,0.0706
1218.00,0.0705
1217.00,0.0704
1216.00,0.0704
1215.00,0.0703
1214.00,0.0702
1213.00,0.0701
1212.00,0.0701
1211.00,0.0701
1210.00,0.0700
1209.00,0.0699
1208.00,0.0699
1207.00,0.0698
1206.00,0.0698
1205.00,0.0698
1204.00,0.0697
1203.00,0.0696
1202.00,0.0695
1201.00,0.0694
1200.00,0.0694
1199.00,0.0693
1198.00,0.0693
1197.00,0.0692
1196.00,0.0691
1195.00,0.0691
1194.00,0.0691
1193.00,0.0691
1192.00,0.0690
1191.00,0.0690
1190.00,0.0689
1189.00,0.0689
1188.00,0.0689
1187.00,0.0689
1186.00,0.0689
1185.00,0.0689
1184.00,0.0689
1183.00,0.0689
1182.00,0.0688
1181.00,0.0688
1180.00,0.0688
1179.00,0.0688
1178.00,0.0688
1177.00,0.0688
1176.00,0.0688
1175.00,0.0688
1174.00,0.0687
1173.00,0.0686
1172.00,0.0686
1171.00,0.0685
1170.00,0.0685
1169.00,0.0685
1168.00,0.0684
1167.00,0.0684
1166.00,0.0684
1165.00,0.0684
1164.00,0.0683
1163.00,0.0682
1162.00,0.0682
1161.00,0.0681
1160.00,0.0682
1159.00,0.0682
1158.00,0.0683
1157.00,0.0683
1156.00,0.0683
1155.00,0.0683
1154.00,0.0683
1153.00,0.0683
1152.00,0.0682
1151.00,0.0682
1150.00,0.0682
1149.00,0.0682
1148.00,0.0682
1147.00,0.0683
1146.00,0.0683
1145.00,0.0683
1144.00,0.0682
1143.00,0.0681
1142.00,0.0680
1141.00,0.0680
1140.00,0.0679
1139.00,0.0679
1138.00,0.0679
1137.00,0.0680
1136.00,0.0680
1135.00,0.0679
1134.00,0.0679
1133.00,0.0679
1132.00,0.0679
1131.00,0.0680
1130.00,0.0681
1129.00,0.0681
1128.00,0.0681
1127.00,0.0682
1126.00,0.0682
1125.00,0.0683
1124.00,0.0684
1123.00,0.0684
1122.00,0.0685
1121.00,0.0686
1120.00,0.0687
1119.00,0.0688
1118.00,0.0690
1117.00,0.0690
1116.00,0.0691
1115.00,0.0691
1114.00,0.0691
1113.00,0.0690
1112.00,0.0690
1111.00,0.0690
1110.00,0.0690
1109.00,0.0691
1108.00,0.0693
1107.00,0.0694
1106.00,0.0696
1105.00,0.0698
1104.00,0.0699
1103.00,0.0701
1102.00,0.0701
1101.00,0.0701
1100.00,0.0702
1099.00,0.0702
1098.00,0.0703
1097.00,0.0704
1096.00,0.0704
1095.00,0.0704
1094.00,0.0705
1093.00,0.0706
1092.00,0.0708
1091.00,0.0709
1090.00,0.0710
1089.00,0.0710
1088.00,0.0711
1087.00,0.0712
1086.00,0.0714
1085.00,0.0714
1084.00,0.0715
1083.00,0.0716
1082.00,0.0718
1081.00,0.0718
1080.00,0.0717
1079.00,0.0717
1078.00,0.0717
1077.00,0.0717
1076.00,0.0718
1075.00,0.0718
1074.00,0.0718
1073.00,0.0719
1072.00,0.0720
1071.00,0.0721
1070.00,0.0722
1069.00,0.0722
1068.00,0.0722
1067.00,0.0722
1066.00,0.0721
1065.00,0.0721
1064.00,0.0722
1063.00,0.0722
1062.00,0.0721
1061.00,0.0721
1060.00,0.0722
1059.00,0.0722
1058.00,0.0723
1057.00,0.0723
1056.00,0.0723
1055.00,0.0724
1054.00,0.0724
1053.00,0.0725
1052.00,0.0726
1051.00,0.0727
1050.00,0.0728
1049.00,0.0728
1048.00,0.0728
1047.00,0.0729
1046.00,0.0730
1045.00,0.0730
1044.00,0.0730
1043.00,0.0730
1042.00,0.0730
1041.00,0.0731
1040.00,0.0731
1039.00,0.0731
1038.00,0.0731
1037.00,0.0731
1036.00,0.0732
1035.00,0.0732
1034.00,0.0732
1033.00,0.0731
1032.00,0.0731
1031.00,0.0729
1030.00,0.0726
1029.00,0.0723
1028.00,0.0721
1027.00,0.0718
1026.00,0.0716
1025.00,0.0714
1024.00,0.0712
1023.00,0.0711
1022.00,0.0710
1021.00,0.0709
1020.00,0.0708
1019.00,0.0707
1018.00,0.0706
1017.00,0.0705
1016.00,0.0705
1015.00,0.0704
1014.00,0.0704
1013.00,0.0704
1012.00,0.0704
1011.00,0.0704
1010.00,0.0703
1009.00,0.0702
1008.00,0.0701
1007.00,0.0701
1006.00,0.0700
1005.00,0.0699
1004.00,0.0699
1003.00,0.0698
1002.00,0.0696
1001.00,0.0694
1000.00,0.0693
999.00,0.0690
998.00,0.0688
997.00,0.0685
996.00,0.0682
995.00,0.0679
994.00,0.0677
993.00,0.0676
992.00,0.0676
991.00,0.0674
990.00,0.0672
989.00,0.0669
988.00,0.0668
987.00,0.0667
986.00,0.0668
985.00,0.0668
984.00,0.0667
983.00,0.0666
982.00,0.0666
981.00,0.0665
980.00,0.0664
979.00,0.0664
978.00,0.0662
977.00,0.0661
976.00,0.0660
975.00,0.0660
974.00,0.0659
973.00,0.0659
972.00,0.0659
971.00,0.0660
970.00,0.0660
969.00,0.0661
968.00,0.0661
967.00,0.0661
966.00,0.0660
965.00,0.0659
964.00,0.0658
963.00,0.0658
962.00,0.0657
961.00,0.0656
960.00,0.0656
959.00,0.0656
958.00,0.0656
957.00,0.0655
956.00,0.0655
955.00,0.0656
954.00,0.0657
953.00,0.0657
952.00,0.0656
951.00,0.0656
950.00,0.0656
949.00,0.0657
948.00,0.0658
947.00,0.0659
946.00,0.0661
945.00,0.0662
944.00,0.0663
943.00,0.0663
942.00,0.0663
941.00,0.0664
940.00,0.0665
939.00,0.0666
938.00,0.0666
937.00,0.0666
936.00,0.0667
935.00,0.0668
934.00,0.0668
933.00,0.0668
932.00,0.0668
931.00,0.0667
930.00,0.0667
929.00,0.0668
928.00,0.0669
927.00,0.0671
926.00,0.0673
925.00,0.0674
924.00,0.0676
923.00,0.0678
922.00,0.0679
921.00,0.0680
920.00,0.0681
919.00,0.0682
918.00,0.0683
917.00,0.0685
916.00,0.0687
915.00,0.0688
914.00,0.0688
913.00,0.0688
912.00,0.0687
911.00,0.0686
910.00,0.0686
909.00,0.0687
908.00,0.0689
907.00,0.0690
906.00,0.0690
905.00,0.0690
904.00,0.0690
903.00,0.0690
902.00,0.0690
901.00,0.0691
900.00,0.0692
899.00,0.0692
898.00,0.0692
897.00,0.0691
896.00,0.0690
895.00,0.0689
894.00,0.0688
893.00,0.0688
892.00,0.0689
891.00,0.0690
890.00,0.0690
889.00,0.0690
888.00,0.0690
887.00,0.0690
886.00,0.0692
885.00,0.0693
884.00,0.0695
883.00,0.0695
882.00,0.0695
881.00,0.0695
880.00,0.0696
879.00,0.0696
878.00,0.0695
877.00,0.0694
876.00,0.0693
875.00,0.0693
874.00,0.0693
873.00,0.0693
872.00,0.0693
871.00,0.0692
870.00,0.0692
869.00,0.0692
868.00,0.0693
867.00,0.0693
866.00,0.0693
865.00,0.0693
864.00,0.0695
863.00,0.0696
862.00,0.0697
861.00,0.0698
860.00,0.0700
859.00,0.0701
858.00,0.0701
857.00,0.0701
856.00,0.0702
855.00,0.0704
854.00,0.0705
853.00,0.0705
852.00,0.0705
851.00,0.0706
850.00,0.0708
849.00,0.0710
848.00,0.0712
847.00,0.0715
846.00,0.0717
845.00,0.0720
844.00,0.0723
843.00,0.0725
842.00,0.0726
841.00,0.0727
840.00,0.0728
839.00,0.0731
838.00,0.0735
837.00,0.0738
836.00,0.0740
835.00,0.0741
834.00,0.0742
833.00,0.0744
832.00,0.0747
831.00,0.0750
830.00,0.0753
829.00,0.0755
828.00,0.0755
827.00,0.0754
826.00,0.0753
825.00,0.0754
824.00,0.0756
823.00,0.0759
822.00,0.0762
821.00,0.0765
820.00,0.0767
819.00,0.0768
818.00,0.0769
817.00,0.0769
816.00,0.0768
815.00,0.0768
814.00,0.0768
813.00,0.0768
812.00,0.0770
811.00,0.0773
810.00,0.0776
809.00,0.0780
808.00,0.0783
807.00,0.0784
806.00,0.0784
805.00,0.0785
804.00,0.0787
803.00,0.0789
802.00,0.0792
801.00,0.0794
800.00,0.0796
799.00,0.0796
798.00,0.0795
797.00,0.0796
796.00,0.0799
795.00,0.0802
794.00,0.0805
793.00,0.0806
792.00,0.0806
791.00,0.0808
790.00,0.0809
789.00,0.0811
788.00,0.0812
787.00,0.0815
786.00,0.0818
785.00,0.0822
784.00,0.0825
783.00,0.0827
782.00,0.0828
781.00,0.0828
780.00,0.0828
779.00,0.0828
778.00,0.0827
777.00,0.0828
776.00,0.0829
775.00,0.0831
774.00,0.0834
773.00,0.0837
772.00,0.0839
771.00,0.0840
770.00,0.0840
769.00,0.0841
768.00,0.0842
767.00,0.0842
766.00,0.0843
765.00,0.0843
764.00,0.0844
763.00,0.0846
762.00,0.0847
761.00,0.0849
760.00,0.0851
759.00,0.0852
758.00,0.0854
757.00,0.0855
756.00,0.0857
755.00,0.0859
754.00,0.0861
753.00,0.0863
752.00,0.0866
751.00,0.0869
750.00,0.0871
749.00,0.0873
748.00,0.0874
747.00,0.0875
746.00,0.0876
745.00,0.0877
744.00,0.0879
743.00,0.0879
742.00,0.0878
741.00,0.0877
740.00,0.0876
739.00,0.0875
738.00,0.0876
737.00,0.0878
736.00,0.0880
735.00,0.0882
734.00,0.0883
733.00,0.0883
732.00,0.0884
731.00,0.0887
730.00,0.0890
729.00,0.0891
728.00,0.0892
727.00,0.0893
726.00,0.0896
725.00,0.0900
724.00,0.0904
723.00,0.0906
722.00,0.0906
721.00,0.0907
720.00,0.0908
719.00,0.0909
718.00,0.0909
717.00,0.0908
716.00,0.0908
715.00,0.0910
714.00,0.0914
713.00,0.0920
712.00,0.0927
711.00,0.0931
710.00,0.0932
709.00,0.0931
708.00,0.0932
707.00,0.0934
706.00,0.0939
705.00,0.0945
704.00,0.0950
703.00,0.0953
702.00,0.0953
701.00,0.0954
700.00,0.0956
699.00,0.0958
698.00,0.0960
697.00,0.0962
696.00,0.0965
695.00,0.0966
694.00,0.0964
693.00,0.0962
692.00,0.0962
691.00,0.0965
690.00,0.0968
689.00,0.0970
688.00,0.0972
687.00,0.0975
686.00,0.0979
685.00,0.0982
684.00,0.0983
683.00,0.0983
682.00,0.0985
681.00,0.0989
680.00,0.0994
679.00,0.0997
678.00,0.0998
677.00,0.1000
676.00,0.1004
675.00,0.1008
674.00,0.1009
673.00,0.1007
672.00,0.1005
671.00,0.1006
670.00,0.1012
669.00,0.1030
668.00,0.1055
667.00,0.1064
666.00,0.1057
665.00,0.1049
664.00,0.1043
663.00,0.1040
662.00,0.1037
661.00,0.1038
660.00,0.1042
659.00,0.1048
658.00,0.1049
657.00,0.1047
656.00,0.1044
655.00,0.1045
654.00,0.1049
653.00,0.1054
652.00,0.1058
651.00,0.1058
650.00,0.1056
