Created as New Dataset,
cm-1,A
4000.00,0.0094
3999.00,0.0094
3998.00,0.0094
3997.00,0.0094
3996.00,0.0094
3995.00,0.0094
3994.00,0.0095
3993.00,0.0095
3992.00,0.0094
3991.00,0.0094
3990.00,0.0094
3989.00,0.0093
3988.00,0.0093
3987.00,0.0093
3986.00,0.0093
3985.00,0.0093
3984.00,0.0093
3983.00,0.0093
3982.00,0.0093
3981.00,0.0094
3980.00,0.0094
3979.00,0.0094
3978.00,0.0094
3977.00,0.0094
3976.00,0.0093
3975.00,0.0093
3974.00,0.0094
3973.00,0.0094
3972.00,0.0094
3971.00,0.0093
3970.00,0.0093
3969.00,0.0092
3968.00,0.0092
3967.00,0.0091
3966.00,0.0091
3965.00,0.0092
3964.00,0.0092
3963.00,0.0093
3962.00,0.0093
3961.00,0.0093
3960.00,0.0094
3959.00,0.0094
3958.00,0.0094
3957.00,0.0093
3956.00,0.0093
3955.00,0.0093
3954.00,0.0093
3953.00,0.0093
3952.00,0.0093
3951.00,0.0094
3950.00,0.0094
3949.00,0.0095
3948.00,0.0095
3947.00,0.0095
3946.00,0.0095
3945.00,0.0096
3944.00,0.0096
3943.00,0.0096
3942.00,0.0095
3941.00,0.0095
3940.00,0.0095
3939.00,0.0094
3938.00,0.0092
3937.00,0.0092
3936.00,0.0092
3935.00,0.0093
3934.00,0.0094
3933.00,0.0095
3932.00,0.0095
3931.00,0.0095
3930.00,0.0095
3929.00,0.0095
3928.00,0.0095
3927.00,0.0095
3926.00,0.0095
3925.00,0.0095
3924.00,0.0095
3923.00,0.0095
3922.00,0.0096
3921.00,0.0096
3920.00,0.0095
3919.00,0.0095
3918.00,0.0096
3917.00,0.0095
3916.00,0.0094
3915.00,0.0093
3914.00,0.0092
3913.00,0.0091
3912.00,0.0090
3911.00,0.0090
3910.00,0.0090
3909.00,0.0090
3908.00,0.0092
3907.00,0.0094
3906.00,0.0095
3905.00,0.0096
3904.00,0.0097
3903.00,0.0100
3902.00,0.0102
3901.00,0.0103
3900.00,0.0102
3899.00,0.0099
3898.00,0.0096
3897.00,0.0095
3896.00,0.0094
3895.00,0.0094
3894.00,0.0095
3893.00,0.0095
3892.00,0.0095
3891.00,0.0093
3890.00,0.0092
3889.00,0.0094
3888.00,0.0096
3887.00,0.0096
3886.00,0.0093
3885.00,0.0092
3884.00,0.0095
3883.00,0.0099
3882.00,0.0101
3881.00,0.0099
3880.00,0.0095
3879.00,0.0093
3878.00,0.0094
3877.00,0.0096
3876.00,0.0096
3875.00,0.0094
3874.00,0.0093
3873.00,0.0095
3872.00,0.0098
3871.00,0.0099
3870.00,0.0096
3869.00,0.0094
3868.00,0.0096
3867.00,0.0099
3866.00,0.0099
3865.00,0.0097
3864.00,0.0095
3863.00,0.0096
3862.00,0.0096
3861.00,0.0095
3860.00,0.0093
3859.00,0.0092
3858.00,0.0092
3857.00,0.0093
3856.00,0.0094
3855.00,0.0092
3854.00,0.0090
3853.00,0.0090
3852.00,0.0092
3851.00,0.0095
3850.00,0.0096
3849.00,0.0095
3848.00,0.0093
3847.00,0.0092
3846.00,0.0091
3845.00,0.0091
3844.00,0.0090
3843.00,0.0091
3842.00,0.0092
3841.00,0.0094
3840.00,0.0096
3839.00,0.0096
3838.00,0.0096
3837.00,0.0095
3836.00,0.0095
3835.00,0.0096
3834.00,0.0096
3833.00,0.0095
3832.00,0.0093
3831.00,0.0092
3830.00,0.0092
3829.00,0.0093
3828.00,0.0093
3827.00,0.0092
3826.00,0.0091
3825.00,0.0092
3824.00,0.0095
3823.00,0.0096
3822.00,0.0094
3821.00,0.0091
3820.00,0.0091
3819.00,0.0094
3818.00,0.0097
3817.00,0.0094
3816.00,0.0089
3815.00,0.0087
3814.00,0.0089
3813.00,0.0090
3812.00,0.0089
3811.00,0.0087
3810.00,0.0087
3809.00,0.0088
3808.00,0.0087
3807.00,0.0085
3806.00,0.0084
3805.00,0.0087
3804.00,0.0092
3803.00,0.0093
3802.00,0.0091
3801.00,0.0089
3800.00,0.0091
3799.00,0.0095
3798.00,0.0096
3797.00,0.0094
3796.00,0.0091
3795.00,0.0090
3794.00,0.0090
3793.00,0.0089
3792.00,0.0088
3791.00,0.0087
3790.00,0.0087
3789.00,0.0087
3788.00,0.0087
3787.00,0.0088
3786.00,0.0088
3785.00,0.0088
3784.00,0.0088
3783.00,0.0089
3782.00,0.0090
3781.00,0.0090
3780.00,0.0089
3779.00,0.0088
3778.00,0.0088
3777.00,0.0089
3776.00,0.0089
3775.00,0.0087
3774.00,0.0086
3773.00,0.0087
3772.00,0.0088
3771.00,0.0088
3770.00,0.0088
3769.00,0.0090
3768.00,0.0092
3767.00,0.0094
3766.00,0.0093
3765.00,0.0090
3764.00,0.0089
3763.00,0.0090
3762.00,0.0092
3761.00,0.0091
3760.00,0.0091
3759.00,0.0091
3758.00,0.0091
3757.00,0.0091
3756.00,0.0091
3755.00,0.0091
3754.00,0.0090
3753.00,0.0088
3752.00,0.0087
3751.00,0.0089
3750.00,0.0091
3749.00,0.0092
3748.00,0.0094
3747.00,0.0099
3746.00,0.0099
3745.00,0.0093
3744.00,0.0088
3743.00,0.0088
3742.00,0.0091
3741.00,0.0094
3740.00,0.0093
3739.00,0.0093
3738.00,0.0094
3737.00,0.0096
3736.00,0.0098
3735.00,0.0100
3734.00,0.0102
3733.00,0.0100
3732.00,0.0096
3731.00,0.0092
3730.00,0.0092
3729.00,0.0093
3728.00,0.0094
3727.00,0.0093
3726.00,0.0093
3725.00,0.0095
3724.00,0.0097
3723.00,0.0097
3722.00,0.0096
3721.00,0.0095
3720.00,0.0094
3719.00,0.0093
3718.00,0.0092
3717.00,0.0091
3716.00,0.0091
3715.00,0.0091
3714.00,0.0092
3713.00,0.0091
3712.00,0.0093
3711.00,0.0096
3710.00,0.0099
3709.00,0.0099
3708.00,0.0098
3707.00,0.0096
3706.00,0.0095
3705.00,0.0095
3704.00,0.0096
3703.00,0.0097
3702.00,0.0097
3701.00,0.0097
3700.00,0.0098
3699.00,0.0098
3698.00,0.0098
3697.00,0.0097
3696.00,0.0097
3695.00,0.0097
3694.00,0.0099
3693.00,0.0099
3692.00,0.0100
3691.00,0.0101
3690.00,0.0103
3689.00,0.0104
3688.00,0.0103
3687.00,0.0102
3686.00,0.0102
3685.00,0.0102
3684.00,0.0101
3683.00,0.0099
3682.00,0.0098
3681.00,0.0097
3680.00,0.0096
3679.00,0.0097
3678.00,0.0101
3677.00,0.0105
3676.00,0.0106
3675.00,0.0106
3674.00,0.0107
3673.00,0.0110
3672.00,0.0111
3671.00,0.0109
3670.00,0.0107
3669.00,0.0107
3668.00,0.0108
3667.00,0.0108
3666.00,0.0107
3665.00,0.0105
3664.00,0.0103
3663.00,0.0103
3662.00,0.0102
3661.00,0.0102
3660.00,0.0103
3659.00,0.0105
3658.00,0.0107
3657.00,0.0108
3656.00,0.0108
3655.00,0.0110
3654.00,0.0113
3653.00,0.0115
3652.00,0.0115
3651.00,0.0114
3650.00,0.0118
3649.00,0.0125
3648.00,0.0129
3647.00,0.0128
3646.00,0.0125
3645.00,0.0122
3644.00,0.0119
3643.00,0.0117
3642.00,0.0115
3641.00,0.0114
3640.00,0.0114
3639.00,0.0114
3638.00,0.0114
3637.00,0.0114
3636.00,0.0115
3635.00,0.0114
3634.00,0.0113
3633.00,0.0114
3632.00,0.0118
3631.00,0.0122
3630.00,0.0125
3629.00,0.0126
3628.00,0.0127
3627.00,0.0128
3626.00,0.0127
3625.00,0.0125
3624.00,0.0123
3623.00,0.0123
3622.00,0.0125
3621.00,0.0127
3620.00,0.0130
3619.00,0.0132
3618.00,0.0134
3617.00,0.0135
3616.00,0.0135
3615.00,0.0134
3614.00,0.0133
3613.00,0.0131
3612.00,0.0131
3611.00,0.0131
3610.00,0.0131
3609.00,0.0131
3608.00,0.0131
3607.00,0.0131
3606.00,0.0131
3605.00,0.0130
3604.00,0.0129
3603.00,0.0128
3602.00,0.0128
3601.00,0.0128
3600.00,0.0129
3599.00,0.0130
3598.00,0.0131
3597.00,0.0132
3596.00,0.0134
3595.00,0.0134
3594.00,0.0135
3593.00,0.0134
3592.00,0.0134
3591.00,0.0135
3590.00,0.0136
3589.00,0.0137
3588.00,0.0140
3587.00,0.0142
3586.00,0.0142
3585.00,0.0142
3584.00,0.0140
3583.00,0.0138
3582.00,0.0137
3581.00,0.0136
3580.00,0.0136
3579.00,0.0136
3578.00,0.0136
3577.00,0.0136
3576.00,0.0136
3575.00,0.0135
3574.00,0.0135
3573.00,0.0135
3572.00,0.0136
3571.00,0.0137
3570.00,0.0139
3569.00,0.0141
3568.00,0.0144
3567.00,0.0148
3566.00,0.0151
3565.00,0.0151
3564.00,0.0150
3563.00,0.0148
3562.00,0.0146
3561.00,0.0144
3560.00,0.0143
3559.00,0.0142
3558.00,0.0141
3557.00,0.0140
3556.00,0.0140
3555.00,0.0140
3554.00,0.0141
3553.00,0.0142
3552.00,0.0144
3551.00,0.0145
3550.00,0.0145
3549.00,0.0146
3548.00,0.0147
3547.00,0.0148
3546.00,0.0150
3545.00,0.0151
3544.00,0.0150
3543.00,0.0149
3542.00,0.0148
3541.00,0.0147
3540.00,0.0146
3539.00,0.0146
3538.00,0.0147
3537.00,0.0147
3536.00,0.0148
3535.00,0.0148
3534.00,0.0148
3533.00,0.0147
3532.00,0.0147
3531.00,0.0147
3530.00,0.0148
3529.00,0.0150
3528.00,0.0151
3527.00,0.0153
3526.00,0.0153
3525.00,0.0154
3524.00,0.0154
3523.00,0.0153
3522.00,0.0153
3521.00,0.0153
3520.00,0.0153
3519.00,0.0152
3518.00,0.0152
3517.00,0.0152
3516.00,0.0152
3515.00,0.0152
3514.00,0.0152
3513.00,0.0153
3512.00,0.0153
3511.00,0.0154
3510.00,0.0155
3509.00,0.0156
3508.00,0.0156
3507.00,0.0156
3506.00,0.0156
3505.00,0.0157
3504.00,0.0157
3503.00,0.0158
3502.00,0.0159
3501.00,0.0159
3500.00,0.0158
3499.00,0.0157
3498.00,0.0157
3497.00,0.0157
3496.00,0.0157
3495.00,0.0157
3494.00,0.0157
3493.00,0.0157
3492.00,0.0157
3491.00,0.0157
3490.00,0.0156
3489.00,0.0157
3488.00,0.0157
3487.00,0.0158
3486.00,0.0159
3485.00,0.0160
3484.00,0.0160
3483.00,0.0161
3482.00,0.0161
3481.00,0.0162
3480.00,0.0162
3479.00,0.0162
3478.00,0.0162
3477.00,0.0162
3476.00,0.0162
3475.00,0.0162
3474.00,0.0162
3473.00,0.0163
3472.00,0.0163
3471.00,0.0164
3470.00,0.0164
3469.00,0.0164
3468.00,0.0163
3467.00,0.0163
3466.00,0.0163
3465.00,0.0163
3464.00,0.0164
3463.00,0.0164
3462.00,0.0165
3461.00,0.0165
3460.00,0.0164
3459.00,0.0164
3458.00,0.0164
3457.00,0.0164
3456.00,0.0165
3455.00,0.0165
3454.00,0.0166
3453.00,0.0166
3452.00,0.0166
3451.00,0.0166
3450.00,0.0166
3449.00,0.0167
3448.00,0.0167
3447.00,0.0168
3446.00,0.0168
3445.00,0.0168
3444.00,0.0168
3443.00,0.0168
3442.00,0.0168
3441.00,0.0168
3440.00,0.0167
3439.00,0.0167
3438.00,0.0167
3437.00,0.0167
3436.00,0.0167
3435.00,0.0168
3434.00,0.0168
3433.00,0.0169
3432.00,0.0169
3431.00,0.0169
3430.00,0.0169
3429.00,0.0169
3428.00,0.0169
3427.00,0.0169
3426.00,0.0169
3425.00,0.0169
3424.00,0.0170
3423.00,0.0170
3422.00,0.0170
3421.00,0.0171
3420.00,0.0171
3419.00,0.0172
3418.00,0.0172
3417.00,0.0172
3416.00,0.0171
3415.00,0.0171
3414.00,0.0171
3413.00,0.0171
3412.00,0.0172
3411.00,0.0172
3410.00,0.0172
3409.00,0.0172
3408.00,0.0172
3407.00,0.0172
3406.00,0.0172
3405.00,0.0173
3404.00,0.0173
3403.00,0.0173
3402.00,0.0173
3401.00,0.0173
3400.00,0.0173
3399.00,0.0173
3398.00,0.0173
3397.00,0.0173
3396.00,0.0173
3395.00,0.0173
3394.00,0.0174
3393.00,0.0174
3392.00,0.0175
3391.00,0.0175
3390.00,0.0174
3389.00,0.0174
3388.00,0.0173
3387.00,0.0174
3386.00,0.0175
3385.00,0.0175
3384.00,0.0176
3383.00,0.0175
3382.00,0.0174
3381.00,0.0173
3380.00,0.0173
3379.00,0.0174
3378.00,0.0174
3377.00,0.0175
3376.00,0.0175
3375.00,0.0175
3374.00,0.0176
3373.00,0.0176
3372.00,0.0176
3371.00,0.0175
3370.00,0.0175
3369.00,0.0175
3368.00,0.0174
3367.00,0.0175
3366.00,0.0175
3365.00,0.0176
3364.00,0.0177
3363.00,0.0177
3362.00,0.0177
3361.00,0.0177
3360.00,0.0177
3359.00,0.0178
3358.00,0.0178
3357.00,0.0178
3356.00,0.0178
3355.00,0.0177
3354.00,0.0177
3353.00,0.0176
3352.00,0.0176
3351.00,0.0176
3350.00,0.0176
3349.00,0.0176
3348.00,0.0176
3347.00,0.0176
3346.00,0.0176
3345.00,0.0176
3344.00,0.0176
3343.00,0.0176
3342.00,0.0177
3341.00,0.0177
3340.00,0.0177
3339.00,0.0177
3338.00,0.0178
3337.00,0.0178
3336.00,0.0178
3335.00,0.0178
3334.00,0.0178
3333.00,0.0178
3332.00,0.0178
3331.00,0.0177
3330.00,0.0177
3329.00,0.0177
3328.00,0.0178
3327.00,0.0178
3326.00,0.0179
3325.00,0.0179
3324.00,0.0179
3323.00,0.0179
3322.00,0.0179
3321.00,0.0178
3320.00,0.0177
3319.00,0.0177
3318.00,0.0178
3317.00,0.0178
3316.00,0.0178
3315.00,0.0178
3314.00,0.0178
3313.00,0.0178
3312.00,0.0178
3311.00,0.0178
3310.00,0.0178
3309.00,0.0179
3308.00,0.0179
3307.00,0.0179
3306.00,0.0180
3305.00,0.0180
3304.00,0.0180
3303.00,0.0180
3302.00,0.0179
3301.00,0.0179
3300.00,0.0178
3299.00,0.0178
3298.00,0.0178
3297.00,0.0179
3296.00,0.0179
3295.00,0.0179
3294.00,0.0179
3293.00,0.0179
3292.00,0.0179
3291.00,0.0179
3290.00,0.0179
3289.00,0.0179
3288.00,0.0179
3287.00,0.0178
3286.00,0.0178
3285.00,0.0178
3284.00,0.0178
3283.00,0.0179
3282.00,0.0179
3281.00,0.0179
3280.00,0.0179
3279.00,0.0179
3278.00,0.0179
3277.00,0.0179
3276.00,0.0179
3275.00,0.0179
3274.00,0.0179
3273.00,0.0180
3272.00,0.0180
3271.00,0.0179
3270.00,0.0179
3269.00,0.0179
3268.00,0.0178
3267.00,0.0178
3266.00,0.0179
3265.00,0.0179
3264.00,0.0179
3263.00,0.0179
3262.00,0.0179
3261.00,0.0179
3260.00,0.0179
3259.00,0.0180
3258.00,0.0180
3257.00,0.0180
3256.00,0.0181
3255.00,0.0181
3254.00,0.0180
3253.00,0.0180
3252.00,0.0179
3251.00,0.0178
3250.00,0.0178
3249.00,0.0178
3248.00,0.0179
3247.00,0.0179
3246.00,0.0180
3245.00,0.0181
3244.00,0.0181
3243.00,0.0181
3242.00,0.0181
3241.00,0.0180
3240.00,0.0180
3239.00,0.0179
3238.00,0.0180
3237.00,0.0180
3236.00,0.0180
3235.00,0.0180
3234.00,0.0181
3233.00,0.0181
3232.00,0.0182
3231.00,0.0182
3230.00,0.0182
3229.00,0.0182
3228.00,0.0182
3227.00,0.0181
3226.00,0.0181
3225.00,0.0181
3224.00,0.0180
3223.00,0.0180
3222.00,0.0180
3221.00,0.0180
3220.00,0.0180
3219.00,0.0180
3218.00,0.0180
3217.00,0.0180
3216.00,0.0180
3215.00,0.0180
3214.00,0.0180
3213.00,0.0181
3212.00,0.0181
3211.00,0.0181
3210.00,0.0181
3209.00,0.0181
3208.00,0.0180
3207.00,0.0180
3206.00,0.0181
3205.00,0.0181
3204.00,0.0181
3203.00,0.0181
3202.00,0.0181
3201.00,0.0181
3200.00,0.0181
3199.00,0.0182
3198.00,0.0182
3197.00,0.0182
3196.00,0.0182
3195.00,0.0181
3194.00,0.0181
3193.00,0.0180
3192.00,0.0180
3191.00,0.0180
3190.00,0.0181
3189.00,0.0181
3188.00,0.0181
3187.00,0.0181
3186.00,0.0181
3185.00,0.0181
3184.00,0.0181
3183.00,0.0181
3182.00,0.0181
3181.00,0.0182
3180.00,0.0182
3179.00,0.0182
3178.00,0.0181
3177.00,0.0181
3176.00,0.0181
3175.00,0.0181
3174.00,0.0181
3173.00,0.0181
3172.00,0.0180
3171.00,0.0180
3170.00,0.0180
3169.00,0.0180
3168.00,0.0180
3167.00,0.0180
3166.00,0.0180
3165.00,0.0181
3164.00,0.0181
3163.00,0.0180
3162.00,0.0180
3161.00,0.0180
3160.00,0.0180
3159.00,0.0180
3158.00,0.0181
3157.00,0.0181
3156.00,0.0181
3155.00,0.0181
3154.00,0.0180
3153.00,0.0180
3152.00,0.0180
3151.00,0.0180
3150.00,0.0180
3149.00,0.0180
3148.00,0.0180
3147.00,0.0180
3146.00,0.0180
3145.00,0.0180
3144.00,0.0180
3143.00,0.0180
3142.00,0.0181
3141.00,0.0181
3140.00,0.0181
3139.00,0.0180
3138.00,0.0180
3137.00,0.0180
3136.00,0.0180
3135.00,0.0180
3134.00,0.0180
3133.00,0.0179
3132.00,0.0179
3131.00,0.0180
3130.00,0.0180
3129.00,0.0180
3128.00,0.0180
3127.00,0.0180
3126.00,0.0180
3125.00,0.0180
3124.00,0.0180
3123.00,0.0180
3122.00,0.0180
3121.00,0.0180
3120.00,0.0180
3119.00,0.0180
3118.00,0.0180
3117.00,0.0180
3116.00,0.0181
3115.00,0.0181
3114.00,0.0181
3113.00,0.0181
3112.00,0.0181
3111.00,0.0180
3110.00,0.0179
3109.00,0.0179
3108.00,0.0179
3107.00,0.0179
3106.00,0.0179
3105.00,0.0179
3104.00,0.0179
3103.00,0.0179
3102.00,0.0179
3101.00,0.0179
3100.00,0.0180
3099.00,0.0180
3098.00,0.0180
3097.00,0.0180
3096.00,0.0181
3095.00,0.0181
3094.00,0.0180
3093.00,0.0180
3092.00,0.0180
3091.00,0.0179
3090.00,0.0179
3089.00,0.0179
3088.00,0.0180
3087.00,0.0180
3086.00,0.0180
3085.00,0.0180
3084.00,0.0179
3083.00,0.0179
3082.00,0.0180
3081.00,0.0180
3080.00,0.0180
3079.00,0.0180
3078.00,0.0180
3077.00,0.0180
3076.00,0.0180
3075.00,0.0180
3074.00,0.0180
3073.00,0.0180
3072.00,0.0180
3071.00,0.0179
3070.00,0.0179
3069.00,0.0179
3068.00,0.0179
3067.00,0.0179
3066.00,0.0180
3065.00,0.0180
3064.00,0.0180
3063.00,0.0180
3062.00,0.0180
3061.00,0.0179
3060.00,0.0179
3059.00,0.0179
3058.00,0.0179
3057.00,0.0179
3056.00,0.0180
3055.00,0.0180
3054.00,0.0180
3053.00,0.0180
3052.00,0.0179
3051.00,0.0179
3050.00,0.0179
3049.00,0.0179
3048.00,0.0179
3047.00,0.0178
3046.00,0.0178
3045.00,0.0178
3044.00,0.0178
3043.00,0.0179
3042.00,0.0179
3041.00,0.0179
3040.00,0.0179
3039.00,0.0179
3038.00,0.0179
3037.00,0.0179
3036.00,0.0179
3035.00,0.0179
3034.00,0.0179
3033.00,0.0179
3032.00,0.0179
3031.00,0.0179
3030.00,0.0179
3029.00,0.0178
3028.00,0.0178
3027.00,0.0177
3026.00,0.0177
3025.00,0.0177
3024.00,0.0177
3023.00,0.0177
3022.00,0.0177
3021.00,0.0178
3020.00,0.0178
3019.00,0.0177
3018.00,0.0177
3017.00,0.0177
3016.00,0.0178
3015.00,0.0178
3014.00,0.0179
3013.00,0.0179
3012.00,0.0180
3011.00,0.0180
3010.00,0.0180
3009.00,0.0180
3008.00,0.0180
3007.00,0.0180
3006.00,0.0180
3005.00,0.0180
3004.00,0.0181
3003.00,0.0181
3002.00,0.0182
3001.00,0.0183
3000.00,0.0183
2999.00,0.0183
2998.00,0.0183
2997.00,0.0183
2996.00,0.0183
2995.00,0.0183
2994.00,0.0184
2993.00,0.0184
2992.00,0.0184
2991.00,0.0184
2990.00,0.0184
2989.00,0.0184
2988.00,0.0184
2987.00,0.0185
2986.00,0.0185
2985.00,0.0187
2984.00,0.0188
2983.00,0.0189
2982.00,0.0189
2981.00,0.0189
2980.00,0.0189
2979.00,0.0188
2978.00,0.0188
2977.00,0.0187
2976.00,0.0187
2975.00,0.0186
2974.00,0.0186
2973.00,0.0185
2972.00,0.0185
2971.00,0.0184
2970.00,0.0184
2969.00,0.0183
2968.00,0.0182
2967.00,0.0181
2966.00,0.0180
2965.00,0.0180
2964.00,0.0179
2963.00,0.0178
2962.00,0.0178
2961.00,0.0178
2960.00,0.0178
2959.00,0.0177
2958.00,0.0177
2957.00,0.0176
2956.00,0.0176
2955.00,0.0176
2954.00,0.0176
2953.00,0.0176
2952.00,0.0175
2951.00,0.0175
2950.00,0.0175
2949.00,0.0174
2948.00,0.0174
2947.00,0.0174
2946.00,0.0174
2945.00,0.0174
2944.00,0.0174
2943.00,0.0174
2942.00,0.0173
2941.00,0.0173
2940.00,0.0172
2939.00,0.0172
2938.00,0.0172
2937.00,0.0171
2936.00,0.0171
2935.00,0.0171
2934.00,0.0170
2933.00,0.0170
2932.00,0.0170
2931.00,0.0169
2930.00,0.0169
2929.00,0.0168
2928.00,0.0167
2927.00,0.0167
2926.00,0.0167
2925.00,0.0167
2924.00,0.0167
2923.00,0.0167
2922.00,0.0168
2921.00,0.0168
2920.00,0.0169
2919.00,0.0169
2918.00,0.0168
2917.00,0.0168
2916.00,0.0168
2915.00,0.0168
2914.00,0.0169
2913.00,0.0169
2912.00,0.0169
2911.00,0.0170
2910.00,0.0170
2909.00,0.0170
2908.00,0.0170
2907.00,0.0170
2906.00,0.0170
2905.00,0.0170
2904.00,0.0170
2903.00,0.0170
2902.00,0.0170
2901.00,0.0171
2900.00,0.0171
2899.00,0.0171
2898.00,0.0171
2897.00,0.0170
2896.00,0.0170
2895.00,0.0169
2894.00,0.0170
2893.00,0.0170
2892.00,0.0171
2891.00,0.0171
2890.00,0.0172
2889.00,0.0171
2888.00,0.0171
2887.00,0.0171
2886.00,0.0171
2885.00,0.0171
2884.00,0.0171
2883.00,0.0171
2882.00,0.0171
2881.00,0.0171
2880.00,0.0171
2879.00,0.0170
2878.00,0.0169
2877.00,0.0169
2876.00,0.0168
2875.00,0.0167
2874.00,0.0167
2873.00,0.0166
2872.00,0.0165
2871.00,0.0165
2870.00,0.0165
2869.00,0.0165
2868.00,0.0165
2867.00,0.0165
2866.00,0.0165
2865.00,0.0164
2864.00,0.0164
2863.00,0.0164
2862.00,0.0164
2861.00,0.0164
2860.00,0.0164
2859.00,0.0164
2858.00,0.0163
2857.00,0.0163
2856.00,0.0162
2855.00,0.0162
2854.00,0.0162
2853.00,0.0162
2852.00,0.0162
2851.00,0.0161
2850.00,0.0161
2849.00,0.0161
2848.00,0.0161
2847.00,0.0161
2846.00,0.0161
2845.00,0.0161
2844.00,0.0161
2843.00,0.0161
2842.00,0.0162
2841.00,0.0162
2840.00,0.0162
2839.00,0.0162
2838.00,0.0163
2837.00,0.0163
2836.00,0.0163
2835.00,0.0162
2834.00,0.0162
2833.00,0.0161
2832.00,0.0161
2831.00,0.0161
2830.00,0.0161
2829.00,0.0161
2828.00,0.0161
2827.00,0.0161
2826.00,0.0161
2825.00,0.0162
2824.00,0.0161
2823.00,0.0161
2822.00,0.0161
2821.00,0.0161
2820.00,0.0161
2819.00,0.0161
2818.00,0.0161
2817.00,0.0160
2816.00,0.0160
2815.00,0.0160
2814.00,0.0160
2813.00,0.0159
2812.00,0.0159
2811.00,0.0159
2810.00,0.0159
2809.00,0.0159
2808.00,0.0159
2807.00,0.0158
2806.00,0.0158
2805.00,0.0158
2804.00,0.0157
2803.00,0.0157
2802.00,0.0157
2801.00,0.0157
2800.00,0.0157
2799.00,0.0157
2798.00,0.0157
2797.00,0.0157
2796.00,0.0157
2795.00,0.0157
2794.00,0.0156
2793.00,0.0156
2792.00,0.0156
2791.00,0.0156
2790.00,0.0156
2789.00,0.0157
2788.00,0.0157
2787.00,0.0157
2786.00,0.0156
2785.00,0.0156
2784.00,0.0156
2783.00,0.0156
2782.00,0.0155
2781.00,0.0155
2780.00,0.0155
2779.00,0.0154
2778.00,0.0154
2777.00,0.0154
2776.00,0.0155
2775.00,0.0155
2774.00,0.0156
2773.00,0.0155
2772.00,0.0155
2771.00,0.0154
2770.00,0.0154
2769.00,0.0154
2768.00,0.0153
2767.00,0.0153
2766.00,0.0153
2765.00,0.0153
2764.00,0.0153
2763.00,0.0153
2762.00,0.0153
2761.00,0.0153
2760.00,0.0153
2759.00,0.0153
2758.00,0.0153
2757.00,0.0153
2756.00,0.0152
2755.00,0.0152
2754.00,0.0152
2753.00,0.0152
2752.00,0.0151
2751.00,0.0152
2750.00,0.0152
2749.00,0.0152
2748.00,0.0152
2747.00,0.0152
2746.00,0.0152
2745.00,0.0151
2744.00,0.0151
2743.00,0.0150
2742.00,0.0150
2741.00,0.0150
2740.00,0.0151
2739.00,0.0151
2738.00,0.0150
2737.00,0.0150
2736.00,0.0150
2735.00,0.0149
2734.00,0.0149
2733.00,0.0149
2732.00,0.0149
2731.00,0.0149
2730.00,0.0149
2729.00,0.0149
2728.00,0.0149
2727.00,0.0149
2726.00,0.0149
2725.00,0.0149
2724.00,0.0149
2723.00,0.0148
2722.00,0.0148
2721.00,0.0148
2720.00,0.0148
2719.00,0.0148
2718.00,0.0148
2717.00,0.0147
2716.00,0.0147
2715.00,0.0147
2714.00,0.0147
2713.00,0.0147
2712.00,0.0147
2711.00,0.0147
2710.00,0.0147
2709.00,0.0147
2708.00,0.0147
2707.00,0.0147
2706.00,0.0147
2705.00,0.0147
2704.00,0.0146
2703.00,0.0146
2702.00,0.0146
2701.00,0.0146
2700.00,0.0145
2699.00,0.0145
2698.00,0.0145
2697.00,0.0145
2696.00,0.0145
2695.00,0.0145
2694.00,0.0145
2693.00,0.0145
2692.00,0.0145
2691.00,0.0145
2690.00,0.0145
2689.00,0.0145
2688.00,0.0145
2687.00,0.0144
2686.00,0.0144
2685.00,0.0144
2684.00,0.0144
2683.00,0.0144
2682.00,0.0143
2681.00,0.0144
2680.00,0.0144
2679.00,0.0144
2678.00,0.0144
2677.00,0.0144
2676.00,0.0144
2675.00,0.0144
2674.00,0.0143
2673.00,0.0143
2672.00,0.0143
2671.00,0.0143
2670.00,0.0142
2669.00,0.0142
2668.00,0.0142
2667.00,0.0142
2666.00,0.0143
2665.00,0.0143
2664.00,0.0143
2663.00,0.0143
2662.00,0.0143
2661.00,0.0143
2660.00,0.0144
2659.00,0.0144
2658.00,0.0144
2657.00,0.0144
2656.00,0.0144
2655.00,0.0144
2654.00,0.0144
2653.00,0.0144
2652.00,0.0144
2651.00,0.0144
2650.00,0.0144
2649.00,0.0144
2648.00,0.0144
2647.00,0.0144
2646.00,0.0145
2645.00,0.0145
2644.00,0.0145
2643.00,0.0145
2642.00,0.0145
2641.00,0.0145
2640.00,0.0145
2639.00,0.0145
2638.00,0.0144
2637.00,0.0144
2636.00,0.0144
2635.00,0.0144
2634.00,0.0143
2633.00,0.0143
2632.00,0.0143
2631.00,0.0143
2630.00,0.0143
2629.00,0.0143
2628.00,0.0143
2627.00,0.0143
2626.00,0.0144
2625.00,0.0144
2624.00,0.0144
2623.00,0.0144
2622.00,0.0143
2621.00,0.0143
2620.00,0.0143
2619.00,0.0143
2618.00,0.0144
2617.00,0.0144
2616.00,0.0144
2615.00,0.0144
2614.00,0.0144
2613.00,0.0144
2612.00,0.0143
2611.00,0.0143
2610.00,0.0142
2609.00,0.0142
2608.00,0.0143
2607.00,0.0143
2606.00,0.0143
2605.00,0.0142
2604.00,0.0142
2603.00,0.0142
2602.00,0.0142
2601.00,0.0143
2600.00,0.0143
2599.00,0.0143
2598.00,0.0143
2597.00,0.0143
2596.00,0.0142
2595.00,0.0142
2594.00,0.0142
2593.00,0.0142
2592.00,0.0143
2591.00,0.0143
2590.00,0.0143
2589.00,0.0143
2588.00,0.0142
2587.00,0.0142
2586.00,0.0141
2585.00,0.0141
2584.00,0.0142
2583.00,0.0142
2582.00,0.0143
2581.00,0.0142
2580.00,0.0142
2579.00,0.0141
2578.00,0.0141
2577.00,0.0142
2576.00,0.0142
2575.00,0.0142
2574.00,0.0142
2573.00,0.0141
2572.00,0.0141
2571.00,0.0141
2570.00,0.0140
2569.00,0.0140
2568.00,0.0141
2567.00,0.0141
2566.00,0.0142
2565.00,0.0142
2564.00,0.0142
2563.00,0.0142
2562.00,0.0141
2561.00,0.0141
2560.00,0.0141
2559.00,0.0141
2558.00,0.0141
2557.00,0.0142
2556.00,0.0142
2555.00,0.0141
2554.00,0.0141
2553.00,0.0141
2552.00,0.0141
2551.00,0.0142
2550.00,0.0142
2549.00,0.0142
2548.00,0.0141
2547.00,0.0141
2546.00,0.0140
2545.00,0.0140
2544.00,0.0140
2543.00,0.0141
2542.00,0.0142
2541.00,0.0143
2540.00,0.0143
2539.00,0.0143
2538.00,0.0143
2537.00,0.0142
2536.00,0.0142
2535.00,0.0142
2534.00,0.0142
2533.00,0.0141
2532.00,0.0141
2531.00,0.0141
2530.00,0.0142
2529.00,0.0142
2528.00,0.0142
2527.00,0.0142
2526.00,0.0142
2525.00,0.0142
2524.00,0.0142
2523.00,0.0142
2522.00,0.0141
2521.00,0.0141
2520.00,0.0141
2519.00,0.0141
2518.00,0.0141
2517.00,0.0140
2516.00,0.0140
2515.00,0.0140
2514.00,0.0140
2513.00,0.0141
2512.00,0.0141
2511.00,0.0142
2510.00,0.0142
2509.00,0.0141
2508.00,0.0141
2507.00,0.0140
2506.00,0.0140
2505.00,0.0140
2504.00,0.0140
2503.00,0.0140
2502.00,0.0141
2501.00,0.0141
2500.00,0.0141
2499.00,0.0141
2498.00,0.0141
2497.00,0.0140
2496.00,0.0140
2495.00,0.0140
2494.00,0.0140
2493.00,0.0140
2492.00,0.0140
2491.00,0.0139
2490.00,0.0139
2489.00,0.0139
2488.00,0.0139
2487.00,0.0139
2486.00,0.0139
2485.00,0.0139
2484.00,0.0139
2483.00,0.0140
2482.00,0.0140
2481.00,0.0141
2480.00,0.0141
2479.00,0.0141
2478.00,0.0141
2477.00,0.0140
2476.00,0.0140
2475.00,0.0140
2474.00,0.0140
2473.00,0.0140
2472.00,0.0140
2471.00,0.0140
2470.00,0.0139
2469.00,0.0139
2468.00,0.0139
2467.00,0.0139
2466.00,0.0139
2465.00,0.0139
2464.00,0.0139
2463.00,0.0139
2462.00,0.0139
2461.00,0.0139
2460.00,0.0140
2459.00,0.0140
2458.00,0.0141
2457.00,0.0141
2456.00,0.0140
2455.00,0.0140
2454.00,0.0139
2453.00,0.0139
2452.00,0.0140
2451.00,0.0140
2450.00,0.0140
2449.00,0.0140
2448.00,0.0140
2447.00,0.0139
2446.00,0.0139
2445.00,0.0139
2444.00,0.0139
2443.00,0.0139
2442.00,0.0139
2441.00,0.0139
2440.00,0.0139
2439.00,0.0138
2438.00,0.0138
2437.00,0.0138
2436.00,0.0138
2435.00,0.0138
2434.00,0.0138
2433.00,0.0138
2432.00,0.0138
2431.00,0.0138
2430.00,0.0138
2429.00,0.0138
2428.00,0.0138
2427.00,0.0138
2426.00,0.0138
2425.00,0.0138
2424.00,0.0137
2423.00,0.0137
2422.00,0.0137
2421.00,0.0136
2420.00,0.0136
2419.00,0.0136
2418.00,0.0136
2417.00,0.0137
2416.00,0.0137
2415.00,0.0138
2414.00,0.0138
2413.00,0.0138
2412.00,0.0137
2411.00,0.0137
2410.00,0.0137
2409.00,0.0136
2408.00,0.0136
2407.00,0.0136
2406.00,0.0136
2405.00,0.0136
2404.00,0.0136
2403.00,0.0136
2402.00,0.0135
2401.00,0.0135
2400.00,0.0135
2399.00,0.0135
2398.00,0.0135
2397.00,0.0135
2396.00,0.0135
2395.00,0.0135
2394.00,0.0135
2393.00,0.0135
2392.00,0.0135
2391.00,0.0135
2390.00,0.0134
2389.00,0.0134
2388.00,0.0133
2387.00,0.0131
2386.00,0.0130
2385.00,0.0128
2384.00,0.0126
2383.00,0.0124
2382.00,0.0122
2381.00,0.0121
2380.00,0.0121
2379.00,0.0121
2378.00,0.0122
2377.00,0.0124
2376.00,0.0125
2375.00,0.0127
2374.00,0.0128
2373.00,0.0129
2372.00,0.0130
2371.00,0.0130
2370.00,0.0130
2369.00,0.0130
2368.00,0.0130
2367.00,0.0130
2366.00,0.0130
2365.00,0.0129
2364.00,0.0130
2363.00,0.0130
2362.00,0.0132
2361.00,0.0135
2360.00,0.0138
2359.00,0.0140
2358.00,0.0142
2357.00,0.0143
2356.00,0.0143
2355.00,0.0141
2354.00,0.0138
2353.00,0.0135
2352.00,0.0133
2351.00,0.0132
2350.00,0.0131
2349.00,0.0127
2348.00,0.0123
2347.00,0.0120
2346.00,0.0123
2345.00,0.0128
2344.00,0.0133
2343.00,0.0135
2342.00,0.0136
2341.00,0.0136
2340.00,0.0135
2339.00,0.0135
2338.00,0.0136
2337.00,0.0136
2336.00,0.0136
2335.00,0.0136
2334.00,0.0136
2333.00,0.0136
2332.00,0.0137
2331.00,0.0138
2330.00,0.0139
2329.00,0.0140
2328.00,0.0141
2327.00,0.0142
2326.00,0.0142
2325.00,0.0142
2324.00,0.0142
2323.00,0.0142
2322.00,0.0142
2321.00,0.0141
2320.00,0.0141
2319.00,0.0140
2318.00,0.0140
2317.00,0.0139
2316.00,0.0138
2315.00,0.0137
2314.00,0.0136
2313.00,0.0136
2312.00,0.0136
2311.00,0.0136
2310.00,0.0135
2309.00,0.0134
2308.00,0.0134
2307.00,0.0134
2306.00,0.0135
2305.00,0.0135
2304.00,0.0134
2303.00,0.0134
2302.00,0.0134
2301.00,0.0134
2300.00,0.0133
2299.00,0.0132
2298.00,0.0132
2297.00,0.0132
2296.00,0.0133
2295.00,0.0133
2294.00,0.0133
2293.00,0.0133
2292.00,0.0134
2291.00,0.0134
2290.00,0.0134
2289.00,0.0134
2288.00,0.0134
2287.00,0.0134
2286.00,0.0135
2285.00,0.0135
2284.00,0.0135
2283.00,0.0134
2282.00,0.0133
2281.00,0.0133
2280.00,0.0133
2279.00,0.0133
2278.00,0.0134
2277.00,0.0134
2276.00,0.0134
2275.00,0.0133
2274.00,0.0133
2273.00,0.0133
2272.00,0.0133
2271.00,0.0133
2270.00,0.0132
2269.00,0.0131
2268.00,0.0131
2267.00,0.0131
2266.00,0.0132
2265.00,0.0132
2264.00,0.0132
2263.00,0.0131
2262.00,0.0132
2261.00,0.0132
2260.00,0.0132
2259.00,0.0133
2258.00,0.0133
2257.00,0.0134
2256.00,0.0134
2255.00,0.0134
2254.00,0.0133
2253.00,0.0132
2252.00,0.0131
2251.00,0.0132
2250.00,0.0132
2249.00,0.0132
2248.00,0.0131
2247.00,0.0131
2246.00,0.0130
2245.00,0.0129
2244.00,0.0129
2243.00,0.0129
2242.00,0.0129
2241.00,0.0129
2240.00,0.0129
2239.00,0.0129
2238.00,0.0129
2237.00,0.0129
2236.00,0.0129
2235.00,0.0129
2234.00,0.0128
2233.00,0.0128
2232.00,0.0129
2231.00,0.0129
2230.00,0.0129
2229.00,0.0130
2228.00,0.0131
2227.00,0.0133
2226.00,0.0134
2225.00,0.0134
2224.00,0.0133
2223.00,0.0133
2222.00,0.0132
2221.00,0.0132
2220.00,0.0132
2219.00,0.0131
2218.00,0.0131
2217.00,0.0130
2216.00,0.0130
2215.00,0.0131
2214.00,0.0131
2213.00,0.0132
2212.00,0.0132
2211.00,0.0132
2210.00,0.0131
2209.00,0.0130
2208.00,0.0129
2207.00,0.0129
2206.00,0.0129
2205.00,0.0129
2204.00,0.0130
2203.00,0.0131
2202.00,0.0131
2201.00,0.0132
2200.00,0.0132
2199.00,0.0131
2198.00,0.0131
2197.00,0.0130
2196.00,0.0130
2195.00,0.0129
2194.00,0.0129
2193.00,0.0128
2192.00,0.0128
2191.00,0.0128
2190.00,0.0129
2189.00,0.0130
2188.00,0.0130
2187.00,0.0129
2186.00,0.0128
2185.00,0.0129
2184.00,0.0130
2183.00,0.0131
2182.00,0.0131
2181.00,0.0132
2180.00,0.0132
2179.00,0.0132
2178.00,0.0131
2177.00,0.0130
2176.00,0.0128
2175.00,0.0127
2174.00,0.0127
2173.00,0.0128
2172.00,0.0129
2171.00,0.0128
2170.00,0.0127
2169.00,0.0126
2168.00,0.0126
2167.00,0.0127
2166.00,0.0129
2165.00,0.0131
2164.00,0.0132
2163.00,0.0133
2162.00,0.0132
2161.00,0.0129
2160.00,0.0124
2159.00,0.0120
2158.00,0.0117
2157.00,0.0116
2156.00,0.0117
2155.00,0.0118
2154.00,0.0119
2153.00,0.0120
2152.00,0.0119
2151.00,0.0118
2150.00,0.0117
2149.00,0.0115
2148.00,0.0115
2147.00,0.0115
2146.00,0.0115
2145.00,0.0116
2144.00,0.0117
2143.00,0.0118
2142.00,0.0118
2141.00,0.0117
2140.00,0.0116
2139.00,0.0115
2138.00,0.0114
2137.00,0.0114
2136.00,0.0113
2135.00,0.0112
2134.00,0.0112
2133.00,0.0112
2132.00,0.0112
2131.00,0.0113
2130.00,0.0114
2129.00,0.0114
2128.00,0.0114
2127.00,0.0113
2126.00,0.0113
2125.00,0.0113
2124.00,0.0114
2123.00,0.0114
2122.00,0.0114
2121.00,0.0115
2120.00,0.0116
2119.00,0.0117
2118.00,0.0118
2117.00,0.0118
2116.00,0.0118
2115.00,0.0118
2114.00,0.0118
2113.00,0.0117
2112.00,0.0116
2111.00,0.0115
2110.00,0.0116
2109.00,0.0116
2108.00,0.0116
2107.00,0.0116
2106.00,0.0115
2105.00,0.0115
2104.00,0.0115
2103.00,0.0115
2102.00,0.0115
2101.00,0.0114
2100.00,0.0114
2099.00,0.0114
2098.00,0.0115
2097.00,0.0115
2096.00,0.0114
2095.00,0.0113
2094.00,0.0113
2093.00,0.0114
2092.00,0.0115
2091.00,0.0117
2090.00,0.0117
2089.00,0.0117
2088.00,0.0116
2087.00,0.0115
2086.00,0.0115
2085.00,0.0115
2084.00,0.0115
2083.00,0.0115
2082.00,0.0114
2081.00,0.0113
2080.00,0.0113
2079.00,0.0112
2078.00,0.0113
2077.00,0.0115
2076.00,0.0116
2075.00,0.0117
2074.00,0.0117
2073.00,0.0116
2072.00,0.0115
2071.00,0.0115
2070.00,0.0115
2069.00,0.0116
2068.00,0.0116
2067.00,0.0116
2066.00,0.0116
2065.00,0.0116
2064.00,0.0116
2063.00,0.0115
2062.00,0.0114
2061.00,0.0114
2060.00,0.0114
2059.00,0.0114
2058.00,0.0115
2057.00,0.0115
2056.00,0.0115
2055.00,0.0114
2054.00,0.0114
2053.00,0.0115
2052.00,0.0115
2051.00,0.0116
2050.00,0.0116
2049.00,0.0117
2048.00,0.0116
2047.00,0.0116
2046.00,0.0116
2045.00,0.0116
2044.00,0.0116
2043.00,0.0115
2042.00,0.0115
2041.00,0.0115
2040.00,0.0116
2039.00,0.0118
2038.00,0.0119
2037.00,0.0119
2036.00,0.0118
2035.00,0.0116
2034.00,0.0115
2033.00,0.0114
2032.00,0.0113
2031.00,0.0113
2030.00,0.0114
2029.00,0.0115
2028.00,0.0115
2027.00,0.0114
2026.00,0.0113
2025.00,0.0114
2024.00,0.0115
2023.00,0.0116
2022.00,0.0117
2021.00,0.0117
2020.00,0.0117
2019.00,0.0116
2018.00,0.0115
2017.00,0.0114
2016.00,0.0113
2015.00,0.0113
2014.00,0.0114
2013.00,0.0114
2012.00,0.0114
2011.00,0.0113
2010.00,0.0112
2009.00,0.0111
2008.00,0.0110
2007.00,0.0108
2006.00,0.0107
2005.00,0.0106
2004.00,0.0108
2003.00,0.0110
2002.00,0.0111
2001.00,0.0112
2000.00,0.0111
1999.00,0.0111
1998.00,0.0112
1997.00,0.0112
1996.00,0.0113
1995.00,0.0114
1994.00,0.0114
1993.00,0.0114
1992.00,0.0113
1991.00,0.0112
1990.00,0.0111
1989.00,0.0111
1988.00,0.0111
1987.00,0.0111
1986.00,0.0111
1985.00,0.0111
1984.00,0.0112
1983.00,0.0113
1982.00,0.0115
1981.00,0.0118
1980.00,0.0118
1979.00,0.0118
1978.00,0.0116
1977.00,0.0115
1976.00,0.0114
1975.00,0.0113
1974.00,0.0113
1973.00,0.0113
1972.00,0.0113
1971.00,0.0113
1970.00,0.0114
1969.00,0.0114
1968.00,0.0113
1967.00,0.0112
1966.00,0.0109
1965.00,0.0106
1964.00,0.0105
1963.00,0.0105
1962.00,0.0106
1961.00,0.0107
1960.00,0.0108
1959.00,0.0107
1958.00,0.0107
1957.00,0.0105
1956.00,0.0103
1955.00,0.0100
1954.00,0.0099
1953.00,0.0099
1952.00,0.0100
1951.00,0.0100
1950.00,0.0099
1949.00,0.0099
1948.00,0.0099
1947.00,0.0101
1946.00,0.0103
1945.00,0.0104
1944.00,0.0104
1943.00,0.0103
1942.00,0.0102
1941.00,0.0101
1940.00,0.0101
1939.00,0.0102
1938.00,0.0101
1937.00,0.0100
1936.00,0.0099
1935.00,0.0099
1934.00,0.0099
1933.00,0.0100
1932.00,0.0100
1931.00,0.0100
1930.00,0.0100
1929.00,0.0100
1928.00,0.0099
1927.00,0.0098
1926.00,0.0099
1925.00,0.0101
1924.00,0.0102
1923.00,0.0102
1922.00,0.0102
1921.00,0.0101
1920.00,0.0101
1919.00,0.0100
1918.00,0.0099
1917.00,0.0097
1916.00,0.0097
1915.00,0.0096
1914.00,0.0096
1913.00,0.0096
1912.00,0.0096
1911.00,0.0096
1910.00,0.0096
1909.00,0.0096
1908.00,0.0095
1907.00,0.0094
1906.00,0.0094
1905.00,0.0095
1904.00,0.0095
1903.00,0.0095
1902.00,0.0095
1901.00,0.0095
1900.00,0.0094
1899.00,0.0093
1898.00,0.0093
1897.00,0.0093
1896.00,0.0093
1895.00,0.0093
1894.00,0.0093
1893.00,0.0093
1892.00,0.0093
1891.00,0.0092
1890.00,0.0091
1889.00,0.0091
1888.00,0.0090
1887.00,0.0090
1886.00,0.0090
1885.00,0.0091
1884.00,0.0091
1883.00,0.0090
1882.00,0.0090
1881.00,0.0091
1880.00,0.0090
1879.00,0.0089
1878.00,0.0088
1877.00,0.0088
1876.00,0.0087
1875.00,0.0087
1874.00,0.0088
1873.00,0.0090
1872.00,0.0091
1871.00,0.0092
1870.00,0.0090
1869.00,0.0087
1868.00,0.0086
1867.00,0.0085
1866.00,0.0086
1865.00,0.0086
1864.00,0.0086
1863.00,0.0086
1862.00,0.0085
1861.00,0.0085
1860.00,0.0085
1859.00,0.0085
1858.00,0.0085
1857.00,0.0085
1856.00,0.0085
1855.00,0.0084
1854.00,0.0084
1853.00,0.0083
1852.00,0.0082
1851.00,0.0082
1850.00,0.0082
1849.00,0.0083
1848.00,0.0084
1847.00,0.0085
1846.00,0.0085
1845.00,0.0083
1844.00,0.0080
1843.00,0.0078
1842.00,0.0079
1841.00,0.0080
1840.00,0.0081
1839.00,0.0081
1838.00,0.0080
1837.00,0.0080
1836.00,0.0079
1835.00,0.0079
1834.00,0.0079
1833.00,0.0080
1832.00,0.0081
1831.00,0.0080
1830.00,0.0078
1829.00,0.0078
1828.00,0.0078
1827.00,0.0079
1826.00,0.0079
1825.00,0.0078
1824.00,0.0077
1823.00,0.0076
1822.00,0.0076
1821.00,0.0075
1820.00,0.0075
1819.00,0.0074
1818.00,0.0073
1817.00,0.0072
1816.00,0.0072
1815.00,0.0072
1814.00,0.0073
1813.00,0.0073
1812.00,0.0073
1811.00,0.0073
1810.00,0.0072
1809.00,0.0072
1808.00,0.0072
1807.00,0.0072
1806.00,0.0072
1805.00,0.0073
1804.00,0.0074
1803.00,0.0075
1802.00,0.0075
1801.00,0.0074
1800.00,0.0073
1799.00,0.0072
1798.00,0.0072
1797.00,0.0073
1796.00,0.0075
1795.00,0.0076
1794.00,0.0076
1793.00,0.0075
1792.00,0.0074
1791.00,0.0073
1790.00,0.0074
1789.00,0.0075
1788.00,0.0076
1787.00,0.0076
1786.00,0.0075
1785.00,0.0075
1784.00,0.0075
1783.00,0.0076
1782.00,0.0078
1781.00,0.0078
1780.00,0.0079
1779.00,0.0079
1778.00,0.0080
1777.00,0.0081
1776.00,0.0083
1775.00,0.0086
1774.00,0.0086
1773.00,0.0085
1772.00,0.0084
1771.00,0.0084
1770.00,0.0085
1769.00,0.0086
1768.00,0.0086
1767.00,0.0087
1766.00,0.0088
1765.00,0.0090
1764.00,0.0092
1763.00,0.0093
1762.00,0.0092
1761.00,0.0092
1760.00,0.0093
1759.00,0.0094
1758.00,0.0096
1757.00,0.0096
1756.00,0.0096
1755.00,0.0096
1754.00,0.0098
1753.00,0.0099
1752.00,0.0099
1751.00,0.0099
1750.00,0.0100
1749.00,0.0102
1748.00,0.0104
1747.00,0.0106
1746.00,0.0107
1745.00,0.0107
1744.00,0.0109
1743.00,0.0110
1742.00,0.0111
1741.00,0.0112
1740.00,0.0112
1739.00,0.0112
1738.00,0.0114
1737.00,0.0117
1736.00,0.0119
1735.00,0.0118
1734.00,0.0117
1733.00,0.0117
1732.00,0.0119
1731.00,0.0122
1730.00,0.0125
1729.00,0.0126
1728.00,0.0127
1727.00,0.0127
1726.00,0.0128
1725.00,0.0129
1724.00,0.0130
1723.00,0.0131
1722.00,0.0133
1721.00,0.0135
1720.00,0.0136
1719.00,0.0135
1718.00,0.0134
1717.00,0.0135
1716.00,0.0137
1715.00,0.0138
1714.00,0.0139
1713.00,0.0140
1712.00,0.0140
1711.00,0.0140
1710.00,0.0140
1709.00,0.0141
1708.00,0.0141
1707.00,0.0142
1706.00,0.0142
1705.00,0.0143
1704.00,0.0145
1703.00,0.0148
1702.00,0.0148
1701.00,0.0144
1700.00,0.0140
1699.00,0.0139
1698.00,0.0141
1697.00,0.0144
1696.00,0.0143
1695.00,0.0140
1694.00,0.0139
1693.00,0.0142
1692.00,0.0144
1691.00,0.0144
1690.00,0.0144
1689.00,0.0145
1688.00,0.0146
1687.00,0.0147
1686.00,0.0145
1685.00,0.0142
1684.00,0.0143
1683.00,0.0144
1682.00,0.0145
1681.00,0.0147
1680.00,0.0148
1679.00,0.0149
1678.00,0.0149
1677.00,0.0149
1676.00,0.0147
1675.00,0.0147
1674.00,0.0147
1673.00,0.0149
1672.00,0.0152
1671.00,0.0154
1670.00,0.0155
1669.00,0.0156
1668.00,0.0156
1667.00,0.0156
1666.00,0.0157
1665.00,0.0158
1664.00,0.0159
1663.00,0.0159
1662.00,0.0159
1661.00,0.0159
1660.00,0.0160
1659.00,0.0161
1658.00,0.0162
1657.00,0.0163
1656.00,0.0165
1655.00,0.0165
1654.00,0.0164
1653.00,0.0166
1652.00,0.0164
1651.00,0.0164
1650.00,0.0168
1649.00,0.0171
1648.00,0.0173
1647.00,0.0175
1646.00,0.0177
1645.00,0.0177
1644.00,0.0177
1643.00,0.0178
1642.00,0.0179
1641.00,0.0180
1640.00,0.0180
1639.00,0.0180
1638.00,0.0181
1637.00,0.0182
1636.00,0.0185
1635.00,0.0186
1634.00,0.0186
1633.00,0.0187
1632.00,0.0188
1631.00,0.0190
1630.00,0.0191
1629.00,0.0192
1628.00,0.0193
1627.00,0.0194
1626.00,0.0195
1625.00,0.0196
1624.00,0.0197
1623.00,0.0198
1622.00,0.0199
1621.00,0.0200
1620.00,0.0201
1619.00,0.0201
1618.00,0.0201
1617.00,0.0202
1616.00,0.0203
1615.00,0.0204
1614.00,0.0205
1613.00,0.0207
1612.00,0.0207
1611.00,0.0208
1610.00,0.0210
1609.00,0.0212
1608.00,0.0213
1607.00,0.0214
1606.00,0.0214
1605.00,0.0214
1604.00,0.0214
1603.00,0.0216
1602.00,0.0217
1601.00,0.0218
1600.00,0.0219
1599.00,0.0219
1598.00,0.0219
1597.00,0.0220
1596.00,0.0221
1595.00,0.0223
1594.00,0.0224
1593.00,0.0224
1592.00,0.0224
1591.00,0.0225
1590.00,0.0226
1589.00,0.0227
1588.00,0.0227
1587.00,0.0227
1586.00,0.0228
1585.00,0.0228
1584.00,0.0228
1583.00,0.0228
1582.00,0.0229
1581.00,0.0229
1580.00,0.0230
1579.00,0.0230
1578.00,0.0231
1577.00,0.0231
1576.00,0.0233
1575.00,0.0234
1574.00,0.0234
1573.00,0.0234
1572.00,0.0234
1571.00,0.0234
1570.00,0.0235
1569.00,0.0236
1568.00,0.0236
1567.00,0.0236
1566.00,0.0236
1565.00,0.0237
1564.00,0.0237
1563.00,0.0237
1562.00,0.0236
1561.00,0.0231
1560.00,0.0228
1559.00,0.0237
1558.00,0.0242
1557.00,0.0239
1556.00,0.0237
1555.00,0.0237
1554.00,0.0236
1553.00,0.0235
1552.00,0.0234
1551.00,0.0234
1550.00,0.0235
1549.00,0.0234
1548.00,0.0232
1547.00,0.0231
1546.00,0.0230
1545.00,0.0230
1544.00,0.0232
1543.00,0.0232
1542.00,0.0231
1541.00,0.0230
1540.00,0.0233
1539.00,0.0232
1538.00,0.0229
1537.00,0.0227
1536.00,0.0226
1535.00,0.0225
1534.00,0.0225
1533.00,0.0225
1532.00,0.0224
1531.00,0.0222
1530.00,0.0220
1529.00,0.0219
1528.00,0.0218
1527.00,0.0218
1526.00,0.0216
1525.00,0.0215
1524.00,0.0214
1523.00,0.0212
1522.00,0.0211
1521.00,0.0212
1520.00,0.0211
1519.00,0.0210
1518.00,0.0211
1517.00,0.0211
1516.00,0.0211
1515.00,0.0209
1514.00,0.0206
1513.00,0.0204
1512.00,0.0203
1511.00,0.0203
1510.00,0.0203
1509.00,0.0204
1508.00,0.0206
1507.00,0.0208
1506.00,0.0205
1505.00,0.0199
1504.00,0.0196
1503.00,0.0195
1502.00,0.0195
1501.00,0.0194
1500.00,0.0193
1499.00,0.0191
1498.00,0.0190
1497.00,0.0190
1496.00,0.0190
1495.00,0.0191
1494.00,0.0191
1493.00,0.0192
1492.00,0.0193
1491.00,0.0193
1490.00,0.0194
1489.00,0.0196
1488.00,0.0196
1487.00,0.0195
1486.00,0.0193
1485.00,0.0192
1484.00,0.0191
1483.00,0.0190
1482.00,0.0190
1481.00,0.0190
1480.00,0.0190
1479.00,0.0190
1478.00,0.0189
1477.00,0.0189
1476.00,0.0190
1475.00,0.0190
1474.00,0.0190
1473.00,0.0191
1472.00,0.0192
1471.00,0.0191
1470.00,0.0191
1469.00,0.0191
1468.00,0.0191
1467.00,0.0192
1466.00,0.0192
1465.00,0.0193
1464.00,0.0193
1463.00,0.0193
1462.00,0.0193
1461.00,0.0193
1460.00,0.0193
1459.00,0.0192
1458.00,0.0191
1457.00,0.0194
1456.00,0.0194
1455.00,0.0194
1454.00,0.0195
1453.00,0.0195
1452.00,0.0196
1451.00,0.0196
1450.00,0.0196
1449.00,0.0198
1448.00,0.0199
1447.00,0.0200
1446.00,0.0199
1445.00,0.0199
1444.00,0.0199
1443.00,0.0199
1442.00,0.0199
1441.00,0.0199
1440.00,0.0200
1439.00,0.0200
1438.00,0.0200
1437.00,0.0200
1436.00,0.0201
1435.00,0.0202
1434.00,0.0203
1433.00,0.0203
1432.00,0.0204
1431.00,0.0204
1430.00,0.0205
1429.00,0.0205
1428.00,0.0205
1427.00,0.0205
1426.00,0.0204
1425.00,0.0205
1424.00,0.0206
1423.00,0.0207
1422.00,0.0207
1421.00,0.0206
1420.00,0.0206
1419.00,0.0207
1418.00,0.0210
1417.00,0.0211
1416.00,0.0211
1415.00,0.0211
1414.00,0.0211
1413.00,0.0211
1412.00,0.0211
1411.00,0.0212
1410.00,0.0212
1409.00,0.0212
1408.00,0.0211
1407.00,0.0212
1406.00,0.0213
1405.00,0.0215
1404.00,0.0217
1403.00,0.0218
1402.00,0.0218
1401.00,0.0218
1400.00,0.0219
1399.00,0.0221
1398.00,0.0223
1397.00,0.0224
1396.00,0.0225
1395.00,0.0226
1394.00,0.0226
1393.00,0.0225
1392.00,0.0224
1391.00,0.0223
1390.00,0.0223
1389.00,0.0224
1388.00,0.0225
1387.00,0.0227
1386.00,0.0228
1385.00,0.0228
1384.00,0.0228
1383.00,0.0228
1382.00,0.0228
1381.00,0.0228
1380.00,0.0229
1379.00,0.0229
1378.00,0.0228
1377.00,0.0228
1376.00,0.0229
1375.00,0.0230
1374.00,0.0231
1373.00,0.0231
1372.00,0.0230
1371.00,0.0230
1370.00,0.0230
1369.00,0.0230
1368.00,0.0230
1367.00,0.0230
1366.00,0.0229
1365.00,0.0228
1364.00,0.0229
1363.00,0.0230
1362.00,0.0232
1361.00,0.0232
1360.00,0.0232
1359.00,0.0231
1358.00,0.0231
1357.00,0.0230
1356.00,0.0229
1355.00,0.0229
1354.00,0.0229
1353.00,0.0229
1352.00,0.0228
1351.00,0.0228
1350.00,0.0228
1349.00,0.0228
1348.00,0.0228
1347.00,0.0228
1346.00,0.0228
1345.00,0.0228
1344.00,0.0227
1343.00,0.0227
1342.00,0.0227
1341.00,0.0228
1340.00,0.0229
1339.00,0.0230
1338.00,0.0230
1337.00,0.0229
1336.00,0.0228
1335.00,0.0227
1334.00,0.0226
1333.00,0.0226
1332.00,0.0225
1331.00,0.0225
1330.00,0.0224
1329.00,0.0224
1328.00,0.0223
1327.00,0.0223
1326.00,0.0223
1325.00,0.0223
1324.00,0.0223
1323.00,0.0223
1322.00,0.0223
1321.00,0.0222
1320.00,0.0222
1319.00,0.0222
1318.00,0.0223
1317.00,0.0223
1316.00,0.0223
1315.00,0.0223
1314.00,0.0223
1313.00,0.0223
1312.00,0.0223
1311.00,0.0222
1310.00,0.0222
1309.00,0.0222
1308.00,0.0222
1307.00,0.0222
1306.00,0.0222
1305.00,0.0222
1304.00,0.0222
1303.00,0.0222
1302.00,0.0222
1301.00,0.0222
1300.00,0.0222
1299.00,0.0222
1298.00,0.0222
1297.00,0.0222
1296.00,0.0222
1295.00,0.0222
1294.00,0.0222
1293.00,0.0222
1292.00,0.0222
1291.00,0.0223
1290.00,0.0223
1289.00,0.0224
1288.00,0.0225
1287.00,0.0225
1286.00,0.0225
1285.00,0.0225
1284.00,0.0225
1283.00,0.0225
1282.00,0.0226
1281.00,0.0226
1280.00,0.0227
1279.00,0.0227
1278.00,0.0228
1277.00,0.0228
1276.00,0.0228
1275.00,0.0229
1274.00,0.0229
1273.00,0.0230
1272.00,0.0230
1271.00,0.0230
1270.00,0.0230
1269.00,0.0230
1268.00,0.0230
1267.00,0.0230
1266.00,0.0230
1265.00,0.0229
1264.00,0.0228
1263.00,0.0228
1262.00,0.0228
1261.00,0.0229
1260.00,0.0230
1259.00,0.0231
1258.00,0.0231
1257.00,0.0232
1256.00,0.0233
1255.00,0.0234
1254.00,0.0235
1253.00,0.0236
1252.00,0.0237
1251.00,0.0237
1250.00,0.0238
1249.00,0.0238
1248.00,0.0238
1247.00,0.0239
1246.00,0.0239
1245.00,0.0239
1244.00,0.0239
1243.00,0.0239
1242.00,0.0239
1241.00,0.0239
1240.00,0.0239
1239.00,0.0239
1238.00,0.0239
1237.00,0.0240
1236.00,0.0240
1235.00,0.0239
1234.00,0.0239
1233.00,0.0238
1232.00,0.0238
1231.00,0.0238
1230.00,0.0238
1229.00,0.0238
1228.00,0.0238
1227.00,0.0238
1226.00,0.0238
1225.00,0.0239
1224.00,0.0239
1223.00,0.0239
1222.00,0.0238
1221.00,0.0237
1220.00,0.0236
1219.00,0.0236
1218.00,0.0236
1217.00,0.0236
1216.00,0.0236
1215.00,0.0236
1214.00,0.0236
1213.00,0.0236
1212.00,0.0236
1211.00,0.0235
1210.00,0.0235
1209.00,0.0235
1208.00,0.0234
1207.00,0.0234
1206.00,0.0234
1205.00,0.0234
1204.00,0.0234
1203.00,0.0234
1202.00,0.0234
1201.00,0.0234
1200.00,0.0234
1199.00,0.0234
1198.00,0.0234
1197.00,0.0233
1196.00,0.0232
1195.00,0.0232
1194.00,0.0233
1193.00,0.0233
1192.00,0.0233
1191.00,0.0233
1190.00,0.0233
1189.00,0.0234
1188.00,0.0235
1187.00,0.0235
1186.00,0.0236
1185.00,0.0236
1184.00,0.0236
1183.00,0.0236
1182.00,0.0235
1181.00,0.0235
1180.00,0.0236
1179.00,0.0237
1178.00,0.0238
1177.00,0.0238
1176.00,0.0239
1175.00,0.0238
1174.00,0.0238
1173.00,0.0238
1172.00,0.0237
1171.00,0.0237
1170.00,0.0237
1169.00,0.0238
1168.00,0.0238
1167.00,0.0239
1166.00,0.0239
1165.00,0.0239
1164.00,0.0239
1163.00,0.0239
1162.00,0.0239
1161.00,0.0239
1160.00,0.0239
1159.00,0.0240
1158.00,0.0240
1157.00,0.0239
1156.00,0.0239
1155.00,0.0239
1154.00,0.0239
1153.00,0.0240
1152.00,0.0240
1151.00,0.0240
1150.00,0.0239
1149.00,0.0239
1148.00,0.0239
1147.00,0.0239
1146.00,0.0239
1145.00,0.0239
1144.00,0.0239
1143.00,0.0238
1142.00,0.0236
1141.00,0.0235
1140.00,0.0235
1139.00,0.0235
1138.00,0.0236
1137.00,0.0236
1136.00,0.0236
1135.00,0.0236
1134.00,0.0236
1133.00,0.0236
1132.00,0.0236
1131.00,0.0235
1130.00,0.0235
1129.00,0.0235
1128.00,0.0235
1127.00,0.0236
1126.00,0.0236
1125.00,0.0236
1124.00,0.0236
1123.00,0.0235
1122.00,0.0235
1121.00,0.0235
1120.00,0.0236
1119.00,0.0237
1118.00,0.0237
1117.00,0.0237
1116.00,0.0236
1115.00,0.0235
1114.00,0.0235
1113.00,0.0234
1112.00,0.0234
1111.00,0.0233
1110.00,0.0233
1109.00,0.0233
1108.00,0.0234
1107.00,0.0235
1106.00,0.0236
1105.00,0.0237
1104.00,0.0238
1103.00,0.0238
1102.00,0.0238
1101.00,0.0237
1100.00,0.0237
1099.00,0.0238
1098.00,0.0239
1097.00,0.0240
1096.00,0.0239
1095.00,0.0239
1094.00,0.0239
1093.00,0.0240
1092.00,0.0240
1091.00,0.0241
1090.00,0.0241
1089.00,0.0241
1088.00,0.0243
1087.00,0.0244
1086.00,0.0244
1085.00,0.0243
1084.00,0.0243
1083.00,0.0243
1082.00,0.0244
1081.00,0.0244
1080.00,0.0243
1079.00,0.0243
1078.00,0.0242
1077.00,0.0243
1076.00,0.0244
1075.00,0.0245
1074.00,0.0246
1073.00,0.0246
1072.00,0.0247
1071.00,0.0246
1070.00,0.0246
1069.00,0.0246
1068.00,0.0246
1067.00,0.0246
1066.00,0.0246
1065.00,0.0246
1064.00,0.0246
1063.00,0.0245
1062.00,0.0244
1061.00,0.0243
1060.00,0.0243
1059.00,0.0243
1058.00,0.0244
1057.00,0.0243
1056.00,0.0243
1055.00,0.0243
1054.00,0.0243
1053.00,0.0244
1052.00,0.0245
1051.00,0.0246
1050.00,0.0247
1049.00,0.0247
1048.00,0.0247
1047.00,0.0247
1046.00,0.0247
1045.00,0.0246
1044.00,0.0246
1043.00,0.0245
1042.00,0.0245
1041.00,0.0244
1040.00,0.0244
1039.00,0.0244
1038.00,0.0244
1037.00,0.0244
1036.00,0.0244
1035.00,0.0245
1034.00,0.0245
1033.00,0.0246
1032.00,0.0246
1031.00,0.0245
1030.00,0.0243
1029.00,0.0242
1028.00,0.0241
1027.00,0.0241
1026.00,0.0241
1025.00,0.0240
1024.00,0.0240
1023.00,0.0239
1022.00,0.0239
1021.00,0.0239
1020.00,0.0239
1019.00,0.0238
1018.00,0.0238
1017.00,0.0238
1016.00,0.0239
1015.00,0.0240
1014.00,0.0240
1013.00,0.0240
1012.00,0.0240
1011.00,0.0241
1010.00,0.0241
1009.00,0.0242
1008.00,0.0242
1007.00,0.0242
1006.00,0.0242
1005.00,0.0242
1004.00,0.0242
1003.00,0.0242
1002.00,0.0242
1001.00,0.0242
1000.00,0.0241
999.00,0.0241
998.00,0.0241
997.00,0.0239
996.00,0.0237
995.00,0.0236
994.00,0.0235
993.00,0.0235
992.00,0.0236
991.00,0.0235
990.00,0.0234
989.00,0.0233
988.00,0.0232
987.00,0.0232
986.00,0.0231
985.00,0.0230
984.00,0.0230
983.00,0.0230
982.00,0.0231
981.00,0.0231
980.00,0.0231
979.00,0.0231
978.00,0.0230
977.00,0.0229
976.00,0.0228
975.00,0.0228
974.00,0.0227
973.00,0.0227
972.00,0.0227
971.00,0.0228
970.00,0.0229
969.00,0.0229
968.00,0.0229
967.00,0.0228
966.00,0.0228
965.00,0.0228
964.00,0.0228
963.00,0.0228
962.00,0.0227
961.00,0.0226
960.00,0.0226
959.00,0.0226
958.00,0.0226
957.00,0.0226
956.00,0.0226
955.00,0.0227
954.00,0.0228
953.00,0.0229
952.00,0.0229
951.00,0.0229
950.00,0.0228
949.00,0.0227
948.00,0.0228
947.00,0.0228
946.00,0.0229
945.00,0.0229
944.00,0.0229
943.00,0.0228
942.00,0.0227
941.00,0.0227
940.00,0.0227
939.00,0.0227
938.00,0.0227
937.00,0.0227
936.00,0.0228
935.00,0.0228
934.00,0.0228
933.00,0.0227
932.00,0.0227
931.00,0.0226
930.00,0.0225
929.00,0.0225
928.00,0.0225
927.00,0.0226
926.00,0.0227
925.00,0.0228
924.00,0.0228
923.00,0.0228
922.00,0.0228
921.00,0.0228
920.00,0.0229
919.00,0.0230
918.00,0.0231
917.00,0.0232
916.00,0.0232
915.00,0.0232
914.00,0.0232
913.00,0.0232
912.00,0.0232
911.00,0.0233
910.00,0.0234
909.00,0.0235
908.00,0.0235
907.00,0.0234
906.00,0.0233
905.00,0.0231
904.00,0.0229
903.00,0.0228
902.00,0.0228
901.00,0.0229
900.00,0.0230
899.00,0.0231
898.00,0.0231
897.00,0.0231
896.00,0.0230
895.00,0.0230
894.00,0.0230
893.00,0.0230
892.00,0.0229
891.00,0.0228
890.00,0.0228
889.00,0.0228
888.00,0.0228
887.00,0.0229
886.00,0.0230
885.00,0.0230
884.00,0.0229
883.00,0.0228
882.00,0.0228
881.00,0.0228
880.00,0.0228
879.00,0.0228
878.00,0.0228
877.00,0.0227
876.00,0.0227
875.00,0.0228
874.00,0.0228
873.00,0.0228
872.00,0.0227
871.00,0.0226
870.00,0.0224
869.00,0.0223
868.00,0.0224
867.00,0.0225
866.00,0.0225
865.00,0.0224
864.00,0.0224
863.00,0.0225
862.00,0.0226
861.00,0.0226
860.00,0.0227
859.00,0.0227
858.00,0.0227
857.00,0.0227
856.00,0.0227
855.00,0.0228
854.00,0.0228
853.00,0.0228
852.00,0.0227
851.00,0.0226
850.00,0.0225
849.00,0.0225
848.00,0.0225
847.00,0.0227
846.00,0.0228
845.00,0.0229
844.00,0.0229
843.00,0.0229
842.00,0.0228
841.00,0.0228
840.00,0.0229
839.00,0.0231
838.00,0.0233
837.00,0.0236
836.00,0.0237
835.00,0.0237
834.00,0.0236
833.00,0.0234
832.00,0.0234
831.00,0.0235
830.00,0.0237
829.00,0.0238
828.00,0.0238
827.00,0.0238
826.00,0.0237
825.00,0.0236
824.00,0.0236
823.00,0.0236
822.00,0.0236
821.00,0.0236
820.00,0.0236
819.00,0.0236
818.00,0.0235
817.00,0.0234
816.00,0.0234
815.00,0.0233
814.00,0.0232
813.00,0.0231
812.00,0.0231
811.00,0.0232
810.00,0.0233
809.00,0.0235
808.00,0.0236
807.00,0.0237
806.00,0.0237
805.00,0.0238
804.00,0.0238
803.00,0.0237
802.00,0.0238
801.00,0.0240
800.00,0.0241
799.00,0.0241
798.00,0.0240
797.00,0.0240
796.00,0.0240
795.00,0.0241
794.00,0.0243
793.00,0.0244
792.00,0.0245
791.00,0.0246
790.00,0.0246
789.00,0.0246
788.00,0.0247
787.00,0.0248
786.00,0.0249
785.00,0.0250
784.00,0.0251
783.00,0.0252
782.00,0.0253
781.00,0.0253
780.00,0.0253
779.00,0.0252
778.00,0.0251
777.00,0.0251
776.00,0.0252
775.00,0.0253
774.00,0.0254
773.00,0.0253
772.00,0.0253
771.00,0.0253
770.00,0.0253
769.00,0.0252
768.00,0.0252
767.00,0.0251
766.00,0.0250
765.00,0.0250
764.00,0.0251
763.00,0.0252
762.00,0.0253
761.00,0.0253
760.00,0.0255
759.00,0.0258
758.00,0.0260
757.00,0.0262
756.00,0.0262
755.00,0.0261
754.00,0.0260
753.00,0.0260
752.00,0.0262
751.00,0.0263
750.00,0.0264
749.00,0.0265
748.00,0.0264
747.00,0.0264
746.00,0.0264
745.00,0.0263
744.00,0.0263
743.00,0.0262
742.00,0.0261
741.00,0.0259
740.00,0.0258
739.00,0.0257
738.00,0.0258
737.00,0.0258
736.00,0.0260
735.00,0.0260
734.00,0.0260
733.00,0.0261
732.00,0.0261
731.00,0.0262
730.00,0.0262
729.00,0.0261
728.00,0.0261
727.00,0.0260
726.00,0.0261
725.00,0.0262
724.00,0.0262
723.00,0.0262
722.00,0.0262
721.00,0.0263
720.00,0.0265
719.00,0.0265
718.00,0.0265
717.00,0.0265
716.00,0.0264
715.00,0.0265
714.00,0.0268
713.00,0.0271
712.00,0.0275
711.00,0.0277
710.00,0.0275
709.00,0.0272
708.00,0.0270
707.00,0.0272
706.00,0.0275
705.00,0.0279
704.00,0.0280
703.00,0.0279
702.00,0.0276
701.00,0.0274
700.00,0.0275
699.00,0.0275
698.00,0.0276
697.00,0.0276
696.00,0.0277
695.00,0.0277
694.00,0.0277
693.00,0.0276
692.00,0.0277
691.00,0.0278
690.00,0.0278
689.00,0.0278
688.00,0.0276
687.00,0.0274
686.00,0.0272
685.00,0.0270
684.00,0.0269
683.00,0.0270
682.00,0.0271
681.00,0.0274
680.00,0.0276
679.00,0.0278
678.00,0.0280
677.00,0.0282
676.00,0.0285
675.00,0.0286
674.00,0.0285
673.00,0.0282
672.00,0.0279
671.00,0.0278
670.00,0.0281
669.00,0.0292
668.00,0.0309
667.00,0.0314
666.00,0.0307
665.00,0.0299
664.00,0.0291
663.00,0.0283
662.00,0.0276
661.00,0.0276
660.00,0.0282
659.00,0.0290
658.00,0.0295
657.00,0.0295
656.00,0.0293
655.00,0.0292
654.00,0.0292
653.00,0.0291
652.00,0.0290
651.00,0.0290
650.00,0.0285
