Created as New Dataset,
cm-1,A
4000.00,0.0134
3999.00,0.0134
3998.00,0.0134
3997.00,0.0134
3996.00,0.0134
3995.00,0.0135
3994.00,0.0135
3993.00,0.0135
3992.00,0.0135
3991.00,0.0134
3990.00,0.0133
3989.00,0.0133
3988.00,0.0132
3987.00,0.0132
3986.00,0.0132
3985.00,0.0133
3984.00,0.0133
3983.00,0.0133
3982.00,0.0134
3981.00,0.0134
3980.00,0.0134
3979.00,0.0134
3978.00,0.0134
3977.00,0.0135
3976.00,0.0135
3975.00,0.0135
3974.00,0.0135
3973.00,0.0135
3972.00,0.0135
3971.00,0.0135
3970.00,0.0134
3969.00,0.0133
3968.00,0.0133
3967.00,0.0132
3966.00,0.0132
3965.00,0.0132
3964.00,0.0133
3963.00,0.0133
3962.00,0.0133
3961.00,0.0133
3960.00,0.0133
3959.00,0.0133
3958.00,0.0133
3957.00,0.0133
3956.00,0.0133
3955.00,0.0132
3954.00,0.0132
3953.00,0.0133
3952.00,0.0133
3951.00,0.0134
3950.00,0.0135
3949.00,0.0135
3948.00,0.0135
3947.00,0.0135
3946.00,0.0135
3945.00,0.0136
3944.00,0.0136
3943.00,0.0135
3942.00,0.0135
3941.00,0.0135
3940.00,0.0134
3939.00,0.0133
3938.00,0.0132
3937.00,0.0132
3936.00,0.0133
3935.00,0.0134
3934.00,0.0135
3933.00,0.0135
3932.00,0.0135
3931.00,0.0135
3930.00,0.0135
3929.00,0.0135
3928.00,0.0135
3927.00,0.0135
3926.00,0.0135
3925.00,0.0134
3924.00,0.0134
3923.00,0.0135
3922.00,0.0135
3921.00,0.0135
3920.00,0.0135
3919.00,0.0135
3918.00,0.0136
3917.00,0.0135
3916.00,0.0134
3915.00,0.0133
3914.00,0.0133
3913.00,0.0132
3912.00,0.0131
3911.00,0.0130
3910.00,0.0130
3909.00,0.0131
3908.00,0.0132
3907.00,0.0134
3906.00,0.0136
3905.00,0.0136
3904.00,0.0138
3903.00,0.0140
3902.00,0.0142
3901.00,0.0143
3900.00,0.0142
3899.00,0.0139
3898.00,0.0136
3897.00,0.0135
3896.00,0.0135
3895.00,0.0135
3894.00,0.0135
3893.00,0.0135
3892.00,0.0134
3891.00,0.0132
3890.00,0.0132
3889.00,0.0134
3888.00,0.0136
3887.00,0.0136
3886.00,0.0133
3885.00,0.0133
3884.00,0.0136
3883.00,0.0140
3882.00,0.0141
3881.00,0.0138
3880.00,0.0135
3879.00,0.0133
3878.00,0.0134
3877.00,0.0135
3876.00,0.0135
3875.00,0.0133
3874.00,0.0132
3873.00,0.0135
3872.00,0.0139
3871.00,0.0139
3870.00,0.0136
3869.00,0.0135
3868.00,0.0137
3867.00,0.0139
3866.00,0.0139
3865.00,0.0136
3864.00,0.0135
3863.00,0.0136
3862.00,0.0136
3861.00,0.0135
3860.00,0.0133
3859.00,0.0132
3858.00,0.0132
3857.00,0.0134
3856.00,0.0135
3855.00,0.0135
3854.00,0.0133
3853.00,0.0134
3852.00,0.0136
3851.00,0.0137
3850.00,0.0136
3849.00,0.0134
3848.00,0.0131
3847.00,0.0130
3846.00,0.0129
3845.00,0.0129
3844.00,0.0129
3843.00,0.0130
3842.00,0.0132
3841.00,0.0135
3840.00,0.0137
3839.00,0.0137
3838.00,0.0136
3837.00,0.0136
3836.00,0.0136
3835.00,0.0136
3834.00,0.0135
3833.00,0.0133
3832.00,0.0131
3831.00,0.0130
3830.00,0.0130
3829.00,0.0131
3828.00,0.0131
3827.00,0.0130
3826.00,0.0128
3825.00,0.0130
3824.00,0.0133
3823.00,0.0134
3822.00,0.0132
3821.00,0.0130
3820.00,0.0131
3819.00,0.0134
3818.00,0.0136
3817.00,0.0133
3816.00,0.0129
3815.00,0.0127
3814.00,0.0128
3813.00,0.0129
3812.00,0.0127
3811.00,0.0126
3810.00,0.0125
3809.00,0.0126
3808.00,0.0125
3807.00,0.0123
3806.00,0.0124
3805.00,0.0128
3804.00,0.0132
3803.00,0.0133
3802.00,0.0130
3801.00,0.0128
3800.00,0.0130
3799.00,0.0132
3798.00,0.0132
3797.00,0.0129
3796.00,0.0126
3795.00,0.0125
3794.00,0.0126
3793.00,0.0126
3792.00,0.0125
3791.00,0.0124
3790.00,0.0123
3789.00,0.0123
3788.00,0.0123
3787.00,0.0124
3786.00,0.0124
3785.00,0.0123
3784.00,0.0124
3783.00,0.0125
3782.00,0.0126
3781.00,0.0126
3780.00,0.0125
3779.00,0.0124
3778.00,0.0124
3777.00,0.0125
3776.00,0.0125
3775.00,0.0123
3774.00,0.0123
3773.00,0.0123
3772.00,0.0124
3771.00,0.0124
3770.00,0.0124
3769.00,0.0125
3768.00,0.0127
3767.00,0.0129
3766.00,0.0128
3765.00,0.0126
3764.00,0.0125
3763.00,0.0127
3762.00,0.0128
3761.00,0.0128
3760.00,0.0127
3759.00,0.0127
3758.00,0.0127
3757.00,0.0127
3756.00,0.0128
3755.00,0.0129
3754.00,0.0129
3753.00,0.0127
3752.00,0.0127
3751.00,0.0129
3750.00,0.0131
3749.00,0.0132
3748.00,0.0135
3747.00,0.0138
3746.00,0.0138
3745.00,0.0132
3744.00,0.0128
3743.00,0.0128
3742.00,0.0131
3741.00,0.0132
3740.00,0.0131
3739.00,0.0130
3738.00,0.0131
3737.00,0.0132
3736.00,0.0134
3735.00,0.0135
3734.00,0.0136
3733.00,0.0135
3732.00,0.0131
3731.00,0.0128
3730.00,0.0128
3729.00,0.0129
3728.00,0.0129
3727.00,0.0128
3726.00,0.0128
3725.00,0.0129
3724.00,0.0130
3723.00,0.0130
3722.00,0.0129
3721.00,0.0128
3720.00,0.0128
3719.00,0.0127
3718.00,0.0126
3717.00,0.0125
3716.00,0.0126
3715.00,0.0127
3714.00,0.0128
3713.00,0.0128
3712.00,0.0130
3711.00,0.0132
3710.00,0.0135
3709.00,0.0135
3708.00,0.0134
3707.00,0.0132
3706.00,0.0131
3705.00,0.0131
3704.00,0.0131
3703.00,0.0132
3702.00,0.0133
3701.00,0.0134
3700.00,0.0135
3699.00,0.0136
3698.00,0.0136
3697.00,0.0136
3696.00,0.0135
3695.00,0.0136
3694.00,0.0137
3693.00,0.0138
3692.00,0.0139
3691.00,0.0141
3690.00,0.0142
3689.00,0.0143
3688.00,0.0142
3687.00,0.0141
3686.00,0.0141
3685.00,0.0140
3684.00,0.0139
3683.00,0.0138
3682.00,0.0137
3681.00,0.0136
3680.00,0.0136
3679.00,0.0137
3678.00,0.0141
3677.00,0.0145
3676.00,0.0147
3675.00,0.0148
3674.00,0.0150
3673.00,0.0153
3672.00,0.0155
3671.00,0.0153
3670.00,0.0152
3669.00,0.0153
3668.00,0.0155
3667.00,0.0156
3666.00,0.0155
3665.00,0.0153
3664.00,0.0152
3663.00,0.0152
3662.00,0.0153
3661.00,0.0154
3660.00,0.0155
3659.00,0.0158
3658.00,0.0161
3657.00,0.0163
3656.00,0.0165
3655.00,0.0167
3654.00,0.0170
3653.00,0.0173
3652.00,0.0174
3651.00,0.0175
3650.00,0.0180
3649.00,0.0189
3648.00,0.0195
3647.00,0.0195
3646.00,0.0193
3645.00,0.0190
3644.00,0.0187
3643.00,0.0185
3642.00,0.0184
3641.00,0.0184
3640.00,0.0184
3639.00,0.0185
3638.00,0.0186
3637.00,0.0188
3636.00,0.0189
3635.00,0.0189
3634.00,0.0189
3633.00,0.0190
3632.00,0.0193
3631.00,0.0198
3630.00,0.0201
3629.00,0.0205
3628.00,0.0209
3627.00,0.0211
3626.00,0.0211
3625.00,0.0210
3624.00,0.0208
3623.00,0.0208
3622.00,0.0210
3621.00,0.0214
3620.00,0.0218
3619.00,0.0222
3618.00,0.0224
3617.00,0.0225
3616.00,0.0225
3615.00,0.0224
3614.00,0.0222
3613.00,0.0221
3612.00,0.0222
3611.00,0.0223
3610.00,0.0225
3609.00,0.0225
3608.00,0.0226
3607.00,0.0227
3606.00,0.0227
3605.00,0.0226
3604.00,0.0224
3603.00,0.0224
3602.00,0.0224
3601.00,0.0226
3600.00,0.0227
3599.00,0.0229
3598.00,0.0230
3597.00,0.0230
3596.00,0.0232
3595.00,0.0233
3594.00,0.0235
3593.00,0.0235
3592.00,0.0235
3591.00,0.0235
3590.00,0.0236
3589.00,0.0239
3588.00,0.0242
3587.00,0.0246
3586.00,0.0248
3585.00,0.0248
3584.00,0.0246
3583.00,0.0244
3582.00,0.0243
3581.00,0.0242
3580.00,0.0243
3579.00,0.0244
3578.00,0.0245
3577.00,0.0246
3576.00,0.0246
3575.00,0.0246
3574.00,0.0246
3573.00,0.0246
3572.00,0.0246
3571.00,0.0247
3570.00,0.0250
3569.00,0.0254
3568.00,0.0259
3567.00,0.0265
3566.00,0.0269
3565.00,0.0270
3564.00,0.0268
3563.00,0.0265
3562.00,0.0263
3561.00,0.0261
3560.00,0.0261
3559.00,0.0261
3558.00,0.0261
3557.00,0.0261
3556.00,0.0261
3555.00,0.0262
3554.00,0.0263
3553.00,0.0264
3552.00,0.0266
3551.00,0.0267
3550.00,0.0269
3549.00,0.0270
3548.00,0.0271
3547.00,0.0273
3546.00,0.0276
3545.00,0.0277
3544.00,0.0277
3543.00,0.0276
3542.00,0.0275
3541.00,0.0275
3540.00,0.0275
3539.00,0.0275
3538.00,0.0276
3537.00,0.0278
3536.00,0.0279
3535.00,0.0280
3534.00,0.0280
3533.00,0.0280
3532.00,0.0280
3531.00,0.0281
3530.00,0.0282
3529.00,0.0283
3528.00,0.0285
3527.00,0.0287
3526.00,0.0289
3525.00,0.0290
3524.00,0.0291
3523.00,0.0292
3522.00,0.0292
3521.00,0.0292
3520.00,0.0291
3519.00,0.0291
3518.00,0.0291
3517.00,0.0291
3516.00,0.0292
3515.00,0.0293
3514.00,0.0293
3513.00,0.0293
3512.00,0.0295
3511.00,0.0296
3510.00,0.0298
3509.00,0.0300
3508.00,0.0300
3507.00,0.0300
3506.00,0.0301
3505.00,0.0301
3504.00,0.0302
3503.00,0.0304
3502.00,0.0305
3501.00,0.0306
3500.00,0.0307
3499.00,0.0307
3498.00,0.0306
3497.00,0.0306
3496.00,0.0307
3495.00,0.0307
3494.00,0.0308
3493.00,0.0308
3492.00,0.0308
3491.00,0.0308
3490.00,0.0309
3489.00,0.0309
3488.00,0.0310
3487.00,0.0312
3486.00,0.0313
3485.00,0.0314
3484.00,0.0314
3483.00,0.0315
3482.00,0.0316
3481.00,0.0317
3480.00,0.0318
3479.00,0.0319
3478.00,0.0319
3477.00,0.0319
3476.00,0.0319
3475.00,0.0319
3474.00,0.0320
3473.00,0.0321
3472.00,0.0322
3471.00,0.0322
3470.00,0.0323
3469.00,0.0323
3468.00,0.0324
3467.00,0.0324
3466.00,0.0325
3465.00,0.0326
3464.00,0.0326
3463.00,0.0327
3462.00,0.0327
3461.00,0.0327
3460.00,0.0327
3459.00,0.0327
3458.00,0.0328
3457.00,0.0329
3456.00,0.0329
3455.00,0.0330
3454.00,0.0331
3453.00,0.0332
3452.00,0.0332
3451.00,0.0333
3450.00,0.0333
3449.00,0.0334
3448.00,0.0335
3447.00,0.0336
3446.00,0.0337
3445.00,0.0337
3444.00,0.0337
3443.00,0.0337
3442.00,0.0337
3441.00,0.0338
3440.00,0.0338
3439.00,0.0338
3438.00,0.0338
3437.00,0.0338
3436.00,0.0338
3435.00,0.0339
3434.00,0.0339
3433.00,0.0340
3432.00,0.0341
3431.00,0.0341
3430.00,0.0342
3429.00,0.0342
3428.00,0.0343
3427.00,0.0343
3426.00,0.0343
3425.00,0.0344
3424.00,0.0344
3423.00,0.0345
3422.00,0.0345
3421.00,0.0346
3420.00,0.0347
3419.00,0.0348
3418.00,0.0348
3417.00,0.0348
3416.00,0.0348
3415.00,0.0347
3414.00,0.0347
3413.00,0.0348
3412.00,0.0348
3411.00,0.0349
3410.00,0.0350
3409.00,0.0350
3408.00,0.0351
3407.00,0.0351
3406.00,0.0352
3405.00,0.0352
3404.00,0.0352
3403.00,0.0353
3402.00,0.0353
3401.00,0.0353
3400.00,0.0353
3399.00,0.0352
3398.00,0.0353
3397.00,0.0353
3396.00,0.0354
3395.00,0.0354
3394.00,0.0355
3393.00,0.0355
3392.00,0.0356
3391.00,0.0356
3390.00,0.0356
3389.00,0.0356
3388.00,0.0356
3387.00,0.0356
3386.00,0.0356
3385.00,0.0357
3384.00,0.0357
3383.00,0.0357
3382.00,0.0357
3381.00,0.0356
3380.00,0.0356
3379.00,0.0356
3378.00,0.0356
3377.00,0.0357
3376.00,0.0357
3375.00,0.0358
3374.00,0.0359
3373.00,0.0359
3372.00,0.0360
3371.00,0.0360
3370.00,0.0359
3369.00,0.0359
3368.00,0.0360
3367.00,0.0360
3366.00,0.0361
3365.00,0.0361
3364.00,0.0362
3363.00,0.0362
3362.00,0.0361
3361.00,0.0361
3360.00,0.0361
3359.00,0.0361
3358.00,0.0361
3357.00,0.0361
3356.00,0.0361
3355.00,0.0361
3354.00,0.0361
3353.00,0.0360
3352.00,0.0360
3351.00,0.0359
3350.00,0.0359
3349.00,0.0359
3348.00,0.0359
3347.00,0.0359
3346.00,0.0360
3345.00,0.0360
3344.00,0.0360
3343.00,0.0360
3342.00,0.0360
3341.00,0.0360
3340.00,0.0360
3339.00,0.0360
3338.00,0.0361
3337.00,0.0361
3336.00,0.0361
3335.00,0.0361
3334.00,0.0361
3333.00,0.0361
3332.00,0.0361
3331.00,0.0361
3330.00,0.0361
3329.00,0.0361
3328.00,0.0361
3327.00,0.0361
3326.00,0.0361
3325.00,0.0361
3324.00,0.0361
3323.00,0.0361
3322.00,0.0361
3321.00,0.0360
3320.00,0.0360
3319.00,0.0360
3318.00,0.0359
3317.00,0.0359
3316.00,0.0359
3315.00,0.0359
3314.00,0.0359
3313.00,0.0359
3312.00,0.0359
3311.00,0.0360
3310.00,0.0360
3309.00,0.0360
3308.00,0.0360
3307.00,0.0361
3306.00,0.0361
3305.00,0.0361
3304.00,0.0362
3303.00,0.0362
3302.00,0.0361
3301.00,0.0360
3300.00,0.0359
3299.00,0.0359
3298.00,0.0359
3297.00,0.0360
3296.00,0.0360
3295.00,0.0360
3294.00,0.0360
3293.00,0.0359
3292.00,0.0359
3291.00,0.0359
3290.00,0.0359
3289.00,0.0359
3288.00,0.0359
3287.00,0.0360
3286.00,0.0360
3285.00,0.0360
3284.00,0.0360
3283.00,0.0360
3282.00,0.0359
3281.00,0.0359
3280.00,0.0359
3279.00,0.0359
3278.00,0.0360
3277.00,0.0360
3276.00,0.0360
3275.00,0.0360
3274.00,0.0361
3273.00,0.0361
3272.00,0.0361
3271.00,0.0361
3270.00,0.0361
3269.00,0.0360
3268.00,0.0360
3267.00,0.0360
3266.00,0.0360
3265.00,0.0360
3264.00,0.0360
3263.00,0.0360
3262.00,0.0360
3261.00,0.0360
3260.00,0.0360
3259.00,0.0359
3258.00,0.0360
3257.00,0.0360
3256.00,0.0360
3255.00,0.0360
3254.00,0.0360
3253.00,0.0360
3252.00,0.0359
3251.00,0.0359
3250.00,0.0359
3249.00,0.0359
3248.00,0.0360
3247.00,0.0360
3246.00,0.0361
3245.00,0.0361
3244.00,0.0361
3243.00,0.0360
3242.00,0.0360
3241.00,0.0361
3240.00,0.0361
3239.00,0.0361
3238.00,0.0361
3237.00,0.0361
3236.00,0.0361
3235.00,0.0361
3234.00,0.0361
3233.00,0.0361
3232.00,0.0361
3231.00,0.0361
3230.00,0.0361
3229.00,0.0361
3228.00,0.0361
3227.00,0.0361
3226.00,0.0361
3225.00,0.0361
3224.00,0.0361
3223.00,0.0360
3222.00,0.0360
3221.00,0.0361
3220.00,0.0360
3219.00,0.0360
3218.00,0.0360
3217.00,0.0359
3216.00,0.0359
3215.00,0.0359
3214.00,0.0359
3213.00,0.0359
3212.00,0.0360
3211.00,0.0360
3210.00,0.0359
3209.00,0.0359
3208.00,0.0359
3207.00,0.0359
3206.00,0.0359
3205.00,0.0359
3204.00,0.0359
3203.00,0.0359
3202.00,0.0359
3201.00,0.0359
3200.00,0.0359
3199.00,0.0359
3198.00,0.0359
3197.00,0.0358
3196.00,0.0358
3195.00,0.0357
3194.00,0.0357
3193.00,0.0356
3192.00,0.0356
3191.00,0.0356
3190.00,0.0356
3189.00,0.0356
3188.00,0.0356
3187.00,0.0356
3186.00,0.0356
3185.00,0.0356
3184.00,0.0357
3183.00,0.0356
3182.00,0.0356
3181.00,0.0356
3180.00,0.0355
3179.00,0.0355
3178.00,0.0354
3177.00,0.0354
3176.00,0.0354
3175.00,0.0354
3174.00,0.0354
3173.00,0.0354
3172.00,0.0353
3171.00,0.0353
3170.00,0.0353
3169.00,0.0352
3168.00,0.0352
3167.00,0.0352
3166.00,0.0351
3165.00,0.0351
3164.00,0.0351
3163.00,0.0350
3162.00,0.0350
3161.00,0.0349
3160.00,0.0349
3159.00,0.0349
3158.00,0.0349
3157.00,0.0349
3156.00,0.0349
3155.00,0.0348
3154.00,0.0348
3153.00,0.0347
3152.00,0.0347
3151.00,0.0346
3150.00,0.0346
3149.00,0.0346
3148.00,0.0345
3147.00,0.0345
3146.00,0.0345
3145.00,0.0345
3144.00,0.0345
3143.00,0.0345
3142.00,0.0345
3141.00,0.0345
3140.00,0.0344
3139.00,0.0344
3138.00,0.0344
3137.00,0.0344
3136.00,0.0343
3135.00,0.0343
3134.00,0.0342
3133.00,0.0342
3132.00,0.0341
3131.00,0.0341
3130.00,0.0341
3129.00,0.0341
3128.00,0.0341
3127.00,0.0341
3126.00,0.0341
3125.00,0.0341
3124.00,0.0340
3123.00,0.0340
3122.00,0.0339
3121.00,0.0339
3120.00,0.0339
3119.00,0.0338
3118.00,0.0338
3117.00,0.0338
3116.00,0.0339
3115.00,0.0339
3114.00,0.0339
3113.00,0.0339
3112.00,0.0338
3111.00,0.0337
3110.00,0.0336
3109.00,0.0336
3108.00,0.0336
3107.00,0.0336
3106.00,0.0336
3105.00,0.0336
3104.00,0.0336
3103.00,0.0335
3102.00,0.0335
3101.00,0.0335
3100.00,0.0334
3099.00,0.0334
3098.00,0.0334
3097.00,0.0334
3096.00,0.0334
3095.00,0.0334
3094.00,0.0334
3093.00,0.0334
3092.00,0.0333
3091.00,0.0333
3090.00,0.0332
3089.00,0.0332
3088.00,0.0331
3087.00,0.0331
3086.00,0.0331
3085.00,0.0330
3084.00,0.0330
3083.00,0.0329
3082.00,0.0329
3081.00,0.0329
3080.00,0.0329
3079.00,0.0329
3078.00,0.0329
3077.00,0.0328
3076.00,0.0328
3075.00,0.0328
3074.00,0.0328
3073.00,0.0328
3072.00,0.0328
3071.00,0.0328
3070.00,0.0327
3069.00,0.0327
3068.00,0.0326
3067.00,0.0326
3066.00,0.0326
3065.00,0.0326
3064.00,0.0326
3063.00,0.0326
3062.00,0.0325
3061.00,0.0325
3060.00,0.0324
3059.00,0.0324
3058.00,0.0323
3057.00,0.0323
3056.00,0.0323
3055.00,0.0323
3054.00,0.0323
3053.00,0.0322
3052.00,0.0322
3051.00,0.0321
3050.00,0.0321
3049.00,0.0320
3048.00,0.0319
3047.00,0.0319
3046.00,0.0319
3045.00,0.0319
3044.00,0.0318
3043.00,0.0318
3042.00,0.0317
3041.00,0.0317
3040.00,0.0316
3039.00,0.0316
3038.00,0.0316
3037.00,0.0316
3036.00,0.0315
3035.00,0.0315
3034.00,0.0315
3033.00,0.0315
3032.00,0.0315
3031.00,0.0315
3030.00,0.0314
3029.00,0.0314
3028.00,0.0313
3027.00,0.0312
3026.00,0.0312
3025.00,0.0311
3024.00,0.0311
3023.00,0.0310
3022.00,0.0310
3021.00,0.0310
3020.00,0.0310
3019.00,0.0310
3018.00,0.0310
3017.00,0.0310
3016.00,0.0309
3015.00,0.0309
3014.00,0.0309
3013.00,0.0309
3012.00,0.0310
3011.00,0.0310
3010.00,0.0310
3009.00,0.0310
3008.00,0.0310
3007.00,0.0310
3006.00,0.0310
3005.00,0.0310
3004.00,0.0311
3003.00,0.0311
3002.00,0.0311
3001.00,0.0311
3000.00,0.0311
2999.00,0.0311
2998.00,0.0311
2997.00,0.0312
2996.00,0.0312
2995.00,0.0313
2994.00,0.0313
2993.00,0.0313
2992.00,0.0313
2991.00,0.0313
2990.00,0.0312
2989.00,0.0313
2988.00,0.0313
2987.00,0.0314
2986.00,0.0315
2985.00,0.0317
2984.00,0.0318
2983.00,0.0319
2982.00,0.0320
2981.00,0.0320
2980.00,0.0319
2979.00,0.0319
2978.00,0.0318
2977.00,0.0317
2976.00,0.0317
2975.00,0.0316
2974.00,0.0316
2973.00,0.0316
2972.00,0.0316
2971.00,0.0315
2970.00,0.0314
2969.00,0.0313
2968.00,0.0312
2967.00,0.0312
2966.00,0.0311
2965.00,0.0310
2964.00,0.0310
2963.00,0.0309
2962.00,0.0308
2961.00,0.0308
2960.00,0.0307
2959.00,0.0307
2958.00,0.0307
2957.00,0.0307
2956.00,0.0307
2955.00,0.0307
2954.00,0.0307
2953.00,0.0307
2952.00,0.0307
2951.00,0.0307
2950.00,0.0306
2949.00,0.0306
2948.00,0.0306
2947.00,0.0306
2946.00,0.0307
2945.00,0.0307
2944.00,0.0308
2943.00,0.0308
2942.00,0.0308
2941.00,0.0308
2940.00,0.0308
2939.00,0.0309
2938.00,0.0309
2937.00,0.0309
2936.00,0.0309
2935.00,0.0309
2934.00,0.0309
2933.00,0.0309
2932.00,0.0310
2931.00,0.0309
2930.00,0.0309
2929.00,0.0308
2928.00,0.0307
2927.00,0.0306
2926.00,0.0306
2925.00,0.0306
2924.00,0.0305
2923.00,0.0306
2922.00,0.0306
2921.00,0.0306
2920.00,0.0305
2919.00,0.0304
2918.00,0.0302
2917.00,0.0301
2916.00,0.0301
2915.00,0.0301
2914.00,0.0302
2913.00,0.0302
2912.00,0.0302
2911.00,0.0303
2910.00,0.0303
2909.00,0.0303
2908.00,0.0302
2907.00,0.0302
2906.00,0.0302
2905.00,0.0301
2904.00,0.0301
2903.00,0.0300
2902.00,0.0300
2901.00,0.0300
2900.00,0.0299
2899.00,0.0299
2898.00,0.0298
2897.00,0.0297
2896.00,0.0296
2895.00,0.0296
2894.00,0.0296
2893.00,0.0296
2892.00,0.0297
2891.00,0.0297
2890.00,0.0296
2889.00,0.0296
2888.00,0.0295
2887.00,0.0295
2886.00,0.0294
2885.00,0.0294
2884.00,0.0293
2883.00,0.0293
2882.00,0.0293
2881.00,0.0293
2880.00,0.0292
2879.00,0.0291
2878.00,0.0290
2877.00,0.0290
2876.00,0.0289
2875.00,0.0288
2874.00,0.0287
2873.00,0.0287
2872.00,0.0286
2871.00,0.0286
2870.00,0.0286
2869.00,0.0286
2868.00,0.0285
2867.00,0.0285
2866.00,0.0284
2865.00,0.0284
2864.00,0.0284
2863.00,0.0284
2862.00,0.0284
2861.00,0.0284
2860.00,0.0284
2859.00,0.0284
2858.00,0.0284
2857.00,0.0284
2856.00,0.0283
2855.00,0.0283
2854.00,0.0282
2853.00,0.0282
2852.00,0.0282
2851.00,0.0282
2850.00,0.0281
2849.00,0.0280
2848.00,0.0280
2847.00,0.0279
2846.00,0.0279
2845.00,0.0278
2844.00,0.0278
2843.00,0.0278
2842.00,0.0277
2841.00,0.0277
2840.00,0.0276
2839.00,0.0276
2838.00,0.0275
2837.00,0.0275
2836.00,0.0274
2835.00,0.0273
2834.00,0.0272
2833.00,0.0272
2832.00,0.0271
2831.00,0.0271
2830.00,0.0270
2829.00,0.0270
2828.00,0.0269
2827.00,0.0269
2826.00,0.0268
2825.00,0.0268
2824.00,0.0267
2823.00,0.0267
2822.00,0.0266
2821.00,0.0266
2820.00,0.0266
2819.00,0.0265
2818.00,0.0265
2817.00,0.0264
2816.00,0.0263
2815.00,0.0263
2814.00,0.0263
2813.00,0.0262
2812.00,0.0262
2811.00,0.0261
2810.00,0.0261
2809.00,0.0261
2808.00,0.0261
2807.00,0.0260
2806.00,0.0260
2805.00,0.0260
2804.00,0.0259
2803.00,0.0259
2802.00,0.0258
2801.00,0.0258
2800.00,0.0258
2799.00,0.0257
2798.00,0.0257
2797.00,0.0257
2796.00,0.0257
2795.00,0.0256
2794.00,0.0256
2793.00,0.0256
2792.00,0.0255
2791.00,0.0255
2790.00,0.0255
2789.00,0.0255
2788.00,0.0255
2787.00,0.0254
2786.00,0.0254
2785.00,0.0253
2784.00,0.0253
2783.00,0.0253
2782.00,0.0253
2781.00,0.0252
2780.00,0.0252
2779.00,0.0251
2778.00,0.0251
2777.00,0.0251
2776.00,0.0251
2775.00,0.0252
2774.00,0.0251
2773.00,0.0251
2772.00,0.0250
2771.00,0.0249
2770.00,0.0249
2769.00,0.0249
2768.00,0.0249
2767.00,0.0248
2766.00,0.0248
2765.00,0.0248
2764.00,0.0248
2763.00,0.0248
2762.00,0.0248
2761.00,0.0247
2760.00,0.0247
2759.00,0.0247
2758.00,0.0247
2757.00,0.0246
2756.00,0.0246
2755.00,0.0245
2754.00,0.0245
2753.00,0.0245
2752.00,0.0244
2751.00,0.0244
2750.00,0.0244
2749.00,0.0245
2748.00,0.0245
2747.00,0.0245
2746.00,0.0244
2745.00,0.0243
2744.00,0.0243
2743.00,0.0242
2742.00,0.0242
2741.00,0.0242
2740.00,0.0242
2739.00,0.0242
2738.00,0.0242
2737.00,0.0241
2736.00,0.0241
2735.00,0.0240
2734.00,0.0240
2733.00,0.0240
2732.00,0.0240
2731.00,0.0240
2730.00,0.0240
2729.00,0.0240
2728.00,0.0239
2727.00,0.0239
2726.00,0.0239
2725.00,0.0239
2724.00,0.0239
2723.00,0.0238
2722.00,0.0238
2721.00,0.0238
2720.00,0.0238
2719.00,0.0237
2718.00,0.0237
2717.00,0.0237
2716.00,0.0236
2715.00,0.0236
2714.00,0.0236
2713.00,0.0236
2712.00,0.0236
2711.00,0.0236
2710.00,0.0236
2709.00,0.0236
2708.00,0.0236
2707.00,0.0235
2706.00,0.0235
2705.00,0.0234
2704.00,0.0234
2703.00,0.0234
2702.00,0.0234
2701.00,0.0233
2700.00,0.0233
2699.00,0.0233
2698.00,0.0233
2697.00,0.0233
2696.00,0.0233
2695.00,0.0233
2694.00,0.0233
2693.00,0.0232
2692.00,0.0232
2691.00,0.0232
2690.00,0.0232
2689.00,0.0232
2688.00,0.0232
2687.00,0.0232
2686.00,0.0231
2685.00,0.0231
2684.00,0.0230
2683.00,0.0230
2682.00,0.0230
2681.00,0.0230
2680.00,0.0230
2679.00,0.0230
2678.00,0.0230
2677.00,0.0230
2676.00,0.0230
2675.00,0.0230
2674.00,0.0230
2673.00,0.0229
2672.00,0.0229
2671.00,0.0229
2670.00,0.0228
2669.00,0.0228
2668.00,0.0228
2667.00,0.0228
2666.00,0.0228
2665.00,0.0228
2664.00,0.0228
2663.00,0.0228
2662.00,0.0228
2661.00,0.0228
2660.00,0.0228
2659.00,0.0228
2658.00,0.0228
2657.00,0.0229
2656.00,0.0229
2655.00,0.0229
2654.00,0.0229
2653.00,0.0229
2652.00,0.0229
2651.00,0.0229
2650.00,0.0229
2649.00,0.0228
2648.00,0.0228
2647.00,0.0229
2646.00,0.0229
2645.00,0.0229
2644.00,0.0229
2643.00,0.0230
2642.00,0.0230
2641.00,0.0230
2640.00,0.0230
2639.00,0.0230
2638.00,0.0229
2637.00,0.0229
2636.00,0.0229
2635.00,0.0229
2634.00,0.0229
2633.00,0.0228
2632.00,0.0228
2631.00,0.0228
2630.00,0.0228
2629.00,0.0229
2628.00,0.0229
2627.00,0.0229
2626.00,0.0228
2625.00,0.0228
2624.00,0.0228
2623.00,0.0227
2622.00,0.0227
2621.00,0.0227
2620.00,0.0227
2619.00,0.0227
2618.00,0.0228
2617.00,0.0228
2616.00,0.0228
2615.00,0.0228
2614.00,0.0228
2613.00,0.0228
2612.00,0.0227
2611.00,0.0227
2610.00,0.0226
2609.00,0.0226
2608.00,0.0227
2607.00,0.0227
2606.00,0.0227
2605.00,0.0227
2604.00,0.0227
2603.00,0.0227
2602.00,0.0227
2601.00,0.0227
2600.00,0.0227
2599.00,0.0227
2598.00,0.0227
2597.00,0.0227
2596.00,0.0226
2595.00,0.0226
2594.00,0.0226
2593.00,0.0227
2592.00,0.0227
2591.00,0.0227
2590.00,0.0227
2589.00,0.0227
2588.00,0.0226
2587.00,0.0226
2586.00,0.0225
2585.00,0.0225
2584.00,0.0225
2583.00,0.0225
2582.00,0.0226
2581.00,0.0225
2580.00,0.0225
2579.00,0.0225
2578.00,0.0225
2577.00,0.0225
2576.00,0.0225
2575.00,0.0225
2574.00,0.0225
2573.00,0.0225
2572.00,0.0224
2571.00,0.0224
2570.00,0.0224
2569.00,0.0224
2568.00,0.0224
2567.00,0.0225
2566.00,0.0225
2565.00,0.0225
2564.00,0.0225
2563.00,0.0225
2562.00,0.0225
2561.00,0.0224
2560.00,0.0224
2559.00,0.0224
2558.00,0.0224
2557.00,0.0225
2556.00,0.0225
2555.00,0.0224
2554.00,0.0224
2553.00,0.0224
2552.00,0.0224
2551.00,0.0224
2550.00,0.0224
2549.00,0.0224
2548.00,0.0223
2547.00,0.0223
2546.00,0.0223
2545.00,0.0223
2544.00,0.0223
2543.00,0.0223
2542.00,0.0224
2541.00,0.0224
2540.00,0.0224
2539.00,0.0224
2538.00,0.0224
2537.00,0.0224
2536.00,0.0224
2535.00,0.0224
2534.00,0.0224
2533.00,0.0223
2532.00,0.0223
2531.00,0.0222
2530.00,0.0223
2529.00,0.0223
2528.00,0.0223
2527.00,0.0223
2526.00,0.0223
2525.00,0.0223
2524.00,0.0223
2523.00,0.0223
2522.00,0.0223
2521.00,0.0223
2520.00,0.0223
2519.00,0.0222
2518.00,0.0222
2517.00,0.0221
2516.00,0.0221
2515.00,0.0221
2514.00,0.0221
2513.00,0.0221
2512.00,0.0221
2511.00,0.0221
2510.00,0.0221
2509.00,0.0220
2508.00,0.0219
2507.00,0.0219
2506.00,0.0219
2505.00,0.0219
2504.00,0.0219
2503.00,0.0220
2502.00,0.0220
2501.00,0.0221
2500.00,0.0221
2499.00,0.0220
2498.00,0.0220
2497.00,0.0219
2496.00,0.0219
2495.00,0.0218
2494.00,0.0218
2493.00,0.0218
2492.00,0.0218
2491.00,0.0218
2490.00,0.0218
2489.00,0.0218
2488.00,0.0218
2487.00,0.0218
2486.00,0.0217
2485.00,0.0217
2484.00,0.0217
2483.00,0.0218
2482.00,0.0218
2481.00,0.0218
2480.00,0.0218
2479.00,0.0218
2478.00,0.0218
2477.00,0.0217
2476.00,0.0216
2475.00,0.0216
2474.00,0.0217
2473.00,0.0217
2472.00,0.0217
2471.00,0.0217
2470.00,0.0216
2469.00,0.0216
2468.00,0.0216
2467.00,0.0215
2466.00,0.0215
2465.00,0.0215
2464.00,0.0215
2463.00,0.0215
2462.00,0.0215
2461.00,0.0215
2460.00,0.0216
2459.00,0.0216
2458.00,0.0216
2457.00,0.0217
2456.00,0.0216
2455.00,0.0216
2454.00,0.0215
2453.00,0.0215
2452.00,0.0215
2451.00,0.0215
2450.00,0.0215
2449.00,0.0215
2448.00,0.0215
2447.00,0.0214
2446.00,0.0214
2445.00,0.0214
2444.00,0.0214
2443.00,0.0213
2442.00,0.0213
2441.00,0.0213
2440.00,0.0213
2439.00,0.0212
2438.00,0.0212
2437.00,0.0212
2436.00,0.0212
2435.00,0.0212
2434.00,0.0212
2433.00,0.0211
2432.00,0.0211
2431.00,0.0211
2430.00,0.0211
2429.00,0.0211
2428.00,0.0212
2427.00,0.0212
2426.00,0.0212
2425.00,0.0212
2424.00,0.0211
2423.00,0.0211
2422.00,0.0210
2421.00,0.0210
2420.00,0.0210
2419.00,0.0210
2418.00,0.0210
2417.00,0.0210
2416.00,0.0210
2415.00,0.0210
2414.00,0.0210
2413.00,0.0210
2412.00,0.0210
2411.00,0.0209
2410.00,0.0209
2409.00,0.0208
2408.00,0.0208
2407.00,0.0207
2406.00,0.0208
2405.00,0.0208
2404.00,0.0208
2403.00,0.0208
2402.00,0.0207
2401.00,0.0206
2400.00,0.0206
2399.00,0.0206
2398.00,0.0205
2397.00,0.0205
2396.00,0.0205
2395.00,0.0205
2394.00,0.0205
2393.00,0.0205
2392.00,0.0205
2391.00,0.0205
2390.00,0.0204
2389.00,0.0203
2388.00,0.0202
2387.00,0.0202
2386.00,0.0201
2385.00,0.0199
2384.00,0.0197
2383.00,0.0195
2382.00,0.0194
2381.00,0.0193
2380.00,0.0192
2379.00,0.0192
2378.00,0.0192
2377.00,0.0193
2376.00,0.0195
2375.00,0.0197
2374.00,0.0198
2373.00,0.0198
2372.00,0.0197
2371.00,0.0196
2370.00,0.0196
2369.00,0.0196
2368.00,0.0196
2367.00,0.0196
2366.00,0.0194
2365.00,0.0193
2364.00,0.0192
2363.00,0.0194
2362.00,0.0196
2361.00,0.0199
2360.00,0.0201
2359.00,0.0203
2358.00,0.0205
2357.00,0.0207
2356.00,0.0208
2355.00,0.0207
2354.00,0.0205
2353.00,0.0201
2352.00,0.0196
2351.00,0.0193
2350.00,0.0192
2349.00,0.0190
2348.00,0.0188
2347.00,0.0187
2346.00,0.0187
2345.00,0.0191
2344.00,0.0196
2343.00,0.0198
2342.00,0.0199
2341.00,0.0198
2340.00,0.0198
2339.00,0.0199
2338.00,0.0199
2337.00,0.0200
2336.00,0.0201
2335.00,0.0200
2334.00,0.0199
2333.00,0.0199
2332.00,0.0199
2331.00,0.0200
2330.00,0.0202
2329.00,0.0203
2328.00,0.0205
2327.00,0.0206
2326.00,0.0206
2325.00,0.0207
2324.00,0.0207
2323.00,0.0207
2322.00,0.0207
2321.00,0.0206
2320.00,0.0206
2319.00,0.0205
2318.00,0.0204
2317.00,0.0204
2316.00,0.0203
2315.00,0.0202
2314.00,0.0201
2313.00,0.0200
2312.00,0.0199
2311.00,0.0199
2310.00,0.0198
2309.00,0.0198
2308.00,0.0198
2307.00,0.0198
2306.00,0.0198
2305.00,0.0198
2304.00,0.0198
2303.00,0.0198
2302.00,0.0198
2301.00,0.0198
2300.00,0.0198
2299.00,0.0198
2298.00,0.0198
2297.00,0.0197
2296.00,0.0197
2295.00,0.0197
2294.00,0.0197
2293.00,0.0197
2292.00,0.0198
2291.00,0.0198
2290.00,0.0199
2289.00,0.0199
2288.00,0.0199
2287.00,0.0200
2286.00,0.0199
2285.00,0.0199
2284.00,0.0199
2283.00,0.0199
2282.00,0.0199
2281.00,0.0199
2280.00,0.0200
2279.00,0.0200
2278.00,0.0200
2277.00,0.0200
2276.00,0.0199
2275.00,0.0199
2274.00,0.0199
2273.00,0.0199
2272.00,0.0199
2271.00,0.0197
2270.00,0.0196
2269.00,0.0196
2268.00,0.0197
2267.00,0.0197
2266.00,0.0198
2265.00,0.0198
2264.00,0.0198
2263.00,0.0198
2262.00,0.0197
2261.00,0.0197
2260.00,0.0198
2259.00,0.0198
2258.00,0.0199
2257.00,0.0200
2256.00,0.0200
2255.00,0.0199
2254.00,0.0198
2253.00,0.0197
2252.00,0.0197
2251.00,0.0197
2250.00,0.0198
2249.00,0.0199
2248.00,0.0198
2247.00,0.0197
2246.00,0.0196
2245.00,0.0195
2244.00,0.0195
2243.00,0.0195
2242.00,0.0196
2241.00,0.0196
2240.00,0.0196
2239.00,0.0196
2238.00,0.0196
2237.00,0.0196
2236.00,0.0195
2235.00,0.0195
2234.00,0.0195
2233.00,0.0196
2232.00,0.0197
2231.00,0.0197
2230.00,0.0198
2229.00,0.0199
2228.00,0.0199
2227.00,0.0199
2226.00,0.0198
2225.00,0.0197
2224.00,0.0197
2223.00,0.0196
2222.00,0.0197
2221.00,0.0197
2220.00,0.0198
2219.00,0.0198
2218.00,0.0197
2217.00,0.0197
2216.00,0.0198
2215.00,0.0198
2214.00,0.0198
2213.00,0.0198
2212.00,0.0197
2211.00,0.0196
2210.00,0.0195
2209.00,0.0194
2208.00,0.0193
2207.00,0.0193
2206.00,0.0193
2205.00,0.0194
2204.00,0.0195
2203.00,0.0196
2202.00,0.0196
2201.00,0.0196
2200.00,0.0196
2199.00,0.0196
2198.00,0.0197
2197.00,0.0198
2196.00,0.0200
2195.00,0.0201
2194.00,0.0200
2193.00,0.0198
2192.00,0.0196
2191.00,0.0195
2190.00,0.0197
2189.00,0.0198
2188.00,0.0199
2187.00,0.0198
2186.00,0.0197
2185.00,0.0196
2184.00,0.0197
2183.00,0.0197
2182.00,0.0198
2181.00,0.0198
2180.00,0.0198
2179.00,0.0197
2178.00,0.0196
2177.00,0.0195
2176.00,0.0194
2175.00,0.0195
2174.00,0.0197
2173.00,0.0199
2172.00,0.0199
2171.00,0.0198
2170.00,0.0195
2169.00,0.0194
2168.00,0.0194
2167.00,0.0196
2166.00,0.0198
2165.00,0.0200
2164.00,0.0202
2163.00,0.0203
2162.00,0.0202
2161.00,0.0198
2160.00,0.0194
2159.00,0.0190
2158.00,0.0187
2157.00,0.0186
2156.00,0.0187
2155.00,0.0188
2154.00,0.0190
2153.00,0.0190
2152.00,0.0189
2151.00,0.0188
2150.00,0.0187
2149.00,0.0188
2148.00,0.0187
2147.00,0.0185
2146.00,0.0184
2145.00,0.0183
2144.00,0.0182
2143.00,0.0183
2142.00,0.0183
2141.00,0.0183
2140.00,0.0183
2139.00,0.0182
2138.00,0.0182
2137.00,0.0181
2136.00,0.0180
2135.00,0.0178
2134.00,0.0177
2133.00,0.0177
2132.00,0.0177
2131.00,0.0177
2130.00,0.0177
2129.00,0.0177
2128.00,0.0177
2127.00,0.0176
2126.00,0.0176
2125.00,0.0177
2124.00,0.0178
2123.00,0.0178
2122.00,0.0179
2121.00,0.0179
2120.00,0.0180
2119.00,0.0181
2118.00,0.0182
2117.00,0.0183
2116.00,0.0183
2115.00,0.0182
2114.00,0.0181
2113.00,0.0180
2112.00,0.0180
2111.00,0.0179
2110.00,0.0178
2109.00,0.0179
2108.00,0.0179
2107.00,0.0178
2106.00,0.0178
2105.00,0.0177
2104.00,0.0177
2103.00,0.0177
2102.00,0.0178
2101.00,0.0179
2100.00,0.0179
2099.00,0.0179
2098.00,0.0179
2097.00,0.0178
2096.00,0.0177
2095.00,0.0176
2094.00,0.0176
2093.00,0.0176
2092.00,0.0176
2091.00,0.0177
2090.00,0.0177
2089.00,0.0177
2088.00,0.0177
2087.00,0.0176
2086.00,0.0176
2085.00,0.0175
2084.00,0.0175
2083.00,0.0175
2082.00,0.0175
2081.00,0.0175
2080.00,0.0175
2079.00,0.0175
2078.00,0.0176
2077.00,0.0176
2076.00,0.0177
2075.00,0.0176
2074.00,0.0176
2073.00,0.0175
2072.00,0.0175
2071.00,0.0175
2070.00,0.0176
2069.00,0.0176
2068.00,0.0176
2067.00,0.0176
2066.00,0.0176
2065.00,0.0176
2064.00,0.0176
2063.00,0.0176
2062.00,0.0176
2061.00,0.0175
2060.00,0.0175
2059.00,0.0174
2058.00,0.0174
2057.00,0.0175
2056.00,0.0175
2055.00,0.0176
2054.00,0.0177
2053.00,0.0179
2052.00,0.0179
2051.00,0.0179
2050.00,0.0178
2049.00,0.0178
2048.00,0.0177
2047.00,0.0177
2046.00,0.0178
2045.00,0.0179
2044.00,0.0178
2043.00,0.0176
2042.00,0.0176
2041.00,0.0177
2040.00,0.0178
2039.00,0.0179
2038.00,0.0179
2037.00,0.0179
2036.00,0.0178
2035.00,0.0177
2034.00,0.0176
2033.00,0.0176
2032.00,0.0175
2031.00,0.0175
2030.00,0.0175
2029.00,0.0175
2028.00,0.0175
2027.00,0.0174
2026.00,0.0172
2025.00,0.0172
2024.00,0.0171
2023.00,0.0170
2022.00,0.0171
2021.00,0.0172
2020.00,0.0174
2019.00,0.0174
2018.00,0.0175
2017.00,0.0175
2016.00,0.0175
2015.00,0.0175
2014.00,0.0174
2013.00,0.0173
2012.00,0.0171
2011.00,0.0169
2010.00,0.0168
2009.00,0.0167
2008.00,0.0165
2007.00,0.0164
2006.00,0.0163
2005.00,0.0164
2004.00,0.0165
2003.00,0.0166
2002.00,0.0167
2001.00,0.0168
2000.00,0.0168
1999.00,0.0169
1998.00,0.0169
1997.00,0.0169
1996.00,0.0169
1995.00,0.0169
1994.00,0.0170
1993.00,0.0171
1992.00,0.0171
1991.00,0.0170
1990.00,0.0169
1989.00,0.0168
1988.00,0.0168
1987.00,0.0168
1986.00,0.0168
1985.00,0.0168
1984.00,0.0169
1983.00,0.0170
1982.00,0.0171
1981.00,0.0172
1980.00,0.0173
1979.00,0.0172
1978.00,0.0170
1977.00,0.0170
1976.00,0.0169
1975.00,0.0168
1974.00,0.0167
1973.00,0.0165
1972.00,0.0164
1971.00,0.0164
1970.00,0.0165
1969.00,0.0166
1968.00,0.0167
1967.00,0.0166
1966.00,0.0164
1965.00,0.0163
1964.00,0.0163
1963.00,0.0163
1962.00,0.0164
1961.00,0.0164
1960.00,0.0162
1959.00,0.0160
1958.00,0.0158
1957.00,0.0156
1956.00,0.0153
1955.00,0.0151
1954.00,0.0151
1953.00,0.0151
1952.00,0.0152
1951.00,0.0152
1950.00,0.0152
1949.00,0.0152
1948.00,0.0152
1947.00,0.0152
1946.00,0.0153
1945.00,0.0154
1944.00,0.0154
1943.00,0.0153
1942.00,0.0151
1941.00,0.0150
1940.00,0.0150
1939.00,0.0150
1938.00,0.0150
1937.00,0.0151
1936.00,0.0151
1935.00,0.0151
1934.00,0.0151
1933.00,0.0151
1932.00,0.0150
1931.00,0.0150
1930.00,0.0149
1929.00,0.0149
1928.00,0.0149
1927.00,0.0149
1926.00,0.0149
1925.00,0.0150
1924.00,0.0151
1923.00,0.0150
1922.00,0.0148
1921.00,0.0148
1920.00,0.0148
1919.00,0.0147
1918.00,0.0145
1917.00,0.0144
1916.00,0.0143
1915.00,0.0143
1914.00,0.0143
1913.00,0.0143
1912.00,0.0144
1911.00,0.0144
1910.00,0.0144
1909.00,0.0143
1908.00,0.0142
1907.00,0.0141
1906.00,0.0141
1905.00,0.0141
1904.00,0.0141
1903.00,0.0140
1902.00,0.0139
1901.00,0.0138
1900.00,0.0137
1899.00,0.0138
1898.00,0.0138
1897.00,0.0139
1896.00,0.0138
1895.00,0.0137
1894.00,0.0137
1893.00,0.0137
1892.00,0.0137
1891.00,0.0136
1890.00,0.0134
1889.00,0.0133
1888.00,0.0132
1887.00,0.0132
1886.00,0.0133
1885.00,0.0134
1884.00,0.0133
1883.00,0.0133
1882.00,0.0132
1881.00,0.0132
1880.00,0.0132
1879.00,0.0132
1878.00,0.0131
1877.00,0.0131
1876.00,0.0130
1875.00,0.0129
1874.00,0.0129
1873.00,0.0130
1872.00,0.0132
1871.00,0.0133
1870.00,0.0131
1869.00,0.0128
1868.00,0.0126
1867.00,0.0125
1866.00,0.0125
1865.00,0.0126
1864.00,0.0126
1863.00,0.0125
1862.00,0.0124
1861.00,0.0123
1860.00,0.0123
1859.00,0.0123
1858.00,0.0123
1857.00,0.0123
1856.00,0.0123
1855.00,0.0123
1854.00,0.0123
1853.00,0.0122
1852.00,0.0121
1851.00,0.0120
1850.00,0.0120
1849.00,0.0120
1848.00,0.0120
1847.00,0.0122
1846.00,0.0122
1845.00,0.0119
1844.00,0.0115
1843.00,0.0113
1842.00,0.0113
1841.00,0.0115
1840.00,0.0117
1839.00,0.0117
1838.00,0.0116
1837.00,0.0115
1836.00,0.0114
1835.00,0.0114
1834.00,0.0115
1833.00,0.0117
1832.00,0.0118
1831.00,0.0118
1830.00,0.0115
1829.00,0.0113
1828.00,0.0113
1827.00,0.0114
1826.00,0.0113
1825.00,0.0112
1824.00,0.0110
1823.00,0.0110
1822.00,0.0111
1821.00,0.0111
1820.00,0.0111
1819.00,0.0111
1818.00,0.0110
1817.00,0.0109
1816.00,0.0109
1815.00,0.0109
1814.00,0.0110
1813.00,0.0110
1812.00,0.0110
1811.00,0.0109
1810.00,0.0108
1809.00,0.0108
1808.00,0.0108
1807.00,0.0108
1806.00,0.0109
1805.00,0.0111
1804.00,0.0113
1803.00,0.0114
1802.00,0.0114
1801.00,0.0113
1800.00,0.0113
1799.00,0.0112
1798.00,0.0113
1797.00,0.0115
1796.00,0.0117
1795.00,0.0120
1794.00,0.0120
1793.00,0.0120
1792.00,0.0119
1791.00,0.0118
1790.00,0.0119
1789.00,0.0121
1788.00,0.0123
1787.00,0.0124
1786.00,0.0124
1785.00,0.0124
1784.00,0.0126
1783.00,0.0128
1782.00,0.0130
1781.00,0.0132
1780.00,0.0133
1779.00,0.0134
1778.00,0.0137
1777.00,0.0140
1776.00,0.0143
1775.00,0.0147
1774.00,0.0150
1773.00,0.0150
1772.00,0.0149
1771.00,0.0149
1770.00,0.0150
1769.00,0.0153
1768.00,0.0155
1767.00,0.0156
1766.00,0.0159
1765.00,0.0162
1764.00,0.0166
1763.00,0.0168
1762.00,0.0168
1761.00,0.0168
1760.00,0.0170
1759.00,0.0173
1758.00,0.0175
1757.00,0.0176
1756.00,0.0177
1755.00,0.0179
1754.00,0.0181
1753.00,0.0184
1752.00,0.0185
1751.00,0.0186
1750.00,0.0189
1749.00,0.0192
1748.00,0.0196
1747.00,0.0199
1746.00,0.0202
1745.00,0.0204
1744.00,0.0208
1743.00,0.0211
1742.00,0.0214
1741.00,0.0216
1740.00,0.0218
1739.00,0.0219
1738.00,0.0223
1737.00,0.0228
1736.00,0.0232
1735.00,0.0234
1734.00,0.0234
1733.00,0.0236
1732.00,0.0240
1731.00,0.0245
1730.00,0.0250
1729.00,0.0253
1728.00,0.0257
1727.00,0.0260
1726.00,0.0263
1725.00,0.0267
1724.00,0.0270
1723.00,0.0274
1722.00,0.0277
1721.00,0.0281
1720.00,0.0284
1719.00,0.0285
1718.00,0.0287
1717.00,0.0292
1716.00,0.0298
1715.00,0.0302
1714.00,0.0306
1713.00,0.0309
1712.00,0.0311
1711.00,0.0313
1710.00,0.0315
1709.00,0.0317
1708.00,0.0320
1707.00,0.0323
1706.00,0.0327
1705.00,0.0330
1704.00,0.0333
1703.00,0.0336
1702.00,0.0337
1701.00,0.0337
1700.00,0.0337
1699.00,0.0337
1698.00,0.0341
1697.00,0.0346
1696.00,0.0348
1695.00,0.0346
1694.00,0.0346
1693.00,0.0348
1692.00,0.0350
1691.00,0.0350
1690.00,0.0351
1689.00,0.0352
1688.00,0.0353
1687.00,0.0355
1686.00,0.0354
1685.00,0.0353
1684.00,0.0356
1683.00,0.0359
1682.00,0.0360
1681.00,0.0362
1680.00,0.0363
1679.00,0.0363
1678.00,0.0364
1677.00,0.0364
1676.00,0.0364
1675.00,0.0364
1674.00,0.0365
1673.00,0.0366
1672.00,0.0368
1671.00,0.0370
1670.00,0.0373
1669.00,0.0375
1668.00,0.0375
1667.00,0.0376
1666.00,0.0376
1665.00,0.0377
1664.00,0.0377
1663.00,0.0379
1662.00,0.0381
1661.00,0.0383
1660.00,0.0384
1659.00,0.0384
1658.00,0.0385
1657.00,0.0386
1656.00,0.0387
1655.00,0.0388
1654.00,0.0390
1653.00,0.0396
1652.00,0.0396
1651.00,0.0395
1650.00,0.0398
1649.00,0.0400
1648.00,0.0403
1647.00,0.0407
1646.00,0.0411
1645.00,0.0412
1644.00,0.0412
1643.00,0.0413
1642.00,0.0415
1641.00,0.0416
1640.00,0.0417
1639.00,0.0417
1638.00,0.0419
1637.00,0.0422
1636.00,0.0428
1635.00,0.0433
1634.00,0.0435
1633.00,0.0436
1632.00,0.0437
1631.00,0.0438
1630.00,0.0440
1629.00,0.0443
1628.00,0.0446
1627.00,0.0449
1626.00,0.0451
1625.00,0.0452
1624.00,0.0455
1623.00,0.0459
1622.00,0.0461
1621.00,0.0462
1620.00,0.0463
1619.00,0.0464
1618.00,0.0465
1617.00,0.0469
1616.00,0.0473
1615.00,0.0475
1614.00,0.0476
1613.00,0.0477
1612.00,0.0478
1611.00,0.0479
1610.00,0.0481
1609.00,0.0484
1608.00,0.0486
1607.00,0.0488
1606.00,0.0490
1605.00,0.0490
1604.00,0.0492
1603.00,0.0494
1602.00,0.0496
1601.00,0.0497
1600.00,0.0498
1599.00,0.0499
1598.00,0.0500
1597.00,0.0501
1596.00,0.0502
1595.00,0.0504
1594.00,0.0505
1593.00,0.0506
1592.00,0.0506
1591.00,0.0507
1590.00,0.0508
1589.00,0.0509
1588.00,0.0510
1587.00,0.0510
1586.00,0.0511
1585.00,0.0511
1584.00,0.0510
1583.00,0.0511
1582.00,0.0511
1581.00,0.0511
1580.00,0.0510
1579.00,0.0509
1578.00,0.0509
1577.00,0.0509
1576.00,0.0511
1575.00,0.0512
1574.00,0.0512
1573.00,0.0510
1572.00,0.0508
1571.00,0.0507
1570.00,0.0507
1569.00,0.0508
1568.00,0.0506
1567.00,0.0504
1566.00,0.0503
1565.00,0.0501
1564.00,0.0499
1563.00,0.0498
1562.00,0.0495
1561.00,0.0489
1560.00,0.0483
1559.00,0.0491
1558.00,0.0497
1557.00,0.0492
1556.00,0.0487
1555.00,0.0484
1554.00,0.0481
1553.00,0.0477
1552.00,0.0474
1551.00,0.0473
1550.00,0.0471
1549.00,0.0469
1548.00,0.0466
1547.00,0.0462
1546.00,0.0458
1545.00,0.0455
1544.00,0.0454
1543.00,0.0453
1542.00,0.0449
1541.00,0.0447
1540.00,0.0447
1539.00,0.0445
1538.00,0.0440
1537.00,0.0436
1536.00,0.0434
1535.00,0.0432
1534.00,0.0430
1533.00,0.0429
1532.00,0.0426
1531.00,0.0422
1530.00,0.0419
1529.00,0.0416
1528.00,0.0414
1527.00,0.0412
1526.00,0.0410
1525.00,0.0408
1524.00,0.0406
1523.00,0.0404
1522.00,0.0402
1521.00,0.0401
1520.00,0.0400
1519.00,0.0399
1518.00,0.0398
1517.00,0.0398
1516.00,0.0397
1515.00,0.0394
1514.00,0.0391
1513.00,0.0388
1512.00,0.0386
1511.00,0.0385
1510.00,0.0384
1509.00,0.0385
1508.00,0.0386
1507.00,0.0388
1506.00,0.0386
1505.00,0.0379
1504.00,0.0376
1503.00,0.0375
1502.00,0.0374
1501.00,0.0373
1500.00,0.0371
1499.00,0.0369
1498.00,0.0367
1497.00,0.0367
1496.00,0.0368
1495.00,0.0368
1494.00,0.0368
1493.00,0.0368
1492.00,0.0369
1491.00,0.0369
1490.00,0.0371
1489.00,0.0373
1488.00,0.0374
1487.00,0.0373
1486.00,0.0372
1485.00,0.0371
1484.00,0.0370
1483.00,0.0369
1482.00,0.0369
1481.00,0.0369
1480.00,0.0370
1479.00,0.0370
1478.00,0.0371
1477.00,0.0372
1476.00,0.0374
1475.00,0.0376
1474.00,0.0377
1473.00,0.0380
1472.00,0.0383
1471.00,0.0384
1470.00,0.0385
1469.00,0.0386
1468.00,0.0387
1467.00,0.0389
1466.00,0.0391
1465.00,0.0395
1464.00,0.0398
1463.00,0.0399
1462.00,0.0399
1461.00,0.0400
1460.00,0.0400
1459.00,0.0401
1458.00,0.0402
1457.00,0.0406
1456.00,0.0409
1455.00,0.0410
1454.00,0.0411
1453.00,0.0413
1452.00,0.0415
1451.00,0.0416
1450.00,0.0417
1449.00,0.0419
1448.00,0.0421
1447.00,0.0423
1446.00,0.0424
1445.00,0.0424
1444.00,0.0424
1443.00,0.0425
1442.00,0.0426
1441.00,0.0426
1440.00,0.0427
1439.00,0.0428
1438.00,0.0428
1437.00,0.0430
1436.00,0.0433
1435.00,0.0434
1434.00,0.0435
1433.00,0.0435
1432.00,0.0436
1431.00,0.0437
1430.00,0.0438
1429.00,0.0439
1428.00,0.0439
1427.00,0.0438
1426.00,0.0438
1425.00,0.0438
1424.00,0.0439
1423.00,0.0441
1422.00,0.0440
1421.00,0.0439
1420.00,0.0440
1419.00,0.0442
1418.00,0.0445
1417.00,0.0446
1416.00,0.0447
1415.00,0.0447
1414.00,0.0446
1413.00,0.0446
1412.00,0.0447
1411.00,0.0448
1410.00,0.0448
1409.00,0.0448
1408.00,0.0449
1407.00,0.0449
1406.00,0.0450
1405.00,0.0452
1404.00,0.0455
1403.00,0.0456
1402.00,0.0456
1401.00,0.0456
1400.00,0.0458
1399.00,0.0460
1398.00,0.0462
1397.00,0.0463
1396.00,0.0465
1395.00,0.0467
1394.00,0.0469
1393.00,0.0468
1392.00,0.0467
1391.00,0.0467
1390.00,0.0467
1389.00,0.0468
1388.00,0.0469
1387.00,0.0472
1386.00,0.0475
1385.00,0.0476
1384.00,0.0477
1383.00,0.0477
1382.00,0.0478
1381.00,0.0479
1380.00,0.0479
1379.00,0.0480
1378.00,0.0480
1377.00,0.0480
1376.00,0.0481
1375.00,0.0482
1374.00,0.0484
1373.00,0.0484
1372.00,0.0483
1371.00,0.0481
1370.00,0.0480
1369.00,0.0480
1368.00,0.0480
1367.00,0.0479
1366.00,0.0478
1365.00,0.0477
1364.00,0.0476
1363.00,0.0478
1362.00,0.0479
1361.00,0.0479
1360.00,0.0479
1359.00,0.0478
1358.00,0.0477
1357.00,0.0476
1356.00,0.0475
1355.00,0.0474
1354.00,0.0473
1353.00,0.0472
1352.00,0.0471
1351.00,0.0470
1350.00,0.0469
1349.00,0.0469
1348.00,0.0469
1347.00,0.0469
1346.00,0.0468
1345.00,0.0468
1344.00,0.0467
1343.00,0.0466
1342.00,0.0465
1341.00,0.0465
1340.00,0.0466
1339.00,0.0467
1338.00,0.0467
1337.00,0.0467
1336.00,0.0466
1335.00,0.0465
1334.00,0.0464
1333.00,0.0463
1332.00,0.0462
1331.00,0.0462
1330.00,0.0461
1329.00,0.0461
1328.00,0.0461
1327.00,0.0461
1326.00,0.0461
1325.00,0.0461
1324.00,0.0461
1323.00,0.0461
1322.00,0.0461
1321.00,0.0461
1320.00,0.0461
1319.00,0.0462
1318.00,0.0463
1317.00,0.0463
1316.00,0.0464
1315.00,0.0465
1314.00,0.0465
1313.00,0.0465
1312.00,0.0465
1311.00,0.0465
1310.00,0.0465
1309.00,0.0466
1308.00,0.0466
1307.00,0.0467
1306.00,0.0467
1305.00,0.0468
1304.00,0.0469
1303.00,0.0469
1302.00,0.0470
1301.00,0.0471
1300.00,0.0472
1299.00,0.0473
1298.00,0.0473
1297.00,0.0474
1296.00,0.0474
1295.00,0.0474
1294.00,0.0475
1293.00,0.0476
1292.00,0.0477
1291.00,0.0478
1290.00,0.0479
1289.00,0.0480
1288.00,0.0482
1287.00,0.0483
1286.00,0.0483
1285.00,0.0484
1284.00,0.0484
1283.00,0.0485
1282.00,0.0486
1281.00,0.0487
1280.00,0.0488
1279.00,0.0490
1278.00,0.0491
1277.00,0.0492
1276.00,0.0492
1275.00,0.0493
1274.00,0.0494
1273.00,0.0495
1272.00,0.0496
1271.00,0.0497
1270.00,0.0498
1269.00,0.0499
1268.00,0.0499
1267.00,0.0500
1266.00,0.0500
1265.00,0.0500
1264.00,0.0499
1263.00,0.0499
1262.00,0.0500
1261.00,0.0501
1260.00,0.0502
1259.00,0.0503
1258.00,0.0504
1257.00,0.0505
1256.00,0.0506
1255.00,0.0508
1254.00,0.0509
1253.00,0.0510
1252.00,0.0512
1251.00,0.0513
1250.00,0.0514
1249.00,0.0514
1248.00,0.0515
1247.00,0.0515
1246.00,0.0516
1245.00,0.0516
1244.00,0.0517
1243.00,0.0517
1242.00,0.0518
1241.00,0.0518
1240.00,0.0518
1239.00,0.0519
1238.00,0.0519
1237.00,0.0519
1236.00,0.0519
1235.00,0.0520
1234.00,0.0519
1233.00,0.0519
1232.00,0.0519
1231.00,0.0519
1230.00,0.0518
1229.00,0.0518
1228.00,0.0518
1227.00,0.0519
1226.00,0.0519
1225.00,0.0520
1224.00,0.0520
1223.00,0.0520
1222.00,0.0520
1221.00,0.0520
1220.00,0.0519
1219.00,0.0519
1218.00,0.0518
1217.00,0.0518
1216.00,0.0518
1215.00,0.0519
1214.00,0.0519
1213.00,0.0519
1212.00,0.0519
1211.00,0.0519
1210.00,0.0519
1209.00,0.0518
1208.00,0.0518
1207.00,0.0519
1206.00,0.0519
1205.00,0.0518
1204.00,0.0518
1203.00,0.0518
1202.00,0.0517
1201.00,0.0518
1200.00,0.0518
1199.00,0.0518
1198.00,0.0518
1197.00,0.0518
1196.00,0.0518
1195.00,0.0519
1194.00,0.0519
1193.00,0.0519
1192.00,0.0519
1191.00,0.0519
1190.00,0.0519
1189.00,0.0519
1188.00,0.0519
1187.00,0.0519
1186.00,0.0520
1185.00,0.0520
1184.00,0.0521
1183.00,0.0521
1182.00,0.0520
1181.00,0.0519
1180.00,0.0519
1179.00,0.0520
1178.00,0.0521
1177.00,0.0521
1176.00,0.0522
1175.00,0.0522
1174.00,0.0521
1173.00,0.0521
1172.00,0.0520
1171.00,0.0520
1170.00,0.0521
1169.00,0.0522
1168.00,0.0523
1167.00,0.0524
1166.00,0.0524
1165.00,0.0524
1164.00,0.0524
1163.00,0.0524
1162.00,0.0523
1161.00,0.0523
1160.00,0.0523
1159.00,0.0522
1158.00,0.0522
1157.00,0.0522
1156.00,0.0521
1155.00,0.0522
1154.00,0.0522
1153.00,0.0522
1152.00,0.0521
1151.00,0.0521
1150.00,0.0521
1149.00,0.0521
1148.00,0.0522
1147.00,0.0522
1146.00,0.0523
1145.00,0.0523
1144.00,0.0522
1143.00,0.0521
1142.00,0.0519
1141.00,0.0517
1140.00,0.0517
1139.00,0.0517
1138.00,0.0518
1137.00,0.0518
1136.00,0.0519
1135.00,0.0518
1134.00,0.0518
1133.00,0.0518
1132.00,0.0518
1131.00,0.0518
1130.00,0.0518
1129.00,0.0518
1128.00,0.0518
1127.00,0.0519
1126.00,0.0520
1125.00,0.0521
1124.00,0.0521
1123.00,0.0521
1122.00,0.0522
1121.00,0.0523
1120.00,0.0524
1119.00,0.0525
1118.00,0.0525
1117.00,0.0525
1116.00,0.0524
1115.00,0.0524
1114.00,0.0524
1113.00,0.0524
1112.00,0.0524
1111.00,0.0524
1110.00,0.0525
1109.00,0.0526
1108.00,0.0527
1107.00,0.0529
1106.00,0.0530
1105.00,0.0531
1104.00,0.0532
1103.00,0.0533
1102.00,0.0533
1101.00,0.0533
1100.00,0.0533
1099.00,0.0533
1098.00,0.0534
1097.00,0.0535
1096.00,0.0536
1095.00,0.0536
1094.00,0.0537
1093.00,0.0537
1092.00,0.0539
1091.00,0.0540
1090.00,0.0541
1089.00,0.0542
1088.00,0.0542
1087.00,0.0543
1086.00,0.0543
1085.00,0.0543
1084.00,0.0544
1083.00,0.0544
1082.00,0.0545
1081.00,0.0545
1080.00,0.0544
1079.00,0.0544
1078.00,0.0545
1077.00,0.0546
1076.00,0.0547
1075.00,0.0547
1074.00,0.0548
1073.00,0.0548
1072.00,0.0549
1071.00,0.0549
1070.00,0.0549
1069.00,0.0549
1068.00,0.0549
1067.00,0.0548
1066.00,0.0549
1065.00,0.0550
1064.00,0.0551
1063.00,0.0550
1062.00,0.0550
1061.00,0.0549
1060.00,0.0550
1059.00,0.0551
1058.00,0.0552
1057.00,0.0552
1056.00,0.0551
1055.00,0.0550
1054.00,0.0550
1053.00,0.0552
1052.00,0.0554
1051.00,0.0556
1050.00,0.0558
1049.00,0.0558
1048.00,0.0558
1047.00,0.0559
1046.00,0.0559
1045.00,0.0560
1044.00,0.0559
1043.00,0.0559
1042.00,0.0558
1041.00,0.0558
1040.00,0.0558
1039.00,0.0558
1038.00,0.0559
1037.00,0.0560
1036.00,0.0561
1035.00,0.0562
1034.00,0.0562
1033.00,0.0563
1032.00,0.0562
1031.00,0.0561
1030.00,0.0560
1029.00,0.0558
1028.00,0.0556
1027.00,0.0555
1026.00,0.0554
1025.00,0.0553
1024.00,0.0553
1023.00,0.0552
1022.00,0.0551
1021.00,0.0550
1020.00,0.0549
1019.00,0.0549
1018.00,0.0548
1017.00,0.0548
1016.00,0.0549
1015.00,0.0549
1014.00,0.0549
1013.00,0.0550
1012.00,0.0550
1011.00,0.0551
1010.00,0.0552
1009.00,0.0552
1008.00,0.0552
1007.00,0.0552
1006.00,0.0551
1005.00,0.0551
1004.00,0.0550
1003.00,0.0549
1002.00,0.0548
1001.00,0.0546
1000.00,0.0545
999.00,0.0544
998.00,0.0543
997.00,0.0541
996.00,0.0539
995.00,0.0536
994.00,0.0535
993.00,0.0534
992.00,0.0533
991.00,0.0532
990.00,0.0531
989.00,0.0530
988.00,0.0529
987.00,0.0528
986.00,0.0528
985.00,0.0527
984.00,0.0526
983.00,0.0525
982.00,0.0524
981.00,0.0524
980.00,0.0524
979.00,0.0523
978.00,0.0523
977.00,0.0521
976.00,0.0520
975.00,0.0520
974.00,0.0519
973.00,0.0518
972.00,0.0518
971.00,0.0517
970.00,0.0517
969.00,0.0517
968.00,0.0517
967.00,0.0516
966.00,0.0515
965.00,0.0514
964.00,0.0513
963.00,0.0513
962.00,0.0513
961.00,0.0513
960.00,0.0512
959.00,0.0511
958.00,0.0510
957.00,0.0508
956.00,0.0508
955.00,0.0508
954.00,0.0509
953.00,0.0509
952.00,0.0509
951.00,0.0508
950.00,0.0508
949.00,0.0507
948.00,0.0507
947.00,0.0507
946.00,0.0507
945.00,0.0508
944.00,0.0508
943.00,0.0508
942.00,0.0507
941.00,0.0507
940.00,0.0507
939.00,0.0507
938.00,0.0506
937.00,0.0506
936.00,0.0507
935.00,0.0506
934.00,0.0506
933.00,0.0505
932.00,0.0504
931.00,0.0503
930.00,0.0502
929.00,0.0501
928.00,0.0501
927.00,0.0501
926.00,0.0502
925.00,0.0502
924.00,0.0502
923.00,0.0502
922.00,0.0502
921.00,0.0503
920.00,0.0503
919.00,0.0504
918.00,0.0505
917.00,0.0507
916.00,0.0507
915.00,0.0508
914.00,0.0508
913.00,0.0508
912.00,0.0508
911.00,0.0507
910.00,0.0507
909.00,0.0507
908.00,0.0508
907.00,0.0508
906.00,0.0507
905.00,0.0506
904.00,0.0505
903.00,0.0504
902.00,0.0503
901.00,0.0503
900.00,0.0503
899.00,0.0503
898.00,0.0503
897.00,0.0503
896.00,0.0502
895.00,0.0502
894.00,0.0502
893.00,0.0503
892.00,0.0504
891.00,0.0505
890.00,0.0505
889.00,0.0505
888.00,0.0505
887.00,0.0505
886.00,0.0506
885.00,0.0506
884.00,0.0506
883.00,0.0506
882.00,0.0507
881.00,0.0508
880.00,0.0509
879.00,0.0509
878.00,0.0509
877.00,0.0509
876.00,0.0509
875.00,0.0509
874.00,0.0509
873.00,0.0510
872.00,0.0510
871.00,0.0509
870.00,0.0508
869.00,0.0506
868.00,0.0506
867.00,0.0506
866.00,0.0505
865.00,0.0505
864.00,0.0506
863.00,0.0507
862.00,0.0508
861.00,0.0509
860.00,0.0511
859.00,0.0512
858.00,0.0512
857.00,0.0512
856.00,0.0512
855.00,0.0512
854.00,0.0513
853.00,0.0514
852.00,0.0514
851.00,0.0513
850.00,0.0512
849.00,0.0512
848.00,0.0512
847.00,0.0514
846.00,0.0516
845.00,0.0518
844.00,0.0519
843.00,0.0519
842.00,0.0519
841.00,0.0519
840.00,0.0520
839.00,0.0523
838.00,0.0526
837.00,0.0529
836.00,0.0531
835.00,0.0531
834.00,0.0531
833.00,0.0531
832.00,0.0532
831.00,0.0534
830.00,0.0535
829.00,0.0535
828.00,0.0534
827.00,0.0533
826.00,0.0533
825.00,0.0533
824.00,0.0534
823.00,0.0536
822.00,0.0538
821.00,0.0541
820.00,0.0542
819.00,0.0543
818.00,0.0544
817.00,0.0544
816.00,0.0545
815.00,0.0544
814.00,0.0544
813.00,0.0544
812.00,0.0546
811.00,0.0548
810.00,0.0550
809.00,0.0552
808.00,0.0553
807.00,0.0554
806.00,0.0555
805.00,0.0555
804.00,0.0555
803.00,0.0555
802.00,0.0556
801.00,0.0559
800.00,0.0561
799.00,0.0562
798.00,0.0562
797.00,0.0562
796.00,0.0564
795.00,0.0565
794.00,0.0566
793.00,0.0567
792.00,0.0569
791.00,0.0571
790.00,0.0572
789.00,0.0572
788.00,0.0573
787.00,0.0573
786.00,0.0574
785.00,0.0577
784.00,0.0579
783.00,0.0581
782.00,0.0581
781.00,0.0582
780.00,0.0584
779.00,0.0585
778.00,0.0586
777.00,0.0586
776.00,0.0586
775.00,0.0586
774.00,0.0587
773.00,0.0589
772.00,0.0591
771.00,0.0592
770.00,0.0592
769.00,0.0592
768.00,0.0591
767.00,0.0590
766.00,0.0589
765.00,0.0590
764.00,0.0591
763.00,0.0592
762.00,0.0593
761.00,0.0594
760.00,0.0598
759.00,0.0602
758.00,0.0605
757.00,0.0607
756.00,0.0608
755.00,0.0607
754.00,0.0607
753.00,0.0608
752.00,0.0609
751.00,0.0612
750.00,0.0613
749.00,0.0614
748.00,0.0614
747.00,0.0613
746.00,0.0613
745.00,0.0614
744.00,0.0616
743.00,0.0616
742.00,0.0616
741.00,0.0615
740.00,0.0614
739.00,0.0613
738.00,0.0613
737.00,0.0614
736.00,0.0615
735.00,0.0616
734.00,0.0615
733.00,0.0614
732.00,0.0615
731.00,0.0617
730.00,0.0619
729.00,0.0620
728.00,0.0621
727.00,0.0620
726.00,0.0620
725.00,0.0621
724.00,0.0621
723.00,0.0622
722.00,0.0622
721.00,0.0624
720.00,0.0626
719.00,0.0628
718.00,0.0629
717.00,0.0630
716.00,0.0631
715.00,0.0632
714.00,0.0633
713.00,0.0637
712.00,0.0641
711.00,0.0644
710.00,0.0646
709.00,0.0645
708.00,0.0644
707.00,0.0643
706.00,0.0645
705.00,0.0647
704.00,0.0650
703.00,0.0652
702.00,0.0652
701.00,0.0652
700.00,0.0653
699.00,0.0656
698.00,0.0658
697.00,0.0659
696.00,0.0658
695.00,0.0657
694.00,0.0657
693.00,0.0658
692.00,0.0660
691.00,0.0663
690.00,0.0665
689.00,0.0666
688.00,0.0665
687.00,0.0663
686.00,0.0662
685.00,0.0661
684.00,0.0662
683.00,0.0664
682.00,0.0667
681.00,0.0670
680.00,0.0673
679.00,0.0673
678.00,0.0674
677.00,0.0676
676.00,0.0681
675.00,0.0686
674.00,0.0687
673.00,0.0684
672.00,0.0679
671.00,0.0675
670.00,0.0676
669.00,0.0688
668.00,0.0712
667.00,0.0725
666.00,0.0718
665.00,0.0707
664.00,0.0698
663.00,0.0693
662.00,0.0689
661.00,0.0690
660.00,0.0697
659.00,0.0704
658.00,0.0709
657.00,0.0708
656.00,0.0705
655.00,0.0704
654.00,0.0704
653.00,0.0706
652.00,0.0708
651.00,0.0709
650.00,0.0709
