Created as New Dataset,
cm-1,A
4000.00,0.0292
3999.00,0.0292
3998.00,0.0292
3997.00,0.0293
3996.00,0.0293
3995.00,0.0293
3994.00,0.0293
3993.00,0.0293
3992.00,0.0293
3991.00,0.0292
3990.00,0.0292
3989.00,0.0291
3988.00,0.0291
3987.00,0.0292
3986.00,0.0292
3985.00,0.0292
3984.00,0.0292
3983.00,0.0292
3982.00,0.0291
3981.00,0.0291
3980.00,0.0291
3979.00,0.0292
3978.00,0.0291
3977.00,0.0291
3976.00,0.0292
3975.00,0.0292
3974.00,0.0292
3973.00,0.0292
3972.00,0.0292
3971.00,0.0292
3970.00,0.0291
3969.00,0.0290
3968.00,0.0290
3967.00,0.0289
3966.00,0.0289
3965.00,0.0290
3964.00,0.0290
3963.00,0.0291
3962.00,0.0291
3961.00,0.0291
3960.00,0.0292
3959.00,0.0292
3958.00,0.0291
3957.00,0.0291
3956.00,0.0290
3955.00,0.0290
3954.00,0.0290
3953.00,0.0290
3952.00,0.0291
3951.00,0.0292
3950.00,0.0293
3949.00,0.0293
3948.00,0.0293
3947.00,0.0293
3946.00,0.0293
3945.00,0.0293
3944.00,0.0293
3943.00,0.0293
3942.00,0.0292
3941.00,0.0292
3940.00,0.0291
3939.00,0.0291
3938.00,0.0290
3937.00,0.0289
3936.00,0.0289
3935.00,0.0290
3934.00,0.0291
3933.00,0.0291
3932.00,0.0292
3931.00,0.0293
3930.00,0.0293
3929.00,0.0293
3928.00,0.0292
3927.00,0.0292
3926.00,0.0291
3925.00,0.0291
3924.00,0.0291
3923.00,0.0292
3922.00,0.0292
3921.00,0.0292
3920.00,0.0292
3919.00,0.0291
3918.00,0.0292
3917.00,0.0292
3916.00,0.0291
3915.00,0.0290
3914.00,0.0289
3913.00,0.0288
3912.00,0.0287
3911.00,0.0285
3910.00,0.0285
3909.00,0.0286
3908.00,0.0287
3907.00,0.0289
3906.00,0.0291
3905.00,0.0292
3904.00,0.0294
3903.00,0.0296
3902.00,0.0299
3901.00,0.0301
3900.00,0.0299
3899.00,0.0296
3898.00,0.0293
3897.00,0.0291
3896.00,0.0290
3895.00,0.0290
3894.00,0.0290
3893.00,0.0291
3892.00,0.0290
3891.00,0.0288
3890.00,0.0288
3889.00,0.0289
3888.00,0.0292
3887.00,0.0292
3886.00,0.0289
3885.00,0.0287
3884.00,0.0290
3883.00,0.0295
3882.00,0.0297
3881.00,0.0295
3880.00,0.0291
3879.00,0.0289
3878.00,0.0290
3877.00,0.0291
3876.00,0.0291
3875.00,0.0289
3874.00,0.0287
3873.00,0.0289
3872.00,0.0293
3871.00,0.0294
3870.00,0.0291
3869.00,0.0289
3868.00,0.0291
3867.00,0.0295
3866.00,0.0295
3865.00,0.0293
3864.00,0.0291
3863.00,0.0292
3862.00,0.0292
3861.00,0.0290
3860.00,0.0288
3859.00,0.0287
3858.00,0.0286
3857.00,0.0287
3856.00,0.0288
3855.00,0.0287
3854.00,0.0285
3853.00,0.0285
3852.00,0.0287
3851.00,0.0289
3850.00,0.0290
3849.00,0.0289
3848.00,0.0286
3847.00,0.0285
3846.00,0.0284
3845.00,0.0284
3844.00,0.0284
3843.00,0.0284
3842.00,0.0287
3841.00,0.0290
3840.00,0.0292
3839.00,0.0292
3838.00,0.0292
3837.00,0.0291
3836.00,0.0291
3835.00,0.0291
3834.00,0.0291
3833.00,0.0289
3832.00,0.0286
3831.00,0.0284
3830.00,0.0284
3829.00,0.0285
3828.00,0.0286
3827.00,0.0284
3826.00,0.0283
3825.00,0.0283
3824.00,0.0287
3823.00,0.0289
3822.00,0.0288
3821.00,0.0285
3820.00,0.0285
3819.00,0.0288
3818.00,0.0291
3817.00,0.0288
3816.00,0.0283
3815.00,0.0279
3814.00,0.0281
3813.00,0.0282
3812.00,0.0282
3811.00,0.0279
3810.00,0.0278
3809.00,0.0279
3808.00,0.0279
3807.00,0.0276
3806.00,0.0276
3805.00,0.0279
3804.00,0.0285
3803.00,0.0287
3802.00,0.0284
3801.00,0.0282
3800.00,0.0283
3799.00,0.0287
3798.00,0.0289
3797.00,0.0286
3796.00,0.0282
3795.00,0.0280
3794.00,0.0280
3793.00,0.0280
3792.00,0.0278
3791.00,0.0277
3790.00,0.0276
3789.00,0.0276
3788.00,0.0276
3787.00,0.0277
3786.00,0.0278
3785.00,0.0278
3784.00,0.0278
3783.00,0.0279
3782.00,0.0280
3781.00,0.0280
3780.00,0.0279
3779.00,0.0278
3778.00,0.0278
3777.00,0.0279
3776.00,0.0278
3775.00,0.0277
3774.00,0.0275
3773.00,0.0275
3772.00,0.0277
3771.00,0.0277
3770.00,0.0277
3769.00,0.0278
3768.00,0.0281
3767.00,0.0282
3766.00,0.0281
3765.00,0.0279
3764.00,0.0278
3763.00,0.0279
3762.00,0.0281
3761.00,0.0281
3760.00,0.0281
3759.00,0.0281
3758.00,0.0282
3757.00,0.0282
3756.00,0.0281
3755.00,0.0281
3754.00,0.0281
3753.00,0.0279
3752.00,0.0279
3751.00,0.0281
3750.00,0.0283
3749.00,0.0283
3748.00,0.0285
3747.00,0.0290
3746.00,0.0291
3745.00,0.0285
3744.00,0.0278
3743.00,0.0277
3742.00,0.0281
3741.00,0.0283
3740.00,0.0283
3739.00,0.0282
3738.00,0.0283
3737.00,0.0284
3736.00,0.0286
3735.00,0.0289
3734.00,0.0291
3733.00,0.0290
3732.00,0.0285
3731.00,0.0281
3730.00,0.0279
3729.00,0.0280
3728.00,0.0280
3727.00,0.0279
3726.00,0.0279
3725.00,0.0280
3724.00,0.0282
3723.00,0.0282
3722.00,0.0280
3721.00,0.0279
3720.00,0.0278
3719.00,0.0277
3718.00,0.0275
3717.00,0.0274
3716.00,0.0274
3715.00,0.0275
3714.00,0.0276
3713.00,0.0276
3712.00,0.0277
3711.00,0.0279
3710.00,0.0280
3709.00,0.0280
3708.00,0.0278
3707.00,0.0275
3706.00,0.0274
3705.00,0.0273
3704.00,0.0274
3703.00,0.0274
3702.00,0.0274
3701.00,0.0274
3700.00,0.0274
3699.00,0.0274
3698.00,0.0274
3697.00,0.0273
3696.00,0.0272
3695.00,0.0272
3694.00,0.0273
3693.00,0.0274
3692.00,0.0275
3691.00,0.0278
3690.00,0.0280
3689.00,0.0280
3688.00,0.0278
3687.00,0.0277
3686.00,0.0277
3685.00,0.0277
3684.00,0.0276
3683.00,0.0274
3682.00,0.0274
3681.00,0.0273
3680.00,0.0272
3679.00,0.0274
3678.00,0.0279
3677.00,0.0284
3676.00,0.0285
3675.00,0.0285
3674.00,0.0286
3673.00,0.0289
3672.00,0.0291
3671.00,0.0289
3670.00,0.0287
3669.00,0.0287
3668.00,0.0288
3667.00,0.0288
3666.00,0.0287
3665.00,0.0285
3664.00,0.0284
3663.00,0.0283
3662.00,0.0283
3661.00,0.0284
3660.00,0.0285
3659.00,0.0287
3658.00,0.0290
3657.00,0.0292
3656.00,0.0293
3655.00,0.0296
3654.00,0.0300
3653.00,0.0303
3652.00,0.0304
3651.00,0.0304
3650.00,0.0310
3649.00,0.0319
3648.00,0.0325
3647.00,0.0325
3646.00,0.0322
3645.00,0.0319
3644.00,0.0316
3643.00,0.0315
3642.00,0.0313
3641.00,0.0313
3640.00,0.0314
3639.00,0.0314
3638.00,0.0315
3637.00,0.0317
3636.00,0.0319
3635.00,0.0320
3634.00,0.0320
3633.00,0.0321
3632.00,0.0324
3631.00,0.0328
3630.00,0.0332
3629.00,0.0335
3628.00,0.0338
3627.00,0.0340
3626.00,0.0340
3625.00,0.0338
3624.00,0.0336
3623.00,0.0335
3622.00,0.0337
3621.00,0.0341
3620.00,0.0344
3619.00,0.0348
3618.00,0.0350
3617.00,0.0352
3616.00,0.0353
3615.00,0.0352
3614.00,0.0351
3613.00,0.0350
3612.00,0.0350
3611.00,0.0352
3610.00,0.0353
3609.00,0.0354
3608.00,0.0355
3607.00,0.0356
3606.00,0.0356
3605.00,0.0355
3604.00,0.0354
3603.00,0.0353
3602.00,0.0354
3601.00,0.0355
3600.00,0.0356
3599.00,0.0357
3598.00,0.0359
3597.00,0.0360
3596.00,0.0362
3595.00,0.0364
3594.00,0.0365
3593.00,0.0365
3592.00,0.0364
3591.00,0.0364
3590.00,0.0365
3589.00,0.0368
3588.00,0.0372
3587.00,0.0376
3586.00,0.0378
3585.00,0.0377
3584.00,0.0375
3583.00,0.0373
3582.00,0.0371
3581.00,0.0370
3580.00,0.0370
3579.00,0.0371
3578.00,0.0372
3577.00,0.0372
3576.00,0.0373
3575.00,0.0373
3574.00,0.0372
3573.00,0.0372
3572.00,0.0372
3571.00,0.0373
3570.00,0.0375
3569.00,0.0379
3568.00,0.0386
3567.00,0.0392
3566.00,0.0397
3565.00,0.0397
3564.00,0.0395
3563.00,0.0392
3562.00,0.0389
3561.00,0.0386
3560.00,0.0385
3559.00,0.0385
3558.00,0.0385
3557.00,0.0384
3556.00,0.0384
3555.00,0.0385
3554.00,0.0387
3553.00,0.0389
3552.00,0.0390
3551.00,0.0391
3550.00,0.0392
3549.00,0.0392
3548.00,0.0393
3547.00,0.0396
3546.00,0.0399
3545.00,0.0401
3544.00,0.0401
3543.00,0.0400
3542.00,0.0399
3541.00,0.0397
3540.00,0.0397
3539.00,0.0397
3538.00,0.0398
3537.00,0.0400
3536.00,0.0401
3535.00,0.0401
3534.00,0.0401
3533.00,0.0400
3532.00,0.0400
3531.00,0.0401
3530.00,0.0402
3529.00,0.0404
3528.00,0.0406
3527.00,0.0408
3526.00,0.0410
3525.00,0.0411
3524.00,0.0412
3523.00,0.0412
3522.00,0.0412
3521.00,0.0412
3520.00,0.0411
3519.00,0.0411
3518.00,0.0411
3517.00,0.0411
3516.00,0.0412
3515.00,0.0412
3514.00,0.0413
3513.00,0.0413
3512.00,0.0414
3511.00,0.0416
3510.00,0.0418
3509.00,0.0419
3508.00,0.0419
3507.00,0.0419
3506.00,0.0419
3505.00,0.0420
3504.00,0.0421
3503.00,0.0423
3502.00,0.0424
3501.00,0.0425
3500.00,0.0424
3499.00,0.0424
3498.00,0.0423
3497.00,0.0423
3496.00,0.0424
3495.00,0.0425
3494.00,0.0425
3493.00,0.0426
3492.00,0.0425
3491.00,0.0425
3490.00,0.0425
3489.00,0.0425
3488.00,0.0426
3487.00,0.0428
3486.00,0.0429
3485.00,0.0430
3484.00,0.0430
3483.00,0.0431
3482.00,0.0432
3481.00,0.0433
3480.00,0.0433
3479.00,0.0434
3478.00,0.0434
3477.00,0.0435
3476.00,0.0435
3475.00,0.0435
3474.00,0.0435
3473.00,0.0436
3472.00,0.0436
3471.00,0.0437
3470.00,0.0438
3469.00,0.0439
3468.00,0.0439
3467.00,0.0439
3466.00,0.0440
3465.00,0.0440
3464.00,0.0440
3463.00,0.0441
3462.00,0.0442
3461.00,0.0442
3460.00,0.0442
3459.00,0.0442
3458.00,0.0442
3457.00,0.0442
3456.00,0.0443
3455.00,0.0443
3454.00,0.0445
3453.00,0.0445
3452.00,0.0446
3451.00,0.0446
3450.00,0.0446
3449.00,0.0447
3448.00,0.0448
3447.00,0.0449
3446.00,0.0450
3445.00,0.0450
3444.00,0.0450
3443.00,0.0450
3442.00,0.0450
3441.00,0.0450
3440.00,0.0450
3439.00,0.0450
3438.00,0.0450
3437.00,0.0451
3436.00,0.0451
3435.00,0.0452
3434.00,0.0452
3433.00,0.0453
3432.00,0.0453
3431.00,0.0454
3430.00,0.0454
3429.00,0.0455
3428.00,0.0455
3427.00,0.0455
3426.00,0.0455
3425.00,0.0455
3424.00,0.0456
3423.00,0.0456
3422.00,0.0457
3421.00,0.0458
3420.00,0.0459
3419.00,0.0459
3418.00,0.0459
3417.00,0.0459
3416.00,0.0459
3415.00,0.0459
3414.00,0.0459
3413.00,0.0459
3412.00,0.0460
3411.00,0.0460
3410.00,0.0461
3409.00,0.0461
3408.00,0.0461
3407.00,0.0462
3406.00,0.0462
3405.00,0.0463
3404.00,0.0464
3403.00,0.0464
3402.00,0.0464
3401.00,0.0464
3400.00,0.0464
3399.00,0.0464
3398.00,0.0464
3397.00,0.0465
3396.00,0.0465
3395.00,0.0465
3394.00,0.0466
3393.00,0.0467
3392.00,0.0468
3391.00,0.0468
3390.00,0.0468
3389.00,0.0467
3388.00,0.0467
3387.00,0.0467
3386.00,0.0467
3385.00,0.0468
3384.00,0.0468
3383.00,0.0468
3382.00,0.0468
3381.00,0.0467
3380.00,0.0467
3379.00,0.0467
3378.00,0.0468
3377.00,0.0468
3376.00,0.0468
3375.00,0.0469
3374.00,0.0469
3373.00,0.0470
3372.00,0.0470
3371.00,0.0470
3370.00,0.0470
3369.00,0.0470
3368.00,0.0470
3367.00,0.0471
3366.00,0.0471
3365.00,0.0471
3364.00,0.0472
3363.00,0.0472
3362.00,0.0472
3361.00,0.0473
3360.00,0.0473
3359.00,0.0473
3358.00,0.0473
3357.00,0.0473
3356.00,0.0473
3355.00,0.0473
3354.00,0.0473
3353.00,0.0473
3352.00,0.0472
3351.00,0.0472
3350.00,0.0472
3349.00,0.0471
3348.00,0.0471
3347.00,0.0471
3346.00,0.0471
3345.00,0.0471
3344.00,0.0472
3343.00,0.0472
3342.00,0.0472
3341.00,0.0473
3340.00,0.0473
3339.00,0.0473
3338.00,0.0473
3337.00,0.0473
3336.00,0.0473
3335.00,0.0474
3334.00,0.0474
3333.00,0.0474
3332.00,0.0474
3331.00,0.0474
3330.00,0.0474
3329.00,0.0473
3328.00,0.0474
3327.00,0.0474
3326.00,0.0474
3325.00,0.0475
3324.00,0.0475
3323.00,0.0475
3322.00,0.0474
3321.00,0.0474
3320.00,0.0473
3319.00,0.0473
3318.00,0.0473
3317.00,0.0473
3316.00,0.0473
3315.00,0.0474
3314.00,0.0474
3313.00,0.0473
3312.00,0.0473
3311.00,0.0473
3310.00,0.0474
3309.00,0.0475
3308.00,0.0475
3307.00,0.0476
3306.00,0.0476
3305.00,0.0476
3304.00,0.0476
3303.00,0.0477
3302.00,0.0476
3301.00,0.0475
3300.00,0.0474
3299.00,0.0474
3298.00,0.0474
3297.00,0.0474
3296.00,0.0475
3295.00,0.0475
3294.00,0.0475
3293.00,0.0475
3292.00,0.0475
3291.00,0.0475
3290.00,0.0475
3289.00,0.0475
3288.00,0.0475
3287.00,0.0475
3286.00,0.0476
3285.00,0.0476
3284.00,0.0476
3283.00,0.0476
3282.00,0.0476
3281.00,0.0476
3280.00,0.0475
3279.00,0.0475
3278.00,0.0475
3277.00,0.0475
3276.00,0.0476
3275.00,0.0477
3274.00,0.0478
3273.00,0.0478
3272.00,0.0478
3271.00,0.0477
3270.00,0.0477
3269.00,0.0477
3268.00,0.0477
3267.00,0.0476
3266.00,0.0476
3265.00,0.0476
3264.00,0.0477
3263.00,0.0477
3262.00,0.0478
3261.00,0.0478
3260.00,0.0478
3259.00,0.0478
3258.00,0.0478
3257.00,0.0478
3256.00,0.0479
3255.00,0.0479
3254.00,0.0479
3253.00,0.0478
3252.00,0.0478
3251.00,0.0478
3250.00,0.0478
3249.00,0.0478
3248.00,0.0479
3247.00,0.0479
3246.00,0.0480
3245.00,0.0480
3244.00,0.0481
3243.00,0.0481
3242.00,0.0480
3241.00,0.0480
3240.00,0.0479
3239.00,0.0479
3238.00,0.0479
3237.00,0.0479
3236.00,0.0479
3235.00,0.0480
3234.00,0.0480
3233.00,0.0481
3232.00,0.0482
3231.00,0.0482
3230.00,0.0482
3229.00,0.0482
3228.00,0.0482
3227.00,0.0482
3226.00,0.0482
3225.00,0.0482
3224.00,0.0482
3223.00,0.0482
3222.00,0.0482
3221.00,0.0482
3220.00,0.0482
3219.00,0.0482
3218.00,0.0482
3217.00,0.0481
3216.00,0.0481
3215.00,0.0481
3214.00,0.0481
3213.00,0.0481
3212.00,0.0482
3211.00,0.0482
3210.00,0.0482
3209.00,0.0482
3208.00,0.0482
3207.00,0.0482
3206.00,0.0482
3205.00,0.0482
3204.00,0.0482
3203.00,0.0482
3202.00,0.0483
3201.00,0.0483
3200.00,0.0483
3199.00,0.0483
3198.00,0.0483
3197.00,0.0483
3196.00,0.0483
3195.00,0.0482
3194.00,0.0482
3193.00,0.0481
3192.00,0.0481
3191.00,0.0481
3190.00,0.0481
3189.00,0.0482
3188.00,0.0482
3187.00,0.0483
3186.00,0.0483
3185.00,0.0482
3184.00,0.0482
3183.00,0.0482
3182.00,0.0482
3181.00,0.0481
3180.00,0.0481
3179.00,0.0481
3178.00,0.0481
3177.00,0.0481
3176.00,0.0481
3175.00,0.0481
3174.00,0.0481
3173.00,0.0481
3172.00,0.0481
3171.00,0.0481
3170.00,0.0480
3169.00,0.0480
3168.00,0.0480
3167.00,0.0480
3166.00,0.0480
3165.00,0.0480
3164.00,0.0480
3163.00,0.0479
3162.00,0.0479
3161.00,0.0479
3160.00,0.0479
3159.00,0.0480
3158.00,0.0480
3157.00,0.0480
3156.00,0.0479
3155.00,0.0478
3154.00,0.0478
3153.00,0.0478
3152.00,0.0478
3151.00,0.0478
3150.00,0.0477
3149.00,0.0477
3148.00,0.0477
3147.00,0.0477
3146.00,0.0478
3145.00,0.0478
3144.00,0.0478
3143.00,0.0478
3142.00,0.0478
3141.00,0.0478
3140.00,0.0478
3139.00,0.0478
3138.00,0.0478
3137.00,0.0478
3136.00,0.0477
3135.00,0.0477
3134.00,0.0477
3133.00,0.0476
3132.00,0.0476
3131.00,0.0476
3130.00,0.0476
3129.00,0.0476
3128.00,0.0476
3127.00,0.0477
3126.00,0.0477
3125.00,0.0477
3124.00,0.0477
3123.00,0.0477
3122.00,0.0476
3121.00,0.0476
3120.00,0.0476
3119.00,0.0475
3118.00,0.0476
3117.00,0.0476
3116.00,0.0476
3115.00,0.0477
3114.00,0.0477
3113.00,0.0477
3112.00,0.0476
3111.00,0.0476
3110.00,0.0475
3109.00,0.0475
3108.00,0.0475
3107.00,0.0475
3106.00,0.0475
3105.00,0.0475
3104.00,0.0475
3103.00,0.0475
3102.00,0.0475
3101.00,0.0475
3100.00,0.0476
3099.00,0.0475
3098.00,0.0475
3097.00,0.0475
3096.00,0.0475
3095.00,0.0475
3094.00,0.0475
3093.00,0.0475
3092.00,0.0475
3091.00,0.0475
3090.00,0.0475
3089.00,0.0475
3088.00,0.0475
3087.00,0.0475
3086.00,0.0474
3085.00,0.0474
3084.00,0.0474
3083.00,0.0474
3082.00,0.0474
3081.00,0.0474
3080.00,0.0474
3079.00,0.0474
3078.00,0.0474
3077.00,0.0474
3076.00,0.0473
3075.00,0.0473
3074.00,0.0473
3073.00,0.0473
3072.00,0.0473
3071.00,0.0473
3070.00,0.0472
3069.00,0.0472
3068.00,0.0472
3067.00,0.0472
3066.00,0.0473
3065.00,0.0473
3064.00,0.0473
3063.00,0.0473
3062.00,0.0472
3061.00,0.0472
3060.00,0.0471
3059.00,0.0471
3058.00,0.0471
3057.00,0.0471
3056.00,0.0471
3055.00,0.0471
3054.00,0.0471
3053.00,0.0471
3052.00,0.0470
3051.00,0.0470
3050.00,0.0469
3049.00,0.0469
3048.00,0.0468
3047.00,0.0468
3046.00,0.0468
3045.00,0.0468
3044.00,0.0468
3043.00,0.0468
3042.00,0.0468
3041.00,0.0467
3040.00,0.0467
3039.00,0.0466
3038.00,0.0466
3037.00,0.0466
3036.00,0.0466
3035.00,0.0466
3034.00,0.0466
3033.00,0.0466
3032.00,0.0466
3031.00,0.0466
3030.00,0.0466
3029.00,0.0465
3028.00,0.0464
3027.00,0.0463
3026.00,0.0462
3025.00,0.0462
3024.00,0.0462
3023.00,0.0462
3022.00,0.0462
3021.00,0.0462
3020.00,0.0462
3019.00,0.0462
3018.00,0.0461
3017.00,0.0461
3016.00,0.0461
3015.00,0.0462
3014.00,0.0462
3013.00,0.0462
3012.00,0.0462
3011.00,0.0462
3010.00,0.0462
3009.00,0.0461
3008.00,0.0461
3007.00,0.0460
3006.00,0.0460
3005.00,0.0460
3004.00,0.0460
3003.00,0.0459
3002.00,0.0459
3001.00,0.0458
3000.00,0.0458
2999.00,0.0458
2998.00,0.0457
2997.00,0.0457
2996.00,0.0457
2995.00,0.0457
2994.00,0.0457
2993.00,0.0457
2992.00,0.0456
2991.00,0.0455
2990.00,0.0455
2989.00,0.0455
2988.00,0.0455
2987.00,0.0455
2986.00,0.0455
2985.00,0.0455
2984.00,0.0455
2983.00,0.0455
2982.00,0.0454
2981.00,0.0454
2980.00,0.0454
2979.00,0.0454
2978.00,0.0454
2977.00,0.0454
2976.00,0.0454
2975.00,0.0453
2974.00,0.0453
2973.00,0.0452
2972.00,0.0452
2971.00,0.0451
2970.00,0.0450
2969.00,0.0450
2968.00,0.0450
2967.00,0.0449
2966.00,0.0449
2965.00,0.0449
2964.00,0.0449
2963.00,0.0448
2962.00,0.0448
2961.00,0.0447
2960.00,0.0447
2959.00,0.0447
2958.00,0.0447
2957.00,0.0446
2956.00,0.0446
2955.00,0.0446
2954.00,0.0446
2953.00,0.0446
2952.00,0.0446
2951.00,0.0446
2950.00,0.0446
2949.00,0.0446
2948.00,0.0446
2947.00,0.0446
2946.00,0.0446
2945.00,0.0445
2944.00,0.0445
2943.00,0.0445
2942.00,0.0445
2941.00,0.0444
2940.00,0.0444
2939.00,0.0443
2938.00,0.0443
2937.00,0.0443
2936.00,0.0443
2935.00,0.0443
2934.00,0.0443
2933.00,0.0443
2932.00,0.0443
2931.00,0.0442
2930.00,0.0442
2929.00,0.0441
2928.00,0.0440
2927.00,0.0440
2926.00,0.0439
2925.00,0.0439
2924.00,0.0439
2923.00,0.0440
2922.00,0.0440
2921.00,0.0440
2920.00,0.0440
2919.00,0.0439
2918.00,0.0439
2917.00,0.0438
2916.00,0.0438
2915.00,0.0438
2914.00,0.0439
2913.00,0.0439
2912.00,0.0439
2911.00,0.0439
2910.00,0.0439
2909.00,0.0439
2908.00,0.0439
2907.00,0.0439
2906.00,0.0438
2905.00,0.0438
2904.00,0.0438
2903.00,0.0438
2902.00,0.0438
2901.00,0.0438
2900.00,0.0438
2899.00,0.0437
2898.00,0.0437
2897.00,0.0436
2896.00,0.0436
2895.00,0.0436
2894.00,0.0436
2893.00,0.0436
2892.00,0.0436
2891.00,0.0436
2890.00,0.0435
2889.00,0.0435
2888.00,0.0435
2887.00,0.0435
2886.00,0.0435
2885.00,0.0435
2884.00,0.0435
2883.00,0.0435
2882.00,0.0435
2881.00,0.0435
2880.00,0.0434
2879.00,0.0434
2878.00,0.0433
2877.00,0.0433
2876.00,0.0432
2875.00,0.0432
2874.00,0.0431
2873.00,0.0430
2872.00,0.0430
2871.00,0.0429
2870.00,0.0429
2869.00,0.0429
2868.00,0.0429
2867.00,0.0428
2866.00,0.0427
2865.00,0.0427
2864.00,0.0427
2863.00,0.0427
2862.00,0.0427
2861.00,0.0427
2860.00,0.0427
2859.00,0.0427
2858.00,0.0427
2857.00,0.0427
2856.00,0.0427
2855.00,0.0426
2854.00,0.0426
2853.00,0.0426
2852.00,0.0426
2851.00,0.0426
2850.00,0.0425
2849.00,0.0425
2848.00,0.0424
2847.00,0.0424
2846.00,0.0424
2845.00,0.0424
2844.00,0.0424
2843.00,0.0425
2842.00,0.0425
2841.00,0.0425
2840.00,0.0425
2839.00,0.0425
2838.00,0.0425
2837.00,0.0425
2836.00,0.0424
2835.00,0.0424
2834.00,0.0423
2833.00,0.0423
2832.00,0.0423
2831.00,0.0423
2830.00,0.0422
2829.00,0.0422
2828.00,0.0421
2827.00,0.0421
2826.00,0.0421
2825.00,0.0421
2824.00,0.0421
2823.00,0.0420
2822.00,0.0420
2821.00,0.0420
2820.00,0.0420
2819.00,0.0420
2818.00,0.0420
2817.00,0.0419
2816.00,0.0419
2815.00,0.0418
2814.00,0.0418
2813.00,0.0418
2812.00,0.0418
2811.00,0.0417
2810.00,0.0417
2809.00,0.0417
2808.00,0.0417
2807.00,0.0417
2806.00,0.0416
2805.00,0.0416
2804.00,0.0416
2803.00,0.0416
2802.00,0.0415
2801.00,0.0415
2800.00,0.0415
2799.00,0.0415
2798.00,0.0414
2797.00,0.0414
2796.00,0.0413
2795.00,0.0413
2794.00,0.0413
2793.00,0.0413
2792.00,0.0413
2791.00,0.0413
2790.00,0.0413
2789.00,0.0413
2788.00,0.0413
2787.00,0.0412
2786.00,0.0412
2785.00,0.0411
2784.00,0.0411
2783.00,0.0411
2782.00,0.0411
2781.00,0.0411
2780.00,0.0410
2779.00,0.0410
2778.00,0.0410
2777.00,0.0410
2776.00,0.0410
2775.00,0.0410
2774.00,0.0410
2773.00,0.0409
2772.00,0.0409
2771.00,0.0409
2770.00,0.0408
2769.00,0.0408
2768.00,0.0408
2767.00,0.0407
2766.00,0.0407
2765.00,0.0407
2764.00,0.0407
2763.00,0.0407
2762.00,0.0407
2761.00,0.0407
2760.00,0.0406
2759.00,0.0406
2758.00,0.0406
2757.00,0.0406
2756.00,0.0405
2755.00,0.0405
2754.00,0.0405
2753.00,0.0405
2752.00,0.0405
2751.00,0.0405
2750.00,0.0405
2749.00,0.0405
2748.00,0.0405
2747.00,0.0404
2746.00,0.0404
2745.00,0.0403
2744.00,0.0403
2743.00,0.0403
2742.00,0.0403
2741.00,0.0402
2740.00,0.0402
2739.00,0.0402
2738.00,0.0401
2737.00,0.0401
2736.00,0.0401
2735.00,0.0401
2734.00,0.0401
2733.00,0.0400
2732.00,0.0400
2731.00,0.0400
2730.00,0.0399
2729.00,0.0399
2728.00,0.0399
2727.00,0.0400
2726.00,0.0400
2725.00,0.0399
2724.00,0.0399
2723.00,0.0399
2722.00,0.0399
2721.00,0.0399
2720.00,0.0398
2719.00,0.0398
2718.00,0.0397
2717.00,0.0397
2716.00,0.0397
2715.00,0.0397
2714.00,0.0397
2713.00,0.0397
2712.00,0.0397
2711.00,0.0397
2710.00,0.0397
2709.00,0.0397
2708.00,0.0396
2707.00,0.0396
2706.00,0.0396
2705.00,0.0396
2704.00,0.0396
2703.00,0.0396
2702.00,0.0396
2701.00,0.0395
2700.00,0.0395
2699.00,0.0395
2698.00,0.0394
2697.00,0.0394
2696.00,0.0394
2695.00,0.0394
2694.00,0.0394
2693.00,0.0394
2692.00,0.0394
2691.00,0.0394
2690.00,0.0393
2689.00,0.0393
2688.00,0.0393
2687.00,0.0393
2686.00,0.0393
2685.00,0.0392
2684.00,0.0392
2683.00,0.0392
2682.00,0.0391
2681.00,0.0391
2680.00,0.0391
2679.00,0.0391
2678.00,0.0391
2677.00,0.0391
2676.00,0.0391
2675.00,0.0391
2674.00,0.0390
2673.00,0.0390
2672.00,0.0390
2671.00,0.0390
2670.00,0.0390
2669.00,0.0389
2668.00,0.0389
2667.00,0.0389
2666.00,0.0389
2665.00,0.0389
2664.00,0.0389
2663.00,0.0390
2662.00,0.0390
2661.00,0.0390
2660.00,0.0390
2659.00,0.0390
2658.00,0.0390
2657.00,0.0390
2656.00,0.0391
2655.00,0.0391
2654.00,0.0391
2653.00,0.0391
2652.00,0.0391
2651.00,0.0391
2650.00,0.0392
2649.00,0.0392
2648.00,0.0392
2647.00,0.0392
2646.00,0.0392
2645.00,0.0392
2644.00,0.0392
2643.00,0.0393
2642.00,0.0393
2641.00,0.0393
2640.00,0.0393
2639.00,0.0392
2638.00,0.0392
2637.00,0.0392
2636.00,0.0392
2635.00,0.0392
2634.00,0.0392
2633.00,0.0392
2632.00,0.0392
2631.00,0.0392
2630.00,0.0392
2629.00,0.0392
2628.00,0.0392
2627.00,0.0392
2626.00,0.0392
2625.00,0.0392
2624.00,0.0392
2623.00,0.0392
2622.00,0.0392
2621.00,0.0391
2620.00,0.0391
2619.00,0.0391
2618.00,0.0392
2617.00,0.0393
2616.00,0.0393
2615.00,0.0393
2614.00,0.0393
2613.00,0.0392
2612.00,0.0392
2611.00,0.0392
2610.00,0.0391
2609.00,0.0391
2608.00,0.0391
2607.00,0.0391
2606.00,0.0391
2605.00,0.0392
2604.00,0.0392
2603.00,0.0392
2602.00,0.0392
2601.00,0.0392
2600.00,0.0392
2599.00,0.0391
2598.00,0.0391
2597.00,0.0391
2596.00,0.0391
2595.00,0.0391
2594.00,0.0391
2593.00,0.0391
2592.00,0.0392
2591.00,0.0392
2590.00,0.0392
2589.00,0.0391
2588.00,0.0391
2587.00,0.0390
2586.00,0.0390
2585.00,0.0390
2584.00,0.0390
2583.00,0.0391
2582.00,0.0391
2581.00,0.0390
2580.00,0.0390
2579.00,0.0390
2578.00,0.0390
2577.00,0.0390
2576.00,0.0391
2575.00,0.0390
2574.00,0.0390
2573.00,0.0389
2572.00,0.0389
2571.00,0.0389
2570.00,0.0389
2569.00,0.0389
2568.00,0.0389
2567.00,0.0389
2566.00,0.0389
2565.00,0.0390
2564.00,0.0390
2563.00,0.0390
2562.00,0.0390
2561.00,0.0389
2560.00,0.0389
2559.00,0.0389
2558.00,0.0389
2557.00,0.0389
2556.00,0.0389
2555.00,0.0389
2554.00,0.0389
2553.00,0.0389
2552.00,0.0389
2551.00,0.0389
2550.00,0.0389
2549.00,0.0389
2548.00,0.0389
2547.00,0.0388
2546.00,0.0387
2545.00,0.0387
2544.00,0.0387
2543.00,0.0387
2542.00,0.0388
2541.00,0.0389
2540.00,0.0389
2539.00,0.0389
2538.00,0.0389
2537.00,0.0388
2536.00,0.0388
2535.00,0.0388
2534.00,0.0388
2533.00,0.0388
2532.00,0.0387
2531.00,0.0387
2530.00,0.0387
2529.00,0.0387
2528.00,0.0387
2527.00,0.0387
2526.00,0.0388
2525.00,0.0388
2524.00,0.0388
2523.00,0.0388
2522.00,0.0388
2521.00,0.0387
2520.00,0.0387
2519.00,0.0386
2518.00,0.0385
2517.00,0.0385
2516.00,0.0385
2515.00,0.0385
2514.00,0.0385
2513.00,0.0386
2512.00,0.0387
2511.00,0.0387
2510.00,0.0386
2509.00,0.0385
2508.00,0.0385
2507.00,0.0384
2506.00,0.0384
2505.00,0.0384
2504.00,0.0384
2503.00,0.0384
2502.00,0.0385
2501.00,0.0385
2500.00,0.0385
2499.00,0.0385
2498.00,0.0385
2497.00,0.0384
2496.00,0.0384
2495.00,0.0384
2494.00,0.0383
2493.00,0.0383
2492.00,0.0382
2491.00,0.0382
2490.00,0.0382
2489.00,0.0383
2488.00,0.0383
2487.00,0.0383
2486.00,0.0383
2485.00,0.0383
2484.00,0.0383
2483.00,0.0383
2482.00,0.0383
2481.00,0.0383
2480.00,0.0383
2479.00,0.0383
2478.00,0.0382
2477.00,0.0382
2476.00,0.0382
2475.00,0.0382
2474.00,0.0382
2473.00,0.0382
2472.00,0.0382
2471.00,0.0381
2470.00,0.0381
2469.00,0.0381
2468.00,0.0381
2467.00,0.0381
2466.00,0.0381
2465.00,0.0381
2464.00,0.0381
2463.00,0.0381
2462.00,0.0381
2461.00,0.0380
2460.00,0.0380
2459.00,0.0380
2458.00,0.0381
2457.00,0.0381
2456.00,0.0381
2455.00,0.0380
2454.00,0.0380
2453.00,0.0380
2452.00,0.0380
2451.00,0.0380
2450.00,0.0380
2449.00,0.0380
2448.00,0.0379
2447.00,0.0379
2446.00,0.0379
2445.00,0.0378
2444.00,0.0378
2443.00,0.0378
2442.00,0.0378
2441.00,0.0377
2440.00,0.0377
2439.00,0.0376
2438.00,0.0376
2437.00,0.0376
2436.00,0.0377
2435.00,0.0376
2434.00,0.0376
2433.00,0.0376
2432.00,0.0376
2431.00,0.0377
2430.00,0.0377
2429.00,0.0377
2428.00,0.0377
2427.00,0.0376
2426.00,0.0376
2425.00,0.0375
2424.00,0.0375
2423.00,0.0375
2422.00,0.0374
2421.00,0.0374
2420.00,0.0374
2419.00,0.0374
2418.00,0.0373
2417.00,0.0373
2416.00,0.0373
2415.00,0.0373
2414.00,0.0373
2413.00,0.0373
2412.00,0.0373
2411.00,0.0372
2410.00,0.0372
2409.00,0.0371
2408.00,0.0371
2407.00,0.0371
2406.00,0.0371
2405.00,0.0371
2404.00,0.0371
2403.00,0.0371
2402.00,0.0371
2401.00,0.0370
2400.00,0.0370
2399.00,0.0369
2398.00,0.0369
2397.00,0.0368
2396.00,0.0368
2395.00,0.0368
2394.00,0.0368
2393.00,0.0368
2392.00,0.0367
2391.00,0.0367
2390.00,0.0366
2389.00,0.0364
2388.00,0.0362
2387.00,0.0361
2386.00,0.0358
2385.00,0.0356
2384.00,0.0354
2383.00,0.0352
2382.00,0.0350
2381.00,0.0349
2380.00,0.0349
2379.00,0.0348
2378.00,0.0348
2377.00,0.0349
2376.00,0.0349
2375.00,0.0350
2374.00,0.0351
2373.00,0.0352
2372.00,0.0352
2371.00,0.0352
2370.00,0.0351
2369.00,0.0351
2368.00,0.0350
2367.00,0.0351
2366.00,0.0352
2365.00,0.0354
2364.00,0.0356
2363.00,0.0359
2362.00,0.0361
2361.00,0.0365
2360.00,0.0367
2359.00,0.0368
2358.00,0.0369
2357.00,0.0370
2356.00,0.0370
2355.00,0.0367
2354.00,0.0360
2353.00,0.0355
2352.00,0.0355
2351.00,0.0359
2350.00,0.0362
2349.00,0.0361
2348.00,0.0355
2347.00,0.0349
2346.00,0.0349
2345.00,0.0352
2344.00,0.0357
2343.00,0.0359
2342.00,0.0359
2341.00,0.0359
2340.00,0.0359
2339.00,0.0359
2338.00,0.0358
2337.00,0.0358
2336.00,0.0358
2335.00,0.0359
2334.00,0.0358
2333.00,0.0359
2332.00,0.0358
2331.00,0.0358
2330.00,0.0359
2329.00,0.0360
2328.00,0.0363
2327.00,0.0364
2326.00,0.0364
2325.00,0.0363
2324.00,0.0363
2323.00,0.0362
2322.00,0.0362
2321.00,0.0362
2320.00,0.0361
2319.00,0.0361
2318.00,0.0361
2317.00,0.0361
2316.00,0.0360
2315.00,0.0359
2314.00,0.0358
2313.00,0.0358
2312.00,0.0358
2311.00,0.0358
2310.00,0.0358
2309.00,0.0358
2308.00,0.0358
2307.00,0.0358
2306.00,0.0359
2305.00,0.0359
2304.00,0.0358
2303.00,0.0358
2302.00,0.0358
2301.00,0.0358
2300.00,0.0357
2299.00,0.0357
2298.00,0.0358
2297.00,0.0358
2296.00,0.0359
2295.00,0.0359
2294.00,0.0359
2293.00,0.0359
2292.00,0.0360
2291.00,0.0360
2290.00,0.0361
2289.00,0.0361
2288.00,0.0362
2287.00,0.0362
2286.00,0.0362
2285.00,0.0361
2284.00,0.0361
2283.00,0.0360
2282.00,0.0360
2281.00,0.0360
2280.00,0.0361
2279.00,0.0360
2278.00,0.0360
2277.00,0.0360
2276.00,0.0360
2275.00,0.0361
2274.00,0.0362
2273.00,0.0363
2272.00,0.0362
2271.00,0.0361
2270.00,0.0359
2269.00,0.0358
2268.00,0.0358
2267.00,0.0359
2266.00,0.0359
2265.00,0.0359
2264.00,0.0359
2263.00,0.0358
2262.00,0.0358
2261.00,0.0358
2260.00,0.0359
2259.00,0.0359
2258.00,0.0360
2257.00,0.0360
2256.00,0.0359
2255.00,0.0358
2254.00,0.0357
2253.00,0.0357
2252.00,0.0357
2251.00,0.0357
2250.00,0.0357
2249.00,0.0357
2248.00,0.0357
2247.00,0.0357
2246.00,0.0357
2245.00,0.0356
2244.00,0.0356
2243.00,0.0356
2242.00,0.0357
2241.00,0.0357
2240.00,0.0356
2239.00,0.0356
2238.00,0.0355
2237.00,0.0355
2236.00,0.0355
2235.00,0.0355
2234.00,0.0355
2233.00,0.0355
2232.00,0.0355
2231.00,0.0355
2230.00,0.0356
2229.00,0.0357
2228.00,0.0358
2227.00,0.0358
2226.00,0.0358
2225.00,0.0357
2224.00,0.0356
2223.00,0.0355
2222.00,0.0355
2221.00,0.0356
2220.00,0.0357
2219.00,0.0358
2218.00,0.0358
2217.00,0.0358
2216.00,0.0358
2215.00,0.0358
2214.00,0.0358
2213.00,0.0357
2212.00,0.0355
2211.00,0.0354
2210.00,0.0353
2209.00,0.0352
2208.00,0.0353
2207.00,0.0354
2206.00,0.0355
2205.00,0.0355
2204.00,0.0356
2203.00,0.0356
2202.00,0.0355
2201.00,0.0355
2200.00,0.0356
2199.00,0.0356
2198.00,0.0356
2197.00,0.0356
2196.00,0.0356
2195.00,0.0356
2194.00,0.0356
2193.00,0.0354
2192.00,0.0352
2191.00,0.0352
2190.00,0.0352
2189.00,0.0353
2188.00,0.0353
2187.00,0.0354
2186.00,0.0354
2185.00,0.0355
2184.00,0.0355
2183.00,0.0355
2182.00,0.0356
2181.00,0.0356
2180.00,0.0357
2179.00,0.0356
2178.00,0.0355
2177.00,0.0353
2176.00,0.0350
2175.00,0.0349
2174.00,0.0349
2173.00,0.0351
2172.00,0.0353
2171.00,0.0353
2170.00,0.0352
2169.00,0.0351
2168.00,0.0351
2167.00,0.0353
2166.00,0.0355
2165.00,0.0357
2164.00,0.0359
2163.00,0.0360
2162.00,0.0358
2161.00,0.0354
2160.00,0.0348
2159.00,0.0343
2158.00,0.0340
2157.00,0.0339
2156.00,0.0341
2155.00,0.0343
2154.00,0.0344
2153.00,0.0344
2152.00,0.0344
2151.00,0.0343
2150.00,0.0342
2149.00,0.0341
2148.00,0.0339
2147.00,0.0337
2146.00,0.0335
2145.00,0.0335
2144.00,0.0335
2143.00,0.0335
2142.00,0.0335
2141.00,0.0334
2140.00,0.0334
2139.00,0.0334
2138.00,0.0334
2137.00,0.0333
2136.00,0.0331
2135.00,0.0329
2134.00,0.0329
2133.00,0.0329
2132.00,0.0329
2131.00,0.0329
2130.00,0.0329
2129.00,0.0329
2128.00,0.0328
2127.00,0.0328
2126.00,0.0328
2125.00,0.0328
2124.00,0.0328
2123.00,0.0329
2122.00,0.0330
2121.00,0.0331
2120.00,0.0332
2119.00,0.0333
2118.00,0.0334
2117.00,0.0334
2116.00,0.0334
2115.00,0.0334
2114.00,0.0333
2113.00,0.0332
2112.00,0.0330
2111.00,0.0329
2110.00,0.0328
2109.00,0.0329
2108.00,0.0329
2107.00,0.0329
2106.00,0.0329
2105.00,0.0328
2104.00,0.0328
2103.00,0.0328
2102.00,0.0328
2101.00,0.0328
2100.00,0.0329
2099.00,0.0329
2098.00,0.0329
2097.00,0.0328
2096.00,0.0327
2095.00,0.0326
2094.00,0.0326
2093.00,0.0327
2092.00,0.0328
2091.00,0.0328
2090.00,0.0327
2089.00,0.0327
2088.00,0.0326
2087.00,0.0326
2086.00,0.0326
2085.00,0.0326
2084.00,0.0326
2083.00,0.0325
2082.00,0.0325
2081.00,0.0324
2080.00,0.0324
2079.00,0.0324
2078.00,0.0325
2077.00,0.0326
2076.00,0.0326
2075.00,0.0326
2074.00,0.0325
2073.00,0.0324
2072.00,0.0323
2071.00,0.0323
2070.00,0.0323
2069.00,0.0323
2068.00,0.0323
2067.00,0.0323
2066.00,0.0324
2065.00,0.0324
2064.00,0.0324
2063.00,0.0323
2062.00,0.0323
2061.00,0.0323
2060.00,0.0323
2059.00,0.0323
2058.00,0.0323
2057.00,0.0323
2056.00,0.0323
2055.00,0.0323
2054.00,0.0324
2053.00,0.0325
2052.00,0.0326
2051.00,0.0327
2050.00,0.0327
2049.00,0.0326
2048.00,0.0325
2047.00,0.0325
2046.00,0.0325
2045.00,0.0325
2044.00,0.0325
2043.00,0.0325
2042.00,0.0326
2041.00,0.0327
2040.00,0.0328
2039.00,0.0328
2038.00,0.0327
2037.00,0.0326
2036.00,0.0324
2035.00,0.0322
2034.00,0.0321
2033.00,0.0320
2032.00,0.0319
2031.00,0.0318
2030.00,0.0317
2029.00,0.0317
2028.00,0.0318
2027.00,0.0319
2026.00,0.0319
2025.00,0.0319
2024.00,0.0318
2023.00,0.0317
2022.00,0.0317
2021.00,0.0319
2020.00,0.0319
2019.00,0.0319
2018.00,0.0317
2017.00,0.0316
2016.00,0.0316
2015.00,0.0317
2014.00,0.0318
2013.00,0.0318
2012.00,0.0317
2011.00,0.0315
2010.00,0.0313
2009.00,0.0313
2008.00,0.0313
2007.00,0.0312
2006.00,0.0311
2005.00,0.0310
2004.00,0.0311
2003.00,0.0311
2002.00,0.0312
2001.00,0.0313
2000.00,0.0313
1999.00,0.0313
1998.00,0.0313
1997.00,0.0313
1996.00,0.0314
1995.00,0.0316
1994.00,0.0317
1993.00,0.0317
1992.00,0.0316
1991.00,0.0313
1990.00,0.0312
1989.00,0.0311
1988.00,0.0311
1987.00,0.0311
1986.00,0.0311
1985.00,0.0311
1984.00,0.0311
1983.00,0.0312
1982.00,0.0312
1981.00,0.0314
1980.00,0.0315
1979.00,0.0315
1978.00,0.0314
1977.00,0.0312
1976.00,0.0309
1975.00,0.0307
1974.00,0.0306
1973.00,0.0305
1972.00,0.0306
1971.00,0.0307
1970.00,0.0308
1969.00,0.0308
1968.00,0.0308
1967.00,0.0306
1966.00,0.0305
1965.00,0.0304
1964.00,0.0303
1963.00,0.0303
1962.00,0.0303
1961.00,0.0302
1960.00,0.0301
1959.00,0.0299
1958.00,0.0297
1957.00,0.0295
1956.00,0.0293
1955.00,0.0292
1954.00,0.0291
1953.00,0.0291
1952.00,0.0291
1951.00,0.0291
1950.00,0.0291
1949.00,0.0290
1948.00,0.0290
1947.00,0.0291
1946.00,0.0292
1945.00,0.0293
1944.00,0.0293
1943.00,0.0292
1942.00,0.0290
1941.00,0.0289
1940.00,0.0289
1939.00,0.0289
1938.00,0.0289
1937.00,0.0289
1936.00,0.0288
1935.00,0.0286
1934.00,0.0285
1933.00,0.0284
1932.00,0.0284
1931.00,0.0285
1930.00,0.0285
1929.00,0.0285
1928.00,0.0284
1927.00,0.0284
1926.00,0.0284
1925.00,0.0286
1924.00,0.0286
1923.00,0.0285
1922.00,0.0284
1921.00,0.0284
1920.00,0.0285
1919.00,0.0283
1918.00,0.0280
1917.00,0.0277
1916.00,0.0276
1915.00,0.0276
1914.00,0.0276
1913.00,0.0276
1912.00,0.0276
1911.00,0.0275
1910.00,0.0275
1909.00,0.0275
1908.00,0.0274
1907.00,0.0272
1906.00,0.0272
1905.00,0.0272
1904.00,0.0272
1903.00,0.0271
1902.00,0.0271
1901.00,0.0270
1900.00,0.0269
1899.00,0.0268
1898.00,0.0268
1897.00,0.0268
1896.00,0.0268
1895.00,0.0267
1894.00,0.0267
1893.00,0.0268
1892.00,0.0268
1891.00,0.0267
1890.00,0.0265
1889.00,0.0264
1888.00,0.0263
1887.00,0.0263
1886.00,0.0263
1885.00,0.0263
1884.00,0.0262
1883.00,0.0260
1882.00,0.0260
1881.00,0.0259
1880.00,0.0259
1879.00,0.0258
1878.00,0.0257
1877.00,0.0256
1876.00,0.0256
1875.00,0.0255
1874.00,0.0254
1873.00,0.0255
1872.00,0.0257
1871.00,0.0258
1870.00,0.0256
1869.00,0.0252
1868.00,0.0250
1867.00,0.0249
1866.00,0.0249
1865.00,0.0250
1864.00,0.0250
1863.00,0.0250
1862.00,0.0249
1861.00,0.0248
1860.00,0.0247
1859.00,0.0246
1858.00,0.0246
1857.00,0.0246
1856.00,0.0246
1855.00,0.0247
1854.00,0.0246
1853.00,0.0245
1852.00,0.0244
1851.00,0.0243
1850.00,0.0242
1849.00,0.0242
1848.00,0.0242
1847.00,0.0244
1846.00,0.0243
1845.00,0.0240
1844.00,0.0235
1843.00,0.0231
1842.00,0.0232
1841.00,0.0235
1840.00,0.0236
1839.00,0.0235
1838.00,0.0234
1837.00,0.0233
1836.00,0.0232
1835.00,0.0232
1834.00,0.0233
1833.00,0.0235
1832.00,0.0237
1831.00,0.0235
1830.00,0.0231
1829.00,0.0228
1828.00,0.0229
1827.00,0.0230
1826.00,0.0229
1825.00,0.0227
1824.00,0.0224
1823.00,0.0223
1822.00,0.0224
1821.00,0.0224
1820.00,0.0223
1819.00,0.0222
1818.00,0.0221
1817.00,0.0220
1816.00,0.0220
1815.00,0.0220
1814.00,0.0220
1813.00,0.0220
1812.00,0.0219
1811.00,0.0218
1810.00,0.0217
1809.00,0.0216
1808.00,0.0216
1807.00,0.0216
1806.00,0.0217
1805.00,0.0218
1804.00,0.0220
1803.00,0.0221
1802.00,0.0221
1801.00,0.0220
1800.00,0.0218
1799.00,0.0217
1798.00,0.0217
1797.00,0.0219
1796.00,0.0222
1795.00,0.0225
1794.00,0.0225
1793.00,0.0223
1792.00,0.0220
1791.00,0.0219
1790.00,0.0219
1789.00,0.0222
1788.00,0.0224
1787.00,0.0225
1786.00,0.0225
1785.00,0.0226
1784.00,0.0227
1783.00,0.0229
1782.00,0.0231
1781.00,0.0232
1780.00,0.0232
1779.00,0.0233
1778.00,0.0235
1777.00,0.0238
1776.00,0.0243
1775.00,0.0247
1774.00,0.0249
1773.00,0.0248
1772.00,0.0245
1771.00,0.0244
1770.00,0.0247
1769.00,0.0249
1768.00,0.0251
1767.00,0.0251
1766.00,0.0253
1765.00,0.0258
1764.00,0.0263
1763.00,0.0264
1762.00,0.0263
1761.00,0.0263
1760.00,0.0265
1759.00,0.0268
1758.00,0.0271
1757.00,0.0271
1756.00,0.0272
1755.00,0.0274
1754.00,0.0277
1753.00,0.0280
1752.00,0.0281
1751.00,0.0282
1750.00,0.0284
1749.00,0.0287
1748.00,0.0291
1747.00,0.0294
1746.00,0.0297
1745.00,0.0299
1744.00,0.0303
1743.00,0.0306
1742.00,0.0310
1741.00,0.0312
1740.00,0.0312
1739.00,0.0313
1738.00,0.0317
1737.00,0.0324
1736.00,0.0330
1735.00,0.0329
1734.00,0.0327
1733.00,0.0328
1732.00,0.0333
1731.00,0.0340
1730.00,0.0346
1729.00,0.0349
1728.00,0.0352
1727.00,0.0355
1726.00,0.0358
1725.00,0.0362
1724.00,0.0365
1723.00,0.0369
1722.00,0.0373
1721.00,0.0378
1720.00,0.0382
1719.00,0.0382
1718.00,0.0382
1717.00,0.0385
1716.00,0.0390
1715.00,0.0394
1714.00,0.0398
1713.00,0.0400
1712.00,0.0402
1711.00,0.0404
1710.00,0.0405
1709.00,0.0408
1708.00,0.0411
1707.00,0.0413
1706.00,0.0414
1705.00,0.0416
1704.00,0.0418
1703.00,0.0423
1702.00,0.0424
1701.00,0.0419
1700.00,0.0414
1699.00,0.0412
1698.00,0.0416
1697.00,0.0421
1696.00,0.0420
1695.00,0.0416
1694.00,0.0415
1693.00,0.0419
1692.00,0.0422
1691.00,0.0424
1690.00,0.0424
1689.00,0.0425
1688.00,0.0426
1687.00,0.0428
1686.00,0.0427
1685.00,0.0424
1684.00,0.0424
1683.00,0.0425
1682.00,0.0427
1681.00,0.0430
1680.00,0.0432
1679.00,0.0433
1678.00,0.0435
1677.00,0.0436
1676.00,0.0435
1675.00,0.0434
1674.00,0.0435
1673.00,0.0437
1672.00,0.0441
1671.00,0.0444
1670.00,0.0445
1669.00,0.0446
1668.00,0.0446
1667.00,0.0447
1666.00,0.0449
1665.00,0.0451
1664.00,0.0452
1663.00,0.0453
1662.00,0.0455
1661.00,0.0457
1660.00,0.0458
1659.00,0.0461
1658.00,0.0463
1657.00,0.0466
1656.00,0.0470
1655.00,0.0472
1654.00,0.0472
1653.00,0.0474
1652.00,0.0472
1651.00,0.0474
1650.00,0.0481
1649.00,0.0488
1648.00,0.0492
1647.00,0.0497
1646.00,0.0500
1645.00,0.0501
1644.00,0.0503
1643.00,0.0506
1642.00,0.0509
1641.00,0.0511
1640.00,0.0514
1639.00,0.0517
1638.00,0.0520
1637.00,0.0525
1636.00,0.0532
1635.00,0.0537
1634.00,0.0538
1633.00,0.0540
1632.00,0.0544
1631.00,0.0547
1630.00,0.0550
1629.00,0.0554
1628.00,0.0559
1627.00,0.0563
1626.00,0.0566
1625.00,0.0570
1624.00,0.0574
1623.00,0.0578
1622.00,0.0582
1621.00,0.0583
1620.00,0.0585
1619.00,0.0586
1618.00,0.0588
1617.00,0.0591
1616.00,0.0596
1615.00,0.0600
1614.00,0.0603
1613.00,0.0606
1612.00,0.0608
1611.00,0.0610
1610.00,0.0613
1609.00,0.0617
1608.00,0.0620
1607.00,0.0623
1606.00,0.0626
1605.00,0.0627
1604.00,0.0629
1603.00,0.0632
1602.00,0.0634
1601.00,0.0636
1600.00,0.0638
1599.00,0.0639
1598.00,0.0641
1597.00,0.0642
1596.00,0.0644
1595.00,0.0646
1594.00,0.0647
1593.00,0.0648
1592.00,0.0649
1591.00,0.0651
1590.00,0.0654
1589.00,0.0656
1588.00,0.0657
1587.00,0.0657
1586.00,0.0658
1585.00,0.0658
1584.00,0.0659
1583.00,0.0660
1582.00,0.0661
1581.00,0.0661
1580.00,0.0661
1579.00,0.0662
1578.00,0.0662
1577.00,0.0663
1576.00,0.0666
1575.00,0.0668
1574.00,0.0668
1573.00,0.0669
1572.00,0.0668
1571.00,0.0668
1570.00,0.0670
1569.00,0.0672
1568.00,0.0671
1567.00,0.0671
1566.00,0.0670
1565.00,0.0669
1564.00,0.0669
1563.00,0.0668
1562.00,0.0666
1561.00,0.0661
1560.00,0.0656
1559.00,0.0668
1558.00,0.0675
1557.00,0.0670
1556.00,0.0666
1555.00,0.0665
1554.00,0.0662
1553.00,0.0659
1552.00,0.0657
1551.00,0.0657
1550.00,0.0657
1549.00,0.0655
1548.00,0.0652
1547.00,0.0649
1546.00,0.0646
1545.00,0.0645
1544.00,0.0646
1543.00,0.0646
1542.00,0.0644
1541.00,0.0643
1540.00,0.0644
1539.00,0.0641
1538.00,0.0635
1537.00,0.0632
1536.00,0.0631
1535.00,0.0630
1534.00,0.0629
1533.00,0.0628
1532.00,0.0625
1531.00,0.0621
1530.00,0.0618
1529.00,0.0615
1528.00,0.0613
1527.00,0.0612
1526.00,0.0609
1525.00,0.0607
1524.00,0.0605
1523.00,0.0602
1522.00,0.0601
1521.00,0.0600
1520.00,0.0599
1519.00,0.0597
1518.00,0.0596
1517.00,0.0596
1516.00,0.0594
1515.00,0.0591
1514.00,0.0587
1513.00,0.0583
1512.00,0.0581
1511.00,0.0579
1510.00,0.0578
1509.00,0.0577
1508.00,0.0578
1507.00,0.0580
1506.00,0.0577
1505.00,0.0569
1504.00,0.0565
1503.00,0.0564
1502.00,0.0563
1501.00,0.0561
1500.00,0.0560
1499.00,0.0558
1498.00,0.0556
1497.00,0.0556
1496.00,0.0556
1495.00,0.0555
1494.00,0.0555
1493.00,0.0556
1492.00,0.0557
1491.00,0.0558
1490.00,0.0560
1489.00,0.0562
1488.00,0.0563
1487.00,0.0561
1486.00,0.0558
1485.00,0.0556
1484.00,0.0555
1483.00,0.0554
1482.00,0.0553
1481.00,0.0554
1480.00,0.0554
1479.00,0.0554
1478.00,0.0554
1477.00,0.0554
1476.00,0.0555
1475.00,0.0556
1474.00,0.0556
1473.00,0.0558
1472.00,0.0559
1471.00,0.0558
1470.00,0.0558
1469.00,0.0558
1468.00,0.0560
1467.00,0.0560
1466.00,0.0561
1465.00,0.0562
1464.00,0.0563
1463.00,0.0564
1462.00,0.0564
1461.00,0.0565
1460.00,0.0566
1459.00,0.0566
1458.00,0.0567
1457.00,0.0569
1456.00,0.0570
1455.00,0.0569
1454.00,0.0571
1453.00,0.0573
1452.00,0.0574
1451.00,0.0575
1450.00,0.0576
1449.00,0.0578
1448.00,0.0581
1447.00,0.0582
1446.00,0.0582
1445.00,0.0582
1444.00,0.0582
1443.00,0.0583
1442.00,0.0583
1441.00,0.0584
1440.00,0.0586
1439.00,0.0587
1438.00,0.0588
1437.00,0.0589
1436.00,0.0591
1435.00,0.0592
1434.00,0.0593
1433.00,0.0593
1432.00,0.0594
1431.00,0.0595
1430.00,0.0596
1429.00,0.0597
1428.00,0.0598
1427.00,0.0597
1426.00,0.0597
1425.00,0.0598
1424.00,0.0600
1423.00,0.0602
1422.00,0.0602
1421.00,0.0600
1420.00,0.0601
1419.00,0.0603
1418.00,0.0606
1417.00,0.0608
1416.00,0.0609
1415.00,0.0608
1414.00,0.0608
1413.00,0.0607
1412.00,0.0608
1411.00,0.0609
1410.00,0.0609
1409.00,0.0609
1408.00,0.0609
1407.00,0.0610
1406.00,0.0611
1405.00,0.0613
1404.00,0.0615
1403.00,0.0616
1402.00,0.0617
1401.00,0.0617
1400.00,0.0619
1399.00,0.0622
1398.00,0.0624
1397.00,0.0625
1396.00,0.0627
1395.00,0.0629
1394.00,0.0630
1393.00,0.0628
1392.00,0.0628
1391.00,0.0628
1390.00,0.0628
1389.00,0.0629
1388.00,0.0631
1387.00,0.0634
1386.00,0.0636
1385.00,0.0637
1384.00,0.0637
1383.00,0.0637
1382.00,0.0638
1381.00,0.0639
1380.00,0.0640
1379.00,0.0641
1378.00,0.0641
1377.00,0.0642
1376.00,0.0643
1375.00,0.0645
1374.00,0.0648
1373.00,0.0649
1372.00,0.0649
1371.00,0.0648
1370.00,0.0648
1369.00,0.0649
1368.00,0.0650
1367.00,0.0649
1366.00,0.0649
1365.00,0.0649
1364.00,0.0649
1363.00,0.0651
1362.00,0.0654
1361.00,0.0654
1360.00,0.0654
1359.00,0.0654
1358.00,0.0653
1357.00,0.0653
1356.00,0.0652
1355.00,0.0652
1354.00,0.0653
1353.00,0.0653
1352.00,0.0653
1351.00,0.0652
1350.00,0.0652
1349.00,0.0652
1348.00,0.0652
1347.00,0.0652
1346.00,0.0652
1345.00,0.0652
1344.00,0.0652
1343.00,0.0651
1342.00,0.0651
1341.00,0.0651
1340.00,0.0653
1339.00,0.0654
1338.00,0.0655
1337.00,0.0655
1336.00,0.0654
1335.00,0.0652
1334.00,0.0651
1333.00,0.0651
1332.00,0.0650
1331.00,0.0650
1330.00,0.0650
1329.00,0.0650
1328.00,0.0650
1327.00,0.0650
1326.00,0.0651
1325.00,0.0651
1324.00,0.0651
1323.00,0.0651
1322.00,0.0650
1321.00,0.0650
1320.00,0.0650
1319.00,0.0651
1318.00,0.0652
1317.00,0.0653
1316.00,0.0653
1315.00,0.0653
1314.00,0.0653
1313.00,0.0654
1312.00,0.0654
1311.00,0.0654
1310.00,0.0654
1309.00,0.0654
1308.00,0.0655
1307.00,0.0655
1306.00,0.0655
1305.00,0.0656
1304.00,0.0657
1303.00,0.0657
1302.00,0.0658
1301.00,0.0658
1300.00,0.0659
1299.00,0.0660
1298.00,0.0661
1297.00,0.0661
1296.00,0.0662
1295.00,0.0663
1294.00,0.0663
1293.00,0.0664
1292.00,0.0665
1291.00,0.0666
1290.00,0.0667
1289.00,0.0668
1288.00,0.0670
1287.00,0.0671
1286.00,0.0672
1285.00,0.0672
1284.00,0.0672
1283.00,0.0673
1282.00,0.0673
1281.00,0.0674
1280.00,0.0675
1279.00,0.0676
1278.00,0.0677
1277.00,0.0678
1276.00,0.0678
1275.00,0.0679
1274.00,0.0680
1273.00,0.0681
1272.00,0.0682
1271.00,0.0682
1270.00,0.0683
1269.00,0.0683
1268.00,0.0684
1267.00,0.0684
1266.00,0.0684
1265.00,0.0684
1264.00,0.0684
1263.00,0.0684
1262.00,0.0685
1261.00,0.0686
1260.00,0.0687
1259.00,0.0688
1258.00,0.0689
1257.00,0.0690
1256.00,0.0691
1255.00,0.0692
1254.00,0.0693
1253.00,0.0694
1252.00,0.0695
1251.00,0.0696
1250.00,0.0696
1249.00,0.0696
1248.00,0.0696
1247.00,0.0697
1246.00,0.0697
1245.00,0.0698
1244.00,0.0698
1243.00,0.0699
1242.00,0.0699
1241.00,0.0699
1240.00,0.0699
1239.00,0.0700
1238.00,0.0700
1237.00,0.0700
1236.00,0.0700
1235.00,0.0700
1234.00,0.0699
1233.00,0.0699
1232.00,0.0699
1231.00,0.0700
1230.00,0.0700
1229.00,0.0700
1228.00,0.0700
1227.00,0.0699
1226.00,0.0699
1225.00,0.0699
1224.00,0.0699
1223.00,0.0699
1222.00,0.0699
1221.00,0.0698
1220.00,0.0698
1219.00,0.0697
1218.00,0.0696
1217.00,0.0696
1216.00,0.0696
1215.00,0.0696
1214.00,0.0696
1213.00,0.0696
1212.00,0.0696
1211.00,0.0696
1210.00,0.0695
1209.00,0.0694
1208.00,0.0694
1207.00,0.0693
1206.00,0.0693
1205.00,0.0693
1204.00,0.0693
1203.00,0.0693
1202.00,0.0692
1201.00,0.0691
1200.00,0.0691
1199.00,0.0690
1198.00,0.0690
1197.00,0.0690
1196.00,0.0690
1195.00,0.0690
1194.00,0.0689
1193.00,0.0689
1192.00,0.0689
1191.00,0.0689
1190.00,0.0689
1189.00,0.0689
1188.00,0.0689
1187.00,0.0689
1186.00,0.0689
1185.00,0.0688
1184.00,0.0688
1183.00,0.0688
1182.00,0.0687
1181.00,0.0686
1180.00,0.0685
1179.00,0.0686
1178.00,0.0686
1177.00,0.0685
1176.00,0.0685
1175.00,0.0685
1174.00,0.0685
1173.00,0.0685
1172.00,0.0684
1171.00,0.0683
1170.00,0.0682
1169.00,0.0682
1168.00,0.0683
1167.00,0.0684
1166.00,0.0684
1165.00,0.0683
1164.00,0.0682
1163.00,0.0681
1162.00,0.0681
1161.00,0.0680
1160.00,0.0680
1159.00,0.0680
1158.00,0.0679
1157.00,0.0678
1156.00,0.0677
1155.00,0.0677
1154.00,0.0676
1153.00,0.0676
1152.00,0.0676
1151.00,0.0675
1150.00,0.0674
1149.00,0.0673
1148.00,0.0673
1147.00,0.0673
1146.00,0.0672
1145.00,0.0672
1144.00,0.0670
1143.00,0.0669
1142.00,0.0667
1141.00,0.0665
1140.00,0.0664
1139.00,0.0664
1138.00,0.0664
1137.00,0.0663
1136.00,0.0663
1135.00,0.0663
1134.00,0.0663
1133.00,0.0662
1132.00,0.0661
1131.00,0.0660
1130.00,0.0659
1129.00,0.0658
1128.00,0.0658
1127.00,0.0658
1126.00,0.0657
1125.00,0.0657
1124.00,0.0656
1123.00,0.0654
1122.00,0.0653
1121.00,0.0652
1120.00,0.0651
1119.00,0.0652
1118.00,0.0652
1117.00,0.0652
1116.00,0.0651
1115.00,0.0650
1114.00,0.0648
1113.00,0.0647
1112.00,0.0646
1111.00,0.0645
1110.00,0.0645
1109.00,0.0644
1108.00,0.0644
1107.00,0.0643
1106.00,0.0643
1105.00,0.0642
1104.00,0.0642
1103.00,0.0642
1102.00,0.0642
1101.00,0.0642
1100.00,0.0642
1099.00,0.0641
1098.00,0.0641
1097.00,0.0640
1096.00,0.0640
1095.00,0.0639
1094.00,0.0639
1093.00,0.0641
1092.00,0.0642
1091.00,0.0643
1090.00,0.0642
1089.00,0.0641
1088.00,0.0641
1087.00,0.0641
1086.00,0.0641
1085.00,0.0640
1084.00,0.0640
1083.00,0.0640
1082.00,0.0640
1081.00,0.0640
1080.00,0.0639
1079.00,0.0639
1078.00,0.0639
1077.00,0.0639
1076.00,0.0640
1075.00,0.0640
1074.00,0.0639
1073.00,0.0639
1072.00,0.0639
1071.00,0.0639
1070.00,0.0640
1069.00,0.0640
1068.00,0.0640
1067.00,0.0640
1066.00,0.0640
1065.00,0.0639
1064.00,0.0638
1063.00,0.0638
1062.00,0.0637
1061.00,0.0637
1060.00,0.0638
1059.00,0.0638
1058.00,0.0638
1057.00,0.0637
1056.00,0.0636
1055.00,0.0635
1054.00,0.0635
1053.00,0.0636
1052.00,0.0638
1051.00,0.0639
1050.00,0.0639
1049.00,0.0639
1048.00,0.0639
1047.00,0.0639
1046.00,0.0639
1045.00,0.0638
1044.00,0.0637
1043.00,0.0636
1042.00,0.0635
1041.00,0.0635
1040.00,0.0635
1039.00,0.0635
1038.00,0.0635
1037.00,0.0635
1036.00,0.0634
1035.00,0.0634
1034.00,0.0633
1033.00,0.0633
1032.00,0.0632
1031.00,0.0631
1030.00,0.0630
1029.00,0.0629
1028.00,0.0629
1027.00,0.0629
1026.00,0.0628
1025.00,0.0628
1024.00,0.0628
1023.00,0.0628
1022.00,0.0628
1021.00,0.0628
1020.00,0.0628
1019.00,0.0628
1018.00,0.0627
1017.00,0.0627
1016.00,0.0627
1015.00,0.0628
1014.00,0.0628
1013.00,0.0628
1012.00,0.0628
1011.00,0.0627
1010.00,0.0627
1009.00,0.0626
1008.00,0.0626
1007.00,0.0626
1006.00,0.0626
1005.00,0.0627
1004.00,0.0627
1003.00,0.0628
1002.00,0.0628
1001.00,0.0627
1000.00,0.0626
999.00,0.0624
998.00,0.0623
997.00,0.0622
996.00,0.0621
995.00,0.0620
994.00,0.0620
993.00,0.0621
992.00,0.0621
991.00,0.0621
990.00,0.0621
989.00,0.0620
988.00,0.0619
987.00,0.0618
986.00,0.0619
985.00,0.0619
984.00,0.0618
983.00,0.0618
982.00,0.0617
981.00,0.0617
980.00,0.0617
979.00,0.0616
978.00,0.0616
977.00,0.0615
976.00,0.0615
975.00,0.0615
974.00,0.0615
973.00,0.0615
972.00,0.0614
971.00,0.0614
970.00,0.0614
969.00,0.0614
968.00,0.0614
967.00,0.0613
966.00,0.0612
965.00,0.0611
964.00,0.0610
963.00,0.0610
962.00,0.0609
961.00,0.0609
960.00,0.0609
959.00,0.0609
958.00,0.0609
957.00,0.0609
956.00,0.0609
955.00,0.0610
954.00,0.0610
953.00,0.0610
952.00,0.0610
951.00,0.0609
950.00,0.0608
949.00,0.0607
948.00,0.0607
947.00,0.0607
946.00,0.0608
945.00,0.0608
944.00,0.0608
943.00,0.0608
942.00,0.0607
941.00,0.0607
940.00,0.0607
939.00,0.0607
938.00,0.0607
937.00,0.0607
936.00,0.0607
935.00,0.0608
934.00,0.0608
933.00,0.0608
932.00,0.0608
931.00,0.0606
930.00,0.0606
929.00,0.0606
928.00,0.0606
927.00,0.0607
926.00,0.0608
925.00,0.0609
924.00,0.0610
923.00,0.0611
922.00,0.0611
921.00,0.0611
920.00,0.0611
919.00,0.0611
918.00,0.0612
917.00,0.0612
916.00,0.0612
915.00,0.0612
914.00,0.0612
913.00,0.0613
912.00,0.0614
911.00,0.0616
910.00,0.0617
909.00,0.0617
908.00,0.0618
907.00,0.0617
906.00,0.0616
905.00,0.0616
904.00,0.0616
903.00,0.0616
902.00,0.0617
901.00,0.0618
900.00,0.0618
899.00,0.0618
898.00,0.0619
897.00,0.0619
896.00,0.0620
895.00,0.0621
894.00,0.0622
893.00,0.0623
892.00,0.0624
891.00,0.0625
890.00,0.0626
889.00,0.0626
888.00,0.0626
887.00,0.0626
886.00,0.0627
885.00,0.0627
884.00,0.0627
883.00,0.0627
882.00,0.0629
881.00,0.0631
880.00,0.0633
879.00,0.0633
878.00,0.0631
877.00,0.0630
876.00,0.0631
875.00,0.0632
874.00,0.0632
873.00,0.0631
872.00,0.0629
871.00,0.0628
870.00,0.0628
869.00,0.0629
868.00,0.0630
867.00,0.0631
866.00,0.0632
865.00,0.0632
864.00,0.0633
863.00,0.0634
862.00,0.0634
861.00,0.0635
860.00,0.0637
859.00,0.0638
858.00,0.0637
857.00,0.0636
856.00,0.0635
855.00,0.0636
854.00,0.0638
853.00,0.0640
852.00,0.0641
851.00,0.0642
850.00,0.0643
849.00,0.0645
848.00,0.0647
847.00,0.0648
846.00,0.0650
845.00,0.0652
844.00,0.0653
843.00,0.0654
842.00,0.0655
841.00,0.0655
840.00,0.0656
839.00,0.0658
838.00,0.0660
837.00,0.0662
836.00,0.0664
835.00,0.0666
834.00,0.0667
833.00,0.0668
832.00,0.0669
831.00,0.0670
830.00,0.0670
829.00,0.0670
828.00,0.0670
827.00,0.0670
826.00,0.0669
825.00,0.0669
824.00,0.0669
823.00,0.0670
822.00,0.0673
821.00,0.0675
820.00,0.0678
819.00,0.0679
818.00,0.0679
817.00,0.0677
816.00,0.0676
815.00,0.0675
814.00,0.0675
813.00,0.0675
812.00,0.0676
811.00,0.0678
810.00,0.0680
809.00,0.0682
808.00,0.0683
807.00,0.0683
806.00,0.0682
805.00,0.0681
804.00,0.0680
803.00,0.0680
802.00,0.0682
801.00,0.0685
800.00,0.0687
799.00,0.0687
798.00,0.0686
797.00,0.0687
796.00,0.0688
795.00,0.0689
794.00,0.0690
793.00,0.0691
792.00,0.0692
791.00,0.0693
790.00,0.0694
789.00,0.0696
788.00,0.0697
787.00,0.0698
786.00,0.0700
785.00,0.0702
784.00,0.0705
783.00,0.0707
782.00,0.0708
781.00,0.0708
780.00,0.0708
779.00,0.0708
778.00,0.0709
777.00,0.0710
776.00,0.0712
775.00,0.0713
774.00,0.0714
773.00,0.0716
772.00,0.0718
771.00,0.0719
770.00,0.0720
769.00,0.0720
768.00,0.0719
767.00,0.0719
766.00,0.0719
765.00,0.0720
764.00,0.0722
763.00,0.0723
762.00,0.0723
761.00,0.0725
760.00,0.0727
759.00,0.0730
758.00,0.0733
757.00,0.0735
756.00,0.0737
755.00,0.0738
754.00,0.0737
753.00,0.0736
752.00,0.0735
751.00,0.0736
750.00,0.0737
749.00,0.0739
748.00,0.0741
747.00,0.0742
746.00,0.0741
745.00,0.0739
744.00,0.0738
743.00,0.0738
742.00,0.0737
741.00,0.0736
740.00,0.0736
739.00,0.0736
738.00,0.0736
737.00,0.0738
736.00,0.0739
735.00,0.0740
734.00,0.0740
733.00,0.0740
732.00,0.0740
731.00,0.0741
730.00,0.0742
729.00,0.0742
728.00,0.0741
727.00,0.0740
726.00,0.0741
725.00,0.0743
724.00,0.0745
723.00,0.0747
722.00,0.0748
721.00,0.0749
720.00,0.0749
719.00,0.0750
718.00,0.0750
717.00,0.0750
716.00,0.0750
715.00,0.0750
714.00,0.0752
713.00,0.0755
712.00,0.0760
711.00,0.0762
710.00,0.0762
709.00,0.0760
708.00,0.0760
707.00,0.0762
706.00,0.0765
705.00,0.0768
704.00,0.0770
703.00,0.0769
702.00,0.0766
701.00,0.0763
700.00,0.0763
699.00,0.0765
698.00,0.0768
697.00,0.0771
696.00,0.0772
695.00,0.0771
694.00,0.0768
693.00,0.0765
692.00,0.0765
691.00,0.0770
690.00,0.0775
689.00,0.0778
688.00,0.0779
687.00,0.0780
686.00,0.0780
685.00,0.0779
684.00,0.0778
683.00,0.0777
682.00,0.0777
681.00,0.0778
680.00,0.0780
679.00,0.0782
678.00,0.0785
677.00,0.0789
676.00,0.0793
675.00,0.0796
674.00,0.0796
673.00,0.0793
672.00,0.0790
671.00,0.0787
670.00,0.0787
669.00,0.0794
668.00,0.0810
667.00,0.0820
666.00,0.0819
665.00,0.0815
664.00,0.0810
663.00,0.0803
662.00,0.0798
661.00,0.0798
660.00,0.0805
659.00,0.0815
658.00,0.0820
657.00,0.0819
656.00,0.0814
655.00,0.0812
654.00,0.0812
653.00,0.0813
652.00,0.0813
651.00,0.0813
650.00,0.0812
