Created as New Dataset,
cm-1,A
4000.00,0.0096
3999.00,0.0096
3998.00,0.0096
3997.00,0.0096
3996.00,0.0097
3995.00,0.0097
3994.00,0.0097
3993.00,0.0097
3992.00,0.0097
3991.00,0.0096
3990.00,0.0096
3989.00,0.0096
3988.00,0.0096
3987.00,0.0097
3986.00,0.0097
3985.00,0.0097
3984.00,0.0097
3983.00,0.0096
3982.00,0.0096
3981.00,0.0097
3980.00,0.0097
3979.00,0.0097
3978.00,0.0097
3977.00,0.0097
3976.00,0.0098
3975.00,0.0098
3974.00,0.0098
3973.00,0.0098
3972.00,0.0098
3971.00,0.0097
3970.00,0.0097
3969.00,0.0096
3968.00,0.0096
3967.00,0.0096
3966.00,0.0096
3965.00,0.0097
3964.00,0.0097
3963.00,0.0097
3962.00,0.0097
3961.00,0.0097
3960.00,0.0097
3959.00,0.0097
3958.00,0.0097
3957.00,0.0097
3956.00,0.0097
3955.00,0.0097
3954.00,0.0097
3953.00,0.0097
3952.00,0.0098
3951.00,0.0098
3950.00,0.0098
3949.00,0.0099
3948.00,0.0099
3947.00,0.0099
3946.00,0.0100
3945.00,0.0101
3944.00,0.0101
3943.00,0.0100
3942.00,0.0099
3941.00,0.0099
3940.00,0.0099
3939.00,0.0098
3938.00,0.0097
3937.00,0.0097
3936.00,0.0097
3935.00,0.0098
3934.00,0.0099
3933.00,0.0099
3932.00,0.0099
3931.00,0.0100
3930.00,0.0100
3929.00,0.0101
3928.00,0.0101
3927.00,0.0102
3926.00,0.0102
3925.00,0.0101
3924.00,0.0100
3923.00,0.0100
3922.00,0.0101
3921.00,0.0100
3920.00,0.0099
3919.00,0.0099
3918.00,0.0099
3917.00,0.0099
3916.00,0.0098
3915.00,0.0098
3914.00,0.0098
3913.00,0.0097
3912.00,0.0096
3911.00,0.0096
3910.00,0.0096
3909.00,0.0097
3908.00,0.0099
3907.00,0.0100
3906.00,0.0101
3905.00,0.0101
3904.00,0.0101
3903.00,0.0103
3902.00,0.0106
3901.00,0.0107
3900.00,0.0106
3899.00,0.0104
3898.00,0.0102
3897.00,0.0101
3896.00,0.0100
3895.00,0.0100
3894.00,0.0101
3893.00,0.0100
3892.00,0.0099
3891.00,0.0097
3890.00,0.0097
3889.00,0.0099
3888.00,0.0101
3887.00,0.0101
3886.00,0.0099
3885.00,0.0099
3884.00,0.0102
3883.00,0.0106
3882.00,0.0107
3881.00,0.0105
3880.00,0.0101
3879.00,0.0100
3878.00,0.0101
3877.00,0.0102
3876.00,0.0103
3875.00,0.0101
3874.00,0.0099
3873.00,0.0100
3872.00,0.0103
3871.00,0.0103
3870.00,0.0101
3869.00,0.0100
3868.00,0.0102
3867.00,0.0104
3866.00,0.0104
3865.00,0.0102
3864.00,0.0100
3863.00,0.0100
3862.00,0.0100
3861.00,0.0100
3860.00,0.0098
3859.00,0.0097
3858.00,0.0096
3857.00,0.0098
3856.00,0.0100
3855.00,0.0101
3854.00,0.0099
3853.00,0.0099
3852.00,0.0100
3851.00,0.0102
3850.00,0.0101
3849.00,0.0099
3848.00,0.0096
3847.00,0.0095
3846.00,0.0095
3845.00,0.0095
3844.00,0.0095
3843.00,0.0096
3842.00,0.0097
3841.00,0.0099
3840.00,0.0101
3839.00,0.0101
3838.00,0.0101
3837.00,0.0101
3836.00,0.0102
3835.00,0.0102
3834.00,0.0101
3833.00,0.0100
3832.00,0.0098
3831.00,0.0096
3830.00,0.0096
3829.00,0.0098
3828.00,0.0098
3827.00,0.0096
3826.00,0.0095
3825.00,0.0095
3824.00,0.0098
3823.00,0.0100
3822.00,0.0099
3821.00,0.0096
3820.00,0.0096
3819.00,0.0099
3818.00,0.0101
3817.00,0.0099
3816.00,0.0095
3815.00,0.0093
3814.00,0.0094
3813.00,0.0095
3812.00,0.0094
3811.00,0.0092
3810.00,0.0091
3809.00,0.0092
3808.00,0.0091
3807.00,0.0089
3806.00,0.0089
3805.00,0.0093
3804.00,0.0097
3803.00,0.0098
3802.00,0.0096
3801.00,0.0095
3800.00,0.0097
3799.00,0.0099
3798.00,0.0100
3797.00,0.0097
3796.00,0.0093
3795.00,0.0092
3794.00,0.0092
3793.00,0.0093
3792.00,0.0092
3791.00,0.0091
3790.00,0.0091
3789.00,0.0091
3788.00,0.0091
3787.00,0.0091
3786.00,0.0091
3785.00,0.0091
3784.00,0.0091
3783.00,0.0091
3782.00,0.0093
3781.00,0.0093
3780.00,0.0092
3779.00,0.0090
3778.00,0.0090
3777.00,0.0091
3776.00,0.0091
3775.00,0.0090
3774.00,0.0089
3773.00,0.0089
3772.00,0.0090
3771.00,0.0090
3770.00,0.0089
3769.00,0.0090
3768.00,0.0093
3767.00,0.0094
3766.00,0.0093
3765.00,0.0091
3764.00,0.0091
3763.00,0.0092
3762.00,0.0093
3761.00,0.0094
3760.00,0.0093
3759.00,0.0092
3758.00,0.0092
3757.00,0.0092
3756.00,0.0092
3755.00,0.0093
3754.00,0.0092
3753.00,0.0091
3752.00,0.0088
3751.00,0.0089
3750.00,0.0090
3749.00,0.0092
3748.00,0.0094
3747.00,0.0097
3746.00,0.0099
3745.00,0.0096
3744.00,0.0092
3743.00,0.0092
3742.00,0.0093
3741.00,0.0093
3740.00,0.0091
3739.00,0.0090
3738.00,0.0091
3737.00,0.0092
3736.00,0.0093
3735.00,0.0095
3734.00,0.0097
3733.00,0.0097
3732.00,0.0095
3731.00,0.0092
3730.00,0.0091
3729.00,0.0092
3728.00,0.0092
3727.00,0.0091
3726.00,0.0091
3725.00,0.0093
3724.00,0.0095
3723.00,0.0096
3722.00,0.0095
3721.00,0.0094
3720.00,0.0094
3719.00,0.0094
3718.00,0.0093
3717.00,0.0092
3716.00,0.0092
3715.00,0.0094
3714.00,0.0095
3713.00,0.0096
3712.00,0.0096
3711.00,0.0099
3710.00,0.0101
3709.00,0.0103
3708.00,0.0103
3707.00,0.0102
3706.00,0.0101
3705.00,0.0102
3704.00,0.0104
3703.00,0.0106
3702.00,0.0107
3701.00,0.0107
3700.00,0.0108
3699.00,0.0109
3698.00,0.0110
3697.00,0.0109
3696.00,0.0109
3695.00,0.0109
3694.00,0.0110
3693.00,0.0111
3692.00,0.0112
3691.00,0.0112
3690.00,0.0113
3689.00,0.0114
3688.00,0.0114
3687.00,0.0114
3686.00,0.0113
3685.00,0.0112
3684.00,0.0110
3683.00,0.0108
3682.00,0.0107
3681.00,0.0107
3680.00,0.0106
3679.00,0.0107
3678.00,0.0111
3677.00,0.0115
3676.00,0.0116
3675.00,0.0117
3674.00,0.0119
3673.00,0.0121
3672.00,0.0122
3671.00,0.0121
3670.00,0.0119
3669.00,0.0120
3668.00,0.0122
3667.00,0.0123
3666.00,0.0122
3665.00,0.0121
3664.00,0.0120
3663.00,0.0120
3662.00,0.0121
3661.00,0.0121
3660.00,0.0123
3659.00,0.0125
3658.00,0.0128
3657.00,0.0131
3656.00,0.0133
3655.00,0.0135
3654.00,0.0139
3653.00,0.0143
3652.00,0.0144
3651.00,0.0144
3650.00,0.0147
3649.00,0.0155
3648.00,0.0162
3647.00,0.0164
3646.00,0.0162
3645.00,0.0159
3644.00,0.0157
3643.00,0.0155
3642.00,0.0154
3641.00,0.0153
3640.00,0.0154
3639.00,0.0155
3638.00,0.0156
3637.00,0.0158
3636.00,0.0160
3635.00,0.0160
3634.00,0.0160
3633.00,0.0160
3632.00,0.0162
3631.00,0.0167
3630.00,0.0171
3629.00,0.0176
3628.00,0.0180
3627.00,0.0184
3626.00,0.0185
3625.00,0.0184
3624.00,0.0183
3623.00,0.0184
3622.00,0.0187
3621.00,0.0192
3620.00,0.0196
3619.00,0.0199
3618.00,0.0200
3617.00,0.0201
3616.00,0.0200
3615.00,0.0198
3614.00,0.0196
3613.00,0.0194
3612.00,0.0195
3611.00,0.0196
3610.00,0.0198
3609.00,0.0199
3608.00,0.0200
3607.00,0.0202
3606.00,0.0202
3605.00,0.0203
3604.00,0.0203
3603.00,0.0203
3602.00,0.0203
3601.00,0.0204
3600.00,0.0205
3599.00,0.0207
3598.00,0.0208
3597.00,0.0210
3596.00,0.0211
3595.00,0.0212
3594.00,0.0213
3593.00,0.0213
3592.00,0.0213
3591.00,0.0214
3590.00,0.0215
3589.00,0.0218
3588.00,0.0221
3587.00,0.0225
3586.00,0.0228
3585.00,0.0229
3584.00,0.0228
3583.00,0.0227
3582.00,0.0226
3581.00,0.0225
3580.00,0.0226
3579.00,0.0227
3578.00,0.0228
3577.00,0.0229
3576.00,0.0230
3575.00,0.0230
3574.00,0.0230
3573.00,0.0230
3572.00,0.0231
3571.00,0.0232
3570.00,0.0234
3569.00,0.0238
3568.00,0.0242
3567.00,0.0247
3566.00,0.0250
3565.00,0.0252
3564.00,0.0251
3563.00,0.0249
3562.00,0.0248
3561.00,0.0247
3560.00,0.0246
3559.00,0.0246
3558.00,0.0246
3557.00,0.0246
3556.00,0.0246
3555.00,0.0247
3554.00,0.0248
3553.00,0.0250
3552.00,0.0252
3551.00,0.0253
3550.00,0.0255
3549.00,0.0256
3548.00,0.0257
3547.00,0.0258
3546.00,0.0261
3545.00,0.0262
3544.00,0.0263
3543.00,0.0263
3542.00,0.0263
3541.00,0.0262
3540.00,0.0263
3539.00,0.0264
3538.00,0.0264
3537.00,0.0265
3536.00,0.0266
3535.00,0.0267
3534.00,0.0267
3533.00,0.0267
3532.00,0.0267
3531.00,0.0268
3530.00,0.0270
3529.00,0.0271
3528.00,0.0273
3527.00,0.0274
3526.00,0.0276
3525.00,0.0277
3524.00,0.0278
3523.00,0.0279
3522.00,0.0280
3521.00,0.0280
3520.00,0.0281
3519.00,0.0281
3518.00,0.0282
3517.00,0.0282
3516.00,0.0283
3515.00,0.0283
3514.00,0.0284
3513.00,0.0284
3512.00,0.0286
3511.00,0.0287
3510.00,0.0289
3509.00,0.0290
3508.00,0.0291
3507.00,0.0292
3506.00,0.0292
3505.00,0.0293
3504.00,0.0293
3503.00,0.0295
3502.00,0.0297
3501.00,0.0298
3500.00,0.0298
3499.00,0.0298
3498.00,0.0298
3497.00,0.0298
3496.00,0.0298
3495.00,0.0299
3494.00,0.0300
3493.00,0.0300
3492.00,0.0301
3491.00,0.0301
3490.00,0.0301
3489.00,0.0302
3488.00,0.0304
3487.00,0.0305
3486.00,0.0307
3485.00,0.0308
3484.00,0.0309
3483.00,0.0310
3482.00,0.0311
3481.00,0.0312
3480.00,0.0313
3479.00,0.0314
3478.00,0.0314
3477.00,0.0314
3476.00,0.0315
3475.00,0.0315
3474.00,0.0316
3473.00,0.0317
3472.00,0.0318
3471.00,0.0319
3470.00,0.0320
3469.00,0.0321
3468.00,0.0321
3467.00,0.0322
3466.00,0.0323
3465.00,0.0323
3464.00,0.0324
3463.00,0.0324
3462.00,0.0325
3461.00,0.0325
3460.00,0.0326
3459.00,0.0326
3458.00,0.0326
3457.00,0.0327
3456.00,0.0328
3455.00,0.0329
3454.00,0.0330
3453.00,0.0331
3452.00,0.0332
3451.00,0.0332
3450.00,0.0333
3449.00,0.0333
3448.00,0.0334
3447.00,0.0335
3446.00,0.0336
3445.00,0.0337
3444.00,0.0337
3443.00,0.0337
3442.00,0.0338
3441.00,0.0338
3440.00,0.0338
3439.00,0.0338
3438.00,0.0338
3437.00,0.0339
3436.00,0.0339
3435.00,0.0340
3434.00,0.0342
3433.00,0.0342
3432.00,0.0343
3431.00,0.0344
3430.00,0.0344
3429.00,0.0344
3428.00,0.0345
3427.00,0.0346
3426.00,0.0347
3425.00,0.0347
3424.00,0.0348
3423.00,0.0348
3422.00,0.0349
3421.00,0.0350
3420.00,0.0351
3419.00,0.0352
3418.00,0.0352
3417.00,0.0352
3416.00,0.0352
3415.00,0.0353
3414.00,0.0354
3413.00,0.0355
3412.00,0.0355
3411.00,0.0356
3410.00,0.0356
3409.00,0.0356
3408.00,0.0356
3407.00,0.0357
3406.00,0.0358
3405.00,0.0359
3404.00,0.0360
3403.00,0.0360
3402.00,0.0360
3401.00,0.0360
3400.00,0.0360
3399.00,0.0361
3398.00,0.0361
3397.00,0.0362
3396.00,0.0362
3395.00,0.0362
3394.00,0.0363
3393.00,0.0363
3392.00,0.0364
3391.00,0.0364
3390.00,0.0364
3389.00,0.0364
3388.00,0.0365
3387.00,0.0365
3386.00,0.0366
3385.00,0.0367
3384.00,0.0368
3383.00,0.0367
3382.00,0.0367
3381.00,0.0367
3380.00,0.0367
3379.00,0.0367
3378.00,0.0368
3377.00,0.0369
3376.00,0.0369
3375.00,0.0370
3374.00,0.0371
3373.00,0.0371
3372.00,0.0371
3371.00,0.0371
3370.00,0.0371
3369.00,0.0371
3368.00,0.0372
3367.00,0.0372
3366.00,0.0372
3365.00,0.0373
3364.00,0.0373
3363.00,0.0374
3362.00,0.0375
3361.00,0.0375
3360.00,0.0375
3359.00,0.0375
3358.00,0.0375
3357.00,0.0376
3356.00,0.0376
3355.00,0.0376
3354.00,0.0377
3353.00,0.0377
3352.00,0.0377
3351.00,0.0377
3350.00,0.0377
3349.00,0.0376
3348.00,0.0376
3347.00,0.0376
3346.00,0.0376
3345.00,0.0376
3344.00,0.0377
3343.00,0.0377
3342.00,0.0377
3341.00,0.0378
3340.00,0.0378
3339.00,0.0379
3338.00,0.0379
3337.00,0.0380
3336.00,0.0380
3335.00,0.0381
3334.00,0.0381
3333.00,0.0381
3332.00,0.0380
3331.00,0.0380
3330.00,0.0380
3329.00,0.0380
3328.00,0.0381
3327.00,0.0381
3326.00,0.0381
3325.00,0.0382
3324.00,0.0382
3323.00,0.0382
3322.00,0.0382
3321.00,0.0382
3320.00,0.0381
3319.00,0.0381
3318.00,0.0381
3317.00,0.0381
3316.00,0.0381
3315.00,0.0382
3314.00,0.0382
3313.00,0.0382
3312.00,0.0382
3311.00,0.0383
3310.00,0.0383
3309.00,0.0383
3308.00,0.0383
3307.00,0.0383
3306.00,0.0383
3305.00,0.0384
3304.00,0.0384
3303.00,0.0384
3302.00,0.0384
3301.00,0.0384
3300.00,0.0383
3299.00,0.0383
3298.00,0.0383
3297.00,0.0384
3296.00,0.0384
3295.00,0.0384
3294.00,0.0384
3293.00,0.0384
3292.00,0.0384
3291.00,0.0384
3290.00,0.0384
3289.00,0.0384
3288.00,0.0385
3287.00,0.0385
3286.00,0.0386
3285.00,0.0386
3284.00,0.0386
3283.00,0.0386
3282.00,0.0386
3281.00,0.0385
3280.00,0.0385
3279.00,0.0385
3278.00,0.0385
3277.00,0.0385
3276.00,0.0386
3275.00,0.0386
3274.00,0.0387
3273.00,0.0387
3272.00,0.0387
3271.00,0.0387
3270.00,0.0387
3269.00,0.0387
3268.00,0.0387
3267.00,0.0387
3266.00,0.0387
3265.00,0.0387
3264.00,0.0387
3263.00,0.0387
3262.00,0.0387
3261.00,0.0387
3260.00,0.0387
3259.00,0.0387
3258.00,0.0388
3257.00,0.0388
3256.00,0.0389
3255.00,0.0389
3254.00,0.0389
3253.00,0.0388
3252.00,0.0388
3251.00,0.0388
3250.00,0.0388
3249.00,0.0388
3248.00,0.0389
3247.00,0.0389
3246.00,0.0390
3245.00,0.0390
3244.00,0.0390
3243.00,0.0390
3242.00,0.0390
3241.00,0.0389
3240.00,0.0389
3239.00,0.0390
3238.00,0.0390
3237.00,0.0390
3236.00,0.0390
3235.00,0.0390
3234.00,0.0390
3233.00,0.0390
3232.00,0.0391
3231.00,0.0391
3230.00,0.0392
3229.00,0.0392
3228.00,0.0391
3227.00,0.0391
3226.00,0.0391
3225.00,0.0391
3224.00,0.0390
3223.00,0.0390
3222.00,0.0391
3221.00,0.0391
3220.00,0.0390
3219.00,0.0390
3218.00,0.0390
3217.00,0.0390
3216.00,0.0389
3215.00,0.0390
3214.00,0.0390
3213.00,0.0390
3212.00,0.0390
3211.00,0.0390
3210.00,0.0390
3209.00,0.0390
3208.00,0.0390
3207.00,0.0390
3206.00,0.0390
3205.00,0.0390
3204.00,0.0390
3203.00,0.0390
3202.00,0.0390
3201.00,0.0390
3200.00,0.0390
3199.00,0.0390
3198.00,0.0390
3197.00,0.0390
3196.00,0.0389
3195.00,0.0389
3194.00,0.0388
3193.00,0.0388
3192.00,0.0387
3191.00,0.0387
3190.00,0.0387
3189.00,0.0387
3188.00,0.0387
3187.00,0.0387
3186.00,0.0387
3185.00,0.0387
3184.00,0.0388
3183.00,0.0388
3182.00,0.0388
3181.00,0.0387
3180.00,0.0387
3179.00,0.0386
3178.00,0.0386
3177.00,0.0385
3176.00,0.0385
3175.00,0.0385
3174.00,0.0385
3173.00,0.0384
3172.00,0.0384
3171.00,0.0384
3170.00,0.0384
3169.00,0.0384
3168.00,0.0384
3167.00,0.0383
3166.00,0.0383
3165.00,0.0383
3164.00,0.0383
3163.00,0.0383
3162.00,0.0382
3161.00,0.0382
3160.00,0.0382
3159.00,0.0382
3158.00,0.0382
3157.00,0.0381
3156.00,0.0380
3155.00,0.0380
3154.00,0.0379
3153.00,0.0379
3152.00,0.0379
3151.00,0.0379
3150.00,0.0378
3149.00,0.0378
3148.00,0.0378
3147.00,0.0378
3146.00,0.0378
3145.00,0.0378
3144.00,0.0378
3143.00,0.0378
3142.00,0.0377
3141.00,0.0377
3140.00,0.0376
3139.00,0.0376
3138.00,0.0375
3137.00,0.0375
3136.00,0.0375
3135.00,0.0374
3134.00,0.0374
3133.00,0.0373
3132.00,0.0373
3131.00,0.0374
3130.00,0.0374
3129.00,0.0374
3128.00,0.0374
3127.00,0.0373
3126.00,0.0373
3125.00,0.0373
3124.00,0.0373
3123.00,0.0373
3122.00,0.0372
3121.00,0.0372
3120.00,0.0372
3119.00,0.0371
3118.00,0.0371
3117.00,0.0371
3116.00,0.0371
3115.00,0.0371
3114.00,0.0371
3113.00,0.0371
3112.00,0.0370
3111.00,0.0370
3110.00,0.0369
3109.00,0.0369
3108.00,0.0368
3107.00,0.0368
3106.00,0.0368
3105.00,0.0368
3104.00,0.0368
3103.00,0.0367
3102.00,0.0367
3101.00,0.0367
3100.00,0.0366
3099.00,0.0366
3098.00,0.0366
3097.00,0.0366
3096.00,0.0366
3095.00,0.0366
3094.00,0.0366
3093.00,0.0365
3092.00,0.0365
3091.00,0.0364
3090.00,0.0364
3089.00,0.0364
3088.00,0.0364
3087.00,0.0364
3086.00,0.0364
3085.00,0.0364
3084.00,0.0363
3083.00,0.0363
3082.00,0.0363
3081.00,0.0363
3080.00,0.0363
3079.00,0.0362
3078.00,0.0362
3077.00,0.0362
3076.00,0.0361
3075.00,0.0361
3074.00,0.0360
3073.00,0.0360
3072.00,0.0360
3071.00,0.0360
3070.00,0.0360
3069.00,0.0359
3068.00,0.0359
3067.00,0.0358
3066.00,0.0358
3065.00,0.0358
3064.00,0.0358
3063.00,0.0358
3062.00,0.0358
3061.00,0.0357
3060.00,0.0356
3059.00,0.0356
3058.00,0.0355
3057.00,0.0355
3056.00,0.0355
3055.00,0.0356
3054.00,0.0355
3053.00,0.0355
3052.00,0.0354
3051.00,0.0354
3050.00,0.0353
3049.00,0.0352
3048.00,0.0352
3047.00,0.0351
3046.00,0.0351
3045.00,0.0351
3044.00,0.0351
3043.00,0.0350
3042.00,0.0350
3041.00,0.0350
3040.00,0.0349
3039.00,0.0349
3038.00,0.0349
3037.00,0.0348
3036.00,0.0348
3035.00,0.0348
3034.00,0.0348
3033.00,0.0347
3032.00,0.0347
3031.00,0.0346
3030.00,0.0346
3029.00,0.0345
3028.00,0.0344
3027.00,0.0344
3026.00,0.0343
3025.00,0.0343
3024.00,0.0342
3023.00,0.0342
3022.00,0.0342
3021.00,0.0341
3020.00,0.0341
3019.00,0.0341
3018.00,0.0340
3017.00,0.0340
3016.00,0.0340
3015.00,0.0340
3014.00,0.0340
3013.00,0.0339
3012.00,0.0339
3011.00,0.0339
3010.00,0.0338
3009.00,0.0337
3008.00,0.0337
3007.00,0.0336
3006.00,0.0335
3005.00,0.0335
3004.00,0.0334
3003.00,0.0333
3002.00,0.0332
3001.00,0.0331
3000.00,0.0331
2999.00,0.0330
2998.00,0.0329
2997.00,0.0329
2996.00,0.0329
2995.00,0.0328
2994.00,0.0328
2993.00,0.0328
2992.00,0.0327
2991.00,0.0326
2990.00,0.0326
2989.00,0.0325
2988.00,0.0324
2987.00,0.0324
2986.00,0.0323
2985.00,0.0322
2984.00,0.0322
2983.00,0.0321
2982.00,0.0320
2981.00,0.0319
2980.00,0.0319
2979.00,0.0319
2978.00,0.0319
2977.00,0.0319
2976.00,0.0319
2975.00,0.0319
2974.00,0.0319
2973.00,0.0318
2972.00,0.0317
2971.00,0.0317
2970.00,0.0316
2969.00,0.0316
2968.00,0.0315
2967.00,0.0315
2966.00,0.0315
2965.00,0.0314
2964.00,0.0314
2963.00,0.0314
2962.00,0.0314
2961.00,0.0314
2960.00,0.0313
2959.00,0.0313
2958.00,0.0313
2957.00,0.0313
2956.00,0.0313
2955.00,0.0312
2954.00,0.0312
2953.00,0.0313
2952.00,0.0314
2951.00,0.0314
2950.00,0.0314
2949.00,0.0314
2948.00,0.0314
2947.00,0.0314
2946.00,0.0314
2945.00,0.0314
2944.00,0.0314
2943.00,0.0314
2942.00,0.0314
2941.00,0.0313
2940.00,0.0312
2939.00,0.0311
2938.00,0.0311
2937.00,0.0310
2936.00,0.0310
2935.00,0.0310
2934.00,0.0309
2933.00,0.0308
2932.00,0.0308
2931.00,0.0307
2930.00,0.0306
2929.00,0.0305
2928.00,0.0304
2927.00,0.0303
2926.00,0.0303
2925.00,0.0302
2924.00,0.0302
2923.00,0.0302
2922.00,0.0303
2921.00,0.0303
2920.00,0.0303
2919.00,0.0302
2918.00,0.0301
2917.00,0.0301
2916.00,0.0300
2915.00,0.0301
2914.00,0.0302
2913.00,0.0303
2912.00,0.0303
2911.00,0.0303
2910.00,0.0303
2909.00,0.0303
2908.00,0.0303
2907.00,0.0303
2906.00,0.0302
2905.00,0.0302
2904.00,0.0302
2903.00,0.0302
2902.00,0.0302
2901.00,0.0302
2900.00,0.0302
2899.00,0.0301
2898.00,0.0301
2897.00,0.0300
2896.00,0.0300
2895.00,0.0300
2894.00,0.0299
2893.00,0.0299
2892.00,0.0299
2891.00,0.0299
2890.00,0.0299
2889.00,0.0299
2888.00,0.0299
2887.00,0.0299
2886.00,0.0298
2885.00,0.0298
2884.00,0.0298
2883.00,0.0298
2882.00,0.0298
2881.00,0.0298
2880.00,0.0297
2879.00,0.0297
2878.00,0.0296
2877.00,0.0296
2876.00,0.0295
2875.00,0.0294
2874.00,0.0293
2873.00,0.0292
2872.00,0.0292
2871.00,0.0291
2870.00,0.0291
2869.00,0.0291
2868.00,0.0291
2867.00,0.0290
2866.00,0.0290
2865.00,0.0289
2864.00,0.0289
2863.00,0.0288
2862.00,0.0288
2861.00,0.0288
2860.00,0.0288
2859.00,0.0288
2858.00,0.0287
2857.00,0.0287
2856.00,0.0287
2855.00,0.0287
2854.00,0.0287
2853.00,0.0287
2852.00,0.0286
2851.00,0.0285
2850.00,0.0285
2849.00,0.0284
2848.00,0.0284
2847.00,0.0284
2846.00,0.0284
2845.00,0.0285
2844.00,0.0285
2843.00,0.0285
2842.00,0.0285
2841.00,0.0285
2840.00,0.0285
2839.00,0.0285
2838.00,0.0285
2837.00,0.0285
2836.00,0.0284
2835.00,0.0283
2834.00,0.0283
2833.00,0.0282
2832.00,0.0282
2831.00,0.0282
2830.00,0.0282
2829.00,0.0282
2828.00,0.0281
2827.00,0.0281
2826.00,0.0281
2825.00,0.0280
2824.00,0.0280
2823.00,0.0279
2822.00,0.0279
2821.00,0.0279
2820.00,0.0279
2819.00,0.0279
2818.00,0.0279
2817.00,0.0278
2816.00,0.0277
2815.00,0.0277
2814.00,0.0276
2813.00,0.0276
2812.00,0.0275
2811.00,0.0275
2810.00,0.0275
2809.00,0.0275
2808.00,0.0274
2807.00,0.0274
2806.00,0.0273
2805.00,0.0273
2804.00,0.0273
2803.00,0.0273
2802.00,0.0272
2801.00,0.0272
2800.00,0.0272
2799.00,0.0271
2798.00,0.0271
2797.00,0.0271
2796.00,0.0270
2795.00,0.0270
2794.00,0.0270
2793.00,0.0269
2792.00,0.0269
2791.00,0.0268
2790.00,0.0269
2789.00,0.0269
2788.00,0.0269
2787.00,0.0268
2786.00,0.0268
2785.00,0.0267
2784.00,0.0267
2783.00,0.0267
2782.00,0.0267
2781.00,0.0267
2780.00,0.0266
2779.00,0.0266
2778.00,0.0265
2777.00,0.0265
2776.00,0.0265
2775.00,0.0265
2774.00,0.0264
2773.00,0.0264
2772.00,0.0263
2771.00,0.0263
2770.00,0.0262
2769.00,0.0262
2768.00,0.0262
2767.00,0.0262
2766.00,0.0261
2765.00,0.0262
2764.00,0.0261
2763.00,0.0261
2762.00,0.0261
2761.00,0.0261
2760.00,0.0260
2759.00,0.0260
2758.00,0.0259
2757.00,0.0259
2756.00,0.0259
2755.00,0.0259
2754.00,0.0259
2753.00,0.0258
2752.00,0.0258
2751.00,0.0258
2750.00,0.0257
2749.00,0.0257
2748.00,0.0257
2747.00,0.0257
2746.00,0.0256
2745.00,0.0256
2744.00,0.0255
2743.00,0.0255
2742.00,0.0255
2741.00,0.0255
2740.00,0.0255
2739.00,0.0254
2738.00,0.0254
2737.00,0.0254
2736.00,0.0253
2735.00,0.0253
2734.00,0.0252
2733.00,0.0252
2732.00,0.0251
2731.00,0.0251
2730.00,0.0251
2729.00,0.0251
2728.00,0.0251
2727.00,0.0251
2726.00,0.0251
2725.00,0.0250
2724.00,0.0250
2723.00,0.0250
2722.00,0.0250
2721.00,0.0249
2720.00,0.0249
2719.00,0.0249
2718.00,0.0248
2717.00,0.0248
2716.00,0.0247
2715.00,0.0247
2714.00,0.0247
2713.00,0.0247
2712.00,0.0247
2711.00,0.0247
2710.00,0.0247
2709.00,0.0247
2708.00,0.0247
2707.00,0.0246
2706.00,0.0246
2705.00,0.0245
2704.00,0.0245
2703.00,0.0244
2702.00,0.0244
2701.00,0.0244
2700.00,0.0244
2699.00,0.0244
2698.00,0.0243
2697.00,0.0243
2696.00,0.0243
2695.00,0.0243
2694.00,0.0243
2693.00,0.0242
2692.00,0.0242
2691.00,0.0242
2690.00,0.0241
2689.00,0.0241
2688.00,0.0241
2687.00,0.0241
2686.00,0.0241
2685.00,0.0240
2684.00,0.0240
2683.00,0.0240
2682.00,0.0240
2681.00,0.0240
2680.00,0.0240
2679.00,0.0240
2678.00,0.0240
2677.00,0.0239
2676.00,0.0239
2675.00,0.0239
2674.00,0.0238
2673.00,0.0238
2672.00,0.0237
2671.00,0.0237
2670.00,0.0237
2669.00,0.0236
2668.00,0.0236
2667.00,0.0236
2666.00,0.0236
2665.00,0.0236
2664.00,0.0236
2663.00,0.0236
2662.00,0.0236
2661.00,0.0236
2660.00,0.0236
2659.00,0.0236
2658.00,0.0236
2657.00,0.0236
2656.00,0.0236
2655.00,0.0236
2654.00,0.0235
2653.00,0.0236
2652.00,0.0236
2651.00,0.0236
2650.00,0.0236
2649.00,0.0236
2648.00,0.0236
2647.00,0.0236
2646.00,0.0236
2645.00,0.0236
2644.00,0.0236
2643.00,0.0236
2642.00,0.0236
2641.00,0.0237
2640.00,0.0236
2639.00,0.0236
2638.00,0.0236
2637.00,0.0235
2636.00,0.0235
2635.00,0.0235
2634.00,0.0235
2633.00,0.0234
2632.00,0.0234
2631.00,0.0234
2630.00,0.0234
2629.00,0.0234
2628.00,0.0234
2627.00,0.0234
2626.00,0.0234
2625.00,0.0234
2624.00,0.0233
2623.00,0.0233
2622.00,0.0233
2621.00,0.0233
2620.00,0.0232
2619.00,0.0233
2618.00,0.0233
2617.00,0.0233
2616.00,0.0233
2615.00,0.0233
2614.00,0.0233
2613.00,0.0233
2612.00,0.0233
2611.00,0.0232
2610.00,0.0232
2609.00,0.0232
2608.00,0.0232
2607.00,0.0233
2606.00,0.0233
2605.00,0.0233
2604.00,0.0232
2603.00,0.0232
2602.00,0.0232
2601.00,0.0232
2600.00,0.0231
2599.00,0.0231
2598.00,0.0231
2597.00,0.0231
2596.00,0.0231
2595.00,0.0231
2594.00,0.0231
2593.00,0.0231
2592.00,0.0231
2591.00,0.0231
2590.00,0.0231
2589.00,0.0230
2588.00,0.0230
2587.00,0.0229
2586.00,0.0229
2585.00,0.0229
2584.00,0.0229
2583.00,0.0230
2582.00,0.0230
2581.00,0.0229
2580.00,0.0229
2579.00,0.0229
2578.00,0.0229
2577.00,0.0229
2576.00,0.0229
2575.00,0.0229
2574.00,0.0228
2573.00,0.0228
2572.00,0.0228
2571.00,0.0227
2570.00,0.0227
2569.00,0.0226
2568.00,0.0227
2567.00,0.0228
2566.00,0.0228
2565.00,0.0229
2564.00,0.0229
2563.00,0.0228
2562.00,0.0228
2561.00,0.0227
2560.00,0.0227
2559.00,0.0227
2558.00,0.0227
2557.00,0.0227
2556.00,0.0227
2555.00,0.0227
2554.00,0.0227
2553.00,0.0228
2552.00,0.0228
2551.00,0.0228
2550.00,0.0228
2549.00,0.0227
2548.00,0.0227
2547.00,0.0226
2546.00,0.0225
2545.00,0.0225
2544.00,0.0225
2543.00,0.0225
2542.00,0.0226
2541.00,0.0226
2540.00,0.0226
2539.00,0.0226
2538.00,0.0226
2537.00,0.0225
2536.00,0.0225
2535.00,0.0225
2534.00,0.0225
2533.00,0.0225
2532.00,0.0225
2531.00,0.0224
2530.00,0.0224
2529.00,0.0225
2528.00,0.0225
2527.00,0.0226
2526.00,0.0226
2525.00,0.0225
2524.00,0.0225
2523.00,0.0225
2522.00,0.0224
2521.00,0.0224
2520.00,0.0223
2519.00,0.0223
2518.00,0.0223
2517.00,0.0222
2516.00,0.0222
2515.00,0.0222
2514.00,0.0222
2513.00,0.0222
2512.00,0.0223
2511.00,0.0223
2510.00,0.0223
2509.00,0.0222
2508.00,0.0221
2507.00,0.0221
2506.00,0.0221
2505.00,0.0221
2504.00,0.0221
2503.00,0.0221
2502.00,0.0221
2501.00,0.0221
2500.00,0.0221
2499.00,0.0221
2498.00,0.0220
2497.00,0.0219
2496.00,0.0219
2495.00,0.0218
2494.00,0.0218
2493.00,0.0219
2492.00,0.0219
2491.00,0.0220
2490.00,0.0220
2489.00,0.0220
2488.00,0.0219
2487.00,0.0219
2486.00,0.0219
2485.00,0.0218
2484.00,0.0218
2483.00,0.0218
2482.00,0.0218
2481.00,0.0218
2480.00,0.0218
2479.00,0.0218
2478.00,0.0218
2477.00,0.0217
2476.00,0.0217
2475.00,0.0217
2474.00,0.0216
2473.00,0.0217
2472.00,0.0216
2471.00,0.0216
2470.00,0.0216
2469.00,0.0216
2468.00,0.0215
2467.00,0.0215
2466.00,0.0215
2465.00,0.0215
2464.00,0.0215
2463.00,0.0215
2462.00,0.0215
2461.00,0.0214
2460.00,0.0214
2459.00,0.0215
2458.00,0.0215
2457.00,0.0215
2456.00,0.0214
2455.00,0.0213
2454.00,0.0213
2453.00,0.0213
2452.00,0.0214
2451.00,0.0214
2450.00,0.0215
2449.00,0.0215
2448.00,0.0214
2447.00,0.0213
2446.00,0.0213
2445.00,0.0212
2444.00,0.0212
2443.00,0.0212
2442.00,0.0212
2441.00,0.0212
2440.00,0.0211
2439.00,0.0211
2438.00,0.0210
2437.00,0.0210
2436.00,0.0209
2435.00,0.0209
2434.00,0.0209
2433.00,0.0208
2432.00,0.0208
2431.00,0.0209
2430.00,0.0209
2429.00,0.0209
2428.00,0.0209
2427.00,0.0208
2426.00,0.0208
2425.00,0.0208
2424.00,0.0208
2423.00,0.0207
2422.00,0.0207
2421.00,0.0207
2420.00,0.0206
2419.00,0.0206
2418.00,0.0206
2417.00,0.0205
2416.00,0.0205
2415.00,0.0206
2414.00,0.0206
2413.00,0.0206
2412.00,0.0206
2411.00,0.0205
2410.00,0.0205
2409.00,0.0204
2408.00,0.0204
2407.00,0.0204
2406.00,0.0204
2405.00,0.0204
2404.00,0.0204
2403.00,0.0203
2402.00,0.0203
2401.00,0.0202
2400.00,0.0201
2399.00,0.0201
2398.00,0.0201
2397.00,0.0200
2396.00,0.0200
2395.00,0.0200
2394.00,0.0200
2393.00,0.0200
2392.00,0.0199
2391.00,0.0199
2390.00,0.0198
2389.00,0.0197
2388.00,0.0196
2387.00,0.0194
2386.00,0.0193
2385.00,0.0191
2384.00,0.0189
2383.00,0.0187
2382.00,0.0185
2381.00,0.0184
2380.00,0.0183
2379.00,0.0183
2378.00,0.0183
2377.00,0.0183
2376.00,0.0183
2375.00,0.0184
2374.00,0.0185
2373.00,0.0187
2372.00,0.0189
2371.00,0.0190
2370.00,0.0189
2369.00,0.0188
2368.00,0.0188
2367.00,0.0187
2366.00,0.0187
2365.00,0.0186
2364.00,0.0186
2363.00,0.0187
2362.00,0.0188
2361.00,0.0190
2360.00,0.0192
2359.00,0.0194
2358.00,0.0195
2357.00,0.0196
2356.00,0.0196
2355.00,0.0194
2354.00,0.0191
2353.00,0.0188
2352.00,0.0187
2351.00,0.0187
2350.00,0.0187
2349.00,0.0185
2348.00,0.0180
2347.00,0.0176
2346.00,0.0176
2345.00,0.0179
2344.00,0.0183
2343.00,0.0186
2342.00,0.0187
2341.00,0.0187
2340.00,0.0187
2339.00,0.0188
2338.00,0.0188
2337.00,0.0188
2336.00,0.0188
2335.00,0.0188
2334.00,0.0187
2333.00,0.0188
2332.00,0.0188
2331.00,0.0189
2330.00,0.0190
2329.00,0.0192
2328.00,0.0193
2327.00,0.0193
2326.00,0.0193
2325.00,0.0192
2324.00,0.0192
2323.00,0.0192
2322.00,0.0192
2321.00,0.0192
2320.00,0.0191
2319.00,0.0190
2318.00,0.0189
2317.00,0.0189
2316.00,0.0188
2315.00,0.0187
2314.00,0.0187
2313.00,0.0187
2312.00,0.0187
2311.00,0.0187
2310.00,0.0186
2309.00,0.0185
2308.00,0.0185
2307.00,0.0186
2306.00,0.0186
2305.00,0.0187
2304.00,0.0186
2303.00,0.0186
2302.00,0.0187
2301.00,0.0187
2300.00,0.0186
2299.00,0.0185
2298.00,0.0185
2297.00,0.0185
2296.00,0.0185
2295.00,0.0185
2294.00,0.0186
2293.00,0.0186
2292.00,0.0186
2291.00,0.0185
2290.00,0.0185
2289.00,0.0185
2288.00,0.0185
2287.00,0.0185
2286.00,0.0186
2285.00,0.0186
2284.00,0.0185
2283.00,0.0185
2282.00,0.0184
2281.00,0.0184
2280.00,0.0184
2279.00,0.0185
2278.00,0.0185
2277.00,0.0184
2276.00,0.0184
2275.00,0.0184
2274.00,0.0184
2273.00,0.0185
2272.00,0.0184
2271.00,0.0183
2270.00,0.0182
2269.00,0.0181
2268.00,0.0180
2267.00,0.0180
2266.00,0.0181
2265.00,0.0181
2264.00,0.0181
2263.00,0.0181
2262.00,0.0181
2261.00,0.0181
2260.00,0.0180
2259.00,0.0180
2258.00,0.0181
2257.00,0.0181
2256.00,0.0182
2255.00,0.0182
2254.00,0.0181
2253.00,0.0180
2252.00,0.0179
2251.00,0.0179
2250.00,0.0178
2249.00,0.0179
2248.00,0.0179
2247.00,0.0178
2246.00,0.0178
2245.00,0.0177
2244.00,0.0177
2243.00,0.0178
2242.00,0.0179
2241.00,0.0180
2240.00,0.0180
2239.00,0.0180
2238.00,0.0180
2237.00,0.0180
2236.00,0.0180
2235.00,0.0179
2234.00,0.0179
2233.00,0.0179
2232.00,0.0180
2231.00,0.0180
2230.00,0.0181
2229.00,0.0182
2228.00,0.0183
2227.00,0.0184
2226.00,0.0184
2225.00,0.0183
2224.00,0.0182
2223.00,0.0181
2222.00,0.0181
2221.00,0.0182
2220.00,0.0182
2219.00,0.0181
2218.00,0.0181
2217.00,0.0180
2216.00,0.0180
2215.00,0.0181
2214.00,0.0181
2213.00,0.0181
2212.00,0.0180
2211.00,0.0179
2210.00,0.0177
2209.00,0.0176
2208.00,0.0175
2207.00,0.0175
2206.00,0.0176
2205.00,0.0178
2204.00,0.0179
2203.00,0.0180
2202.00,0.0180
2201.00,0.0180
2200.00,0.0179
2199.00,0.0179
2198.00,0.0178
2197.00,0.0177
2196.00,0.0178
2195.00,0.0178
2194.00,0.0179
2193.00,0.0179
2192.00,0.0179
2191.00,0.0179
2190.00,0.0179
2189.00,0.0180
2188.00,0.0179
2187.00,0.0177
2186.00,0.0175
2185.00,0.0175
2184.00,0.0175
2183.00,0.0175
2182.00,0.0175
2181.00,0.0176
2180.00,0.0176
2179.00,0.0176
2178.00,0.0176
2177.00,0.0174
2176.00,0.0172
2175.00,0.0171
2174.00,0.0172
2173.00,0.0174
2172.00,0.0175
2171.00,0.0175
2170.00,0.0173
2169.00,0.0172
2168.00,0.0172
2167.00,0.0172
2166.00,0.0174
2165.00,0.0175
2164.00,0.0177
2163.00,0.0178
2162.00,0.0177
2161.00,0.0175
2160.00,0.0171
2159.00,0.0167
2158.00,0.0166
2157.00,0.0166
2156.00,0.0168
2155.00,0.0169
2154.00,0.0168
2153.00,0.0166
2152.00,0.0164
2151.00,0.0163
2150.00,0.0164
2149.00,0.0165
2148.00,0.0165
2147.00,0.0164
2146.00,0.0163
2145.00,0.0162
2144.00,0.0161
2143.00,0.0162
2142.00,0.0163
2141.00,0.0163
2140.00,0.0164
2139.00,0.0163
2138.00,0.0162
2137.00,0.0161
2136.00,0.0159
2135.00,0.0159
2134.00,0.0159
2133.00,0.0159
2132.00,0.0159
2131.00,0.0159
2130.00,0.0159
2129.00,0.0158
2128.00,0.0158
2127.00,0.0157
2126.00,0.0157
2125.00,0.0157
2124.00,0.0157
2123.00,0.0157
2122.00,0.0158
2121.00,0.0159
2120.00,0.0160
2119.00,0.0161
2118.00,0.0162
2117.00,0.0163
2116.00,0.0163
2115.00,0.0162
2114.00,0.0161
2113.00,0.0160
2112.00,0.0159
2111.00,0.0158
2110.00,0.0157
2109.00,0.0158
2108.00,0.0159
2107.00,0.0160
2106.00,0.0160
2105.00,0.0159
2104.00,0.0159
2103.00,0.0158
2102.00,0.0158
2101.00,0.0158
2100.00,0.0157
2099.00,0.0157
2098.00,0.0157
2097.00,0.0157
2096.00,0.0156
2095.00,0.0156
2094.00,0.0155
2093.00,0.0156
2092.00,0.0156
2091.00,0.0157
2090.00,0.0158
2089.00,0.0158
2088.00,0.0158
2087.00,0.0157
2086.00,0.0156
2085.00,0.0156
2084.00,0.0155
2083.00,0.0155
2082.00,0.0154
2081.00,0.0154
2080.00,0.0154
2079.00,0.0153
2078.00,0.0154
2077.00,0.0154
2076.00,0.0155
2075.00,0.0155
2074.00,0.0154
2073.00,0.0153
2072.00,0.0152
2071.00,0.0152
2070.00,0.0154
2069.00,0.0155
2068.00,0.0156
2067.00,0.0156
2066.00,0.0156
2065.00,0.0156
2064.00,0.0155
2063.00,0.0154
2062.00,0.0153
2061.00,0.0154
2060.00,0.0154
2059.00,0.0154
2058.00,0.0154
2057.00,0.0154
2056.00,0.0154
2055.00,0.0154
2054.00,0.0154
2053.00,0.0154
2052.00,0.0155
2051.00,0.0156
2050.00,0.0156
2049.00,0.0156
2048.00,0.0155
2047.00,0.0154
2046.00,0.0154
2045.00,0.0154
2044.00,0.0153
2043.00,0.0153
2042.00,0.0152
2041.00,0.0152
2040.00,0.0153
2039.00,0.0153
2038.00,0.0153
2037.00,0.0153
2036.00,0.0152
2035.00,0.0150
2034.00,0.0149
2033.00,0.0148
2032.00,0.0148
2031.00,0.0148
2030.00,0.0149
2029.00,0.0149
2028.00,0.0149
2027.00,0.0148
2026.00,0.0147
2025.00,0.0147
2024.00,0.0147
2023.00,0.0148
2022.00,0.0149
2021.00,0.0150
2020.00,0.0151
2019.00,0.0151
2018.00,0.0149
2017.00,0.0148
2016.00,0.0146
2015.00,0.0146
2014.00,0.0145
2013.00,0.0145
2012.00,0.0144
2011.00,0.0143
2010.00,0.0142
2009.00,0.0143
2008.00,0.0142
2007.00,0.0141
2006.00,0.0140
2005.00,0.0139
2004.00,0.0140
2003.00,0.0141
2002.00,0.0142
2001.00,0.0143
2000.00,0.0144
1999.00,0.0144
1998.00,0.0144
1997.00,0.0144
1996.00,0.0144
1995.00,0.0144
1994.00,0.0145
1993.00,0.0146
1992.00,0.0146
1991.00,0.0146
1990.00,0.0144
1989.00,0.0143
1988.00,0.0141
1987.00,0.0139
1986.00,0.0138
1985.00,0.0138
1984.00,0.0139
1983.00,0.0140
1982.00,0.0142
1981.00,0.0144
1980.00,0.0144
1979.00,0.0142
1978.00,0.0142
1977.00,0.0142
1976.00,0.0143
1975.00,0.0142
1974.00,0.0141
1973.00,0.0139
1972.00,0.0139
1971.00,0.0139
1970.00,0.0139
1969.00,0.0140
1968.00,0.0139
1967.00,0.0137
1966.00,0.0135
1965.00,0.0134
1964.00,0.0134
1963.00,0.0135
1962.00,0.0136
1961.00,0.0136
1960.00,0.0136
1959.00,0.0134
1958.00,0.0133
1957.00,0.0131
1956.00,0.0128
1955.00,0.0126
1954.00,0.0126
1953.00,0.0127
1952.00,0.0128
1951.00,0.0128
1950.00,0.0127
1949.00,0.0126
1948.00,0.0126
1947.00,0.0127
1946.00,0.0128
1945.00,0.0128
1944.00,0.0128
1943.00,0.0126
1942.00,0.0125
1941.00,0.0124
1940.00,0.0124
1939.00,0.0124
1938.00,0.0123
1937.00,0.0123
1936.00,0.0122
1935.00,0.0122
1934.00,0.0122
1933.00,0.0122
1932.00,0.0122
1931.00,0.0122
1930.00,0.0122
1929.00,0.0122
1928.00,0.0121
1927.00,0.0120
1926.00,0.0121
1925.00,0.0122
1924.00,0.0123
1923.00,0.0122
1922.00,0.0120
1921.00,0.0120
1920.00,0.0120
1919.00,0.0119
1918.00,0.0117
1917.00,0.0115
1916.00,0.0115
1915.00,0.0115
1914.00,0.0115
1913.00,0.0114
1912.00,0.0115
1911.00,0.0115
1910.00,0.0115
1909.00,0.0115
1908.00,0.0114
1907.00,0.0113
1906.00,0.0113
1905.00,0.0112
1904.00,0.0112
1903.00,0.0111
1902.00,0.0111
1901.00,0.0110
1900.00,0.0110
1899.00,0.0109
1898.00,0.0110
1897.00,0.0110
1896.00,0.0111
1895.00,0.0110
1894.00,0.0110
1893.00,0.0110
1892.00,0.0111
1891.00,0.0110
1890.00,0.0108
1889.00,0.0107
1888.00,0.0106
1887.00,0.0105
1886.00,0.0105
1885.00,0.0105
1884.00,0.0104
1883.00,0.0103
1882.00,0.0103
1881.00,0.0103
1880.00,0.0103
1879.00,0.0102
1878.00,0.0102
1877.00,0.0101
1876.00,0.0101
1875.00,0.0101
1874.00,0.0102
1873.00,0.0103
1872.00,0.0105
1871.00,0.0106
1870.00,0.0103
1869.00,0.0100
1868.00,0.0097
1867.00,0.0095
1866.00,0.0095
1865.00,0.0096
1864.00,0.0096
1863.00,0.0096
1862.00,0.0095
1861.00,0.0095
1860.00,0.0095
1859.00,0.0094
1858.00,0.0094
1857.00,0.0094
1856.00,0.0094
1855.00,0.0094
1854.00,0.0093
1853.00,0.0092
1852.00,0.0092
1851.00,0.0091
1850.00,0.0091
1849.00,0.0091
1848.00,0.0091
1847.00,0.0092
1846.00,0.0092
1845.00,0.0090
1844.00,0.0086
1843.00,0.0084
1842.00,0.0084
1841.00,0.0086
1840.00,0.0087
1839.00,0.0087
1838.00,0.0086
1837.00,0.0086
1836.00,0.0086
1835.00,0.0086
1834.00,0.0087
1833.00,0.0089
1832.00,0.0091
1831.00,0.0090
1830.00,0.0088
1829.00,0.0086
1828.00,0.0086
1827.00,0.0087
1826.00,0.0086
1825.00,0.0084
1824.00,0.0082
1823.00,0.0081
1822.00,0.0081
1821.00,0.0081
1820.00,0.0081
1819.00,0.0081
1818.00,0.0080
1817.00,0.0079
1816.00,0.0080
1815.00,0.0080
1814.00,0.0081
1813.00,0.0081
1812.00,0.0081
1811.00,0.0080
1810.00,0.0079
1809.00,0.0078
1808.00,0.0078
1807.00,0.0078
1806.00,0.0079
1805.00,0.0081
1804.00,0.0083
1803.00,0.0084
1802.00,0.0084
1801.00,0.0083
1800.00,0.0083
1799.00,0.0082
1798.00,0.0083
1797.00,0.0084
1796.00,0.0086
1795.00,0.0088
1794.00,0.0088
1793.00,0.0087
1792.00,0.0086
1791.00,0.0085
1790.00,0.0086
1789.00,0.0088
1788.00,0.0090
1787.00,0.0091
1786.00,0.0092
1785.00,0.0092
1784.00,0.0094
1783.00,0.0097
1782.00,0.0099
1781.00,0.0100
1780.00,0.0101
1779.00,0.0102
1778.00,0.0104
1777.00,0.0106
1776.00,0.0110
1775.00,0.0114
1774.00,0.0116
1773.00,0.0115
1772.00,0.0114
1771.00,0.0114
1770.00,0.0116
1769.00,0.0117
1768.00,0.0119
1767.00,0.0120
1766.00,0.0122
1765.00,0.0126
1764.00,0.0130
1763.00,0.0133
1762.00,0.0133
1761.00,0.0133
1760.00,0.0135
1759.00,0.0138
1758.00,0.0140
1757.00,0.0141
1756.00,0.0141
1755.00,0.0144
1754.00,0.0147
1753.00,0.0150
1752.00,0.0152
1751.00,0.0154
1750.00,0.0157
1749.00,0.0160
1748.00,0.0163
1747.00,0.0167
1746.00,0.0170
1745.00,0.0173
1744.00,0.0176
1743.00,0.0180
1742.00,0.0183
1741.00,0.0185
1740.00,0.0187
1739.00,0.0189
1738.00,0.0192
1737.00,0.0198
1736.00,0.0202
1735.00,0.0202
1734.00,0.0202
1733.00,0.0205
1732.00,0.0209
1731.00,0.0214
1730.00,0.0218
1729.00,0.0221
1728.00,0.0223
1727.00,0.0226
1726.00,0.0229
1725.00,0.0232
1724.00,0.0235
1723.00,0.0237
1722.00,0.0240
1721.00,0.0245
1720.00,0.0249
1719.00,0.0250
1718.00,0.0248
1717.00,0.0248
1716.00,0.0250
1715.00,0.0252
1714.00,0.0255
1713.00,0.0258
1712.00,0.0259
1711.00,0.0261
1710.00,0.0262
1709.00,0.0265
1708.00,0.0268
1707.00,0.0271
1706.00,0.0272
1705.00,0.0274
1704.00,0.0276
1703.00,0.0280
1702.00,0.0282
1701.00,0.0282
1700.00,0.0279
1699.00,0.0278
1698.00,0.0280
1697.00,0.0285
1696.00,0.0286
1695.00,0.0284
1694.00,0.0283
1693.00,0.0285
1692.00,0.0289
1691.00,0.0291
1690.00,0.0292
1689.00,0.0294
1688.00,0.0298
1687.00,0.0302
1686.00,0.0305
1685.00,0.0305
1684.00,0.0306
1683.00,0.0308
1682.00,0.0310
1681.00,0.0312
1680.00,0.0314
1679.00,0.0316
1678.00,0.0318
1677.00,0.0320
1676.00,0.0321
1675.00,0.0323
1674.00,0.0326
1673.00,0.0329
1672.00,0.0333
1671.00,0.0336
1670.00,0.0339
1669.00,0.0343
1668.00,0.0345
1667.00,0.0347
1666.00,0.0349
1665.00,0.0351
1664.00,0.0353
1663.00,0.0355
1662.00,0.0358
1661.00,0.0361
1660.00,0.0363
1659.00,0.0365
1658.00,0.0368
1657.00,0.0371
1656.00,0.0376
1655.00,0.0380
1654.00,0.0384
1653.00,0.0391
1652.00,0.0392
1651.00,0.0391
1650.00,0.0394
1649.00,0.0397
1648.00,0.0399
1647.00,0.0402
1646.00,0.0406
1645.00,0.0408
1644.00,0.0410
1643.00,0.0412
1642.00,0.0415
1641.00,0.0417
1640.00,0.0419
1639.00,0.0421
1638.00,0.0424
1637.00,0.0428
1636.00,0.0434
1635.00,0.0440
1634.00,0.0441
1633.00,0.0442
1632.00,0.0443
1631.00,0.0445
1630.00,0.0448
1629.00,0.0452
1628.00,0.0456
1627.00,0.0459
1626.00,0.0461
1625.00,0.0464
1624.00,0.0466
1623.00,0.0470
1622.00,0.0473
1621.00,0.0474
1620.00,0.0475
1619.00,0.0476
1618.00,0.0477
1617.00,0.0480
1616.00,0.0483
1615.00,0.0485
1614.00,0.0487
1613.00,0.0489
1612.00,0.0490
1611.00,0.0491
1610.00,0.0493
1609.00,0.0496
1608.00,0.0499
1607.00,0.0502
1606.00,0.0504
1605.00,0.0506
1604.00,0.0507
1603.00,0.0509
1602.00,0.0511
1601.00,0.0513
1600.00,0.0514
1599.00,0.0515
1598.00,0.0517
1597.00,0.0518
1596.00,0.0519
1595.00,0.0521
1594.00,0.0522
1593.00,0.0523
1592.00,0.0524
1591.00,0.0525
1590.00,0.0527
1589.00,0.0528
1588.00,0.0528
1587.00,0.0529
1586.00,0.0529
1585.00,0.0530
1584.00,0.0530
1583.00,0.0531
1582.00,0.0532
1581.00,0.0533
1580.00,0.0533
1579.00,0.0534
1578.00,0.0535
1577.00,0.0535
1576.00,0.0537
1575.00,0.0538
1574.00,0.0537
1573.00,0.0536
1572.00,0.0536
1571.00,0.0535
1570.00,0.0536
1569.00,0.0537
1568.00,0.0537
1567.00,0.0536
1566.00,0.0535
1565.00,0.0534
1564.00,0.0534
1563.00,0.0534
1562.00,0.0534
1561.00,0.0533
1560.00,0.0530
1559.00,0.0534
1558.00,0.0538
1557.00,0.0534
1556.00,0.0528
1555.00,0.0525
1554.00,0.0522
1553.00,0.0519
1552.00,0.0518
1551.00,0.0517
1550.00,0.0516
1549.00,0.0514
1548.00,0.0511
1547.00,0.0508
1546.00,0.0505
1545.00,0.0502
1544.00,0.0500
1543.00,0.0497
1542.00,0.0493
1541.00,0.0490
1540.00,0.0493
1539.00,0.0495
1538.00,0.0490
1537.00,0.0486
1536.00,0.0483
1535.00,0.0481
1534.00,0.0480
1533.00,0.0479
1532.00,0.0478
1531.00,0.0474
1530.00,0.0471
1529.00,0.0468
1528.00,0.0466
1527.00,0.0463
1526.00,0.0460
1525.00,0.0458
1524.00,0.0456
1523.00,0.0453
1522.00,0.0450
1521.00,0.0449
1520.00,0.0449
1519.00,0.0449
1518.00,0.0449
1517.00,0.0448
1516.00,0.0445
1515.00,0.0441
1514.00,0.0437
1513.00,0.0433
1512.00,0.0432
1511.00,0.0432
1510.00,0.0433
1509.00,0.0434
1508.00,0.0434
1507.00,0.0434
1506.00,0.0430
1505.00,0.0423
1504.00,0.0418
1503.00,0.0416
1502.00,0.0415
1501.00,0.0413
1500.00,0.0411
1499.00,0.0408
1498.00,0.0405
1497.00,0.0404
1496.00,0.0406
1495.00,0.0407
1494.00,0.0407
1493.00,0.0408
1492.00,0.0408
1491.00,0.0409
1490.00,0.0411
1489.00,0.0413
1488.00,0.0415
1487.00,0.0414
1486.00,0.0412
1485.00,0.0410
1484.00,0.0409
1483.00,0.0408
1482.00,0.0408
1481.00,0.0409
1480.00,0.0410
1479.00,0.0411
1478.00,0.0411
1477.00,0.0412
1476.00,0.0413
1475.00,0.0413
1474.00,0.0413
1473.00,0.0414
1472.00,0.0417
1471.00,0.0418
1470.00,0.0418
1469.00,0.0418
1468.00,0.0419
1467.00,0.0420
1466.00,0.0420
1465.00,0.0421
1464.00,0.0422
1463.00,0.0422
1462.00,0.0422
1461.00,0.0423
1460.00,0.0424
1459.00,0.0424
1458.00,0.0422
1457.00,0.0424
1456.00,0.0426
1455.00,0.0427
1454.00,0.0428
1453.00,0.0430
1452.00,0.0431
1451.00,0.0433
1450.00,0.0435
1449.00,0.0437
1448.00,0.0439
1447.00,0.0440
1446.00,0.0440
1445.00,0.0439
1444.00,0.0440
1443.00,0.0441
1442.00,0.0442
1441.00,0.0442
1440.00,0.0442
1439.00,0.0443
1438.00,0.0443
1437.00,0.0445
1436.00,0.0448
1435.00,0.0450
1434.00,0.0450
1433.00,0.0451
1432.00,0.0452
1431.00,0.0454
1430.00,0.0455
1429.00,0.0456
1428.00,0.0457
1427.00,0.0457
1426.00,0.0457
1425.00,0.0458
1424.00,0.0459
1423.00,0.0461
1422.00,0.0461
1421.00,0.0462
1420.00,0.0463
1419.00,0.0466
1418.00,0.0469
1417.00,0.0470
1416.00,0.0470
1415.00,0.0470
1414.00,0.0469
1413.00,0.0469
1412.00,0.0470
1411.00,0.0471
1410.00,0.0471
1409.00,0.0471
1408.00,0.0471
1407.00,0.0472
1406.00,0.0474
1405.00,0.0475
1404.00,0.0477
1403.00,0.0478
1402.00,0.0478
1401.00,0.0478
1400.00,0.0479
1399.00,0.0481
1398.00,0.0483
1397.00,0.0484
1396.00,0.0486
1395.00,0.0487
1394.00,0.0488
1393.00,0.0488
1392.00,0.0488
1391.00,0.0488
1390.00,0.0488
1389.00,0.0489
1388.00,0.0491
1387.00,0.0494
1386.00,0.0496
1385.00,0.0497
1384.00,0.0497
1383.00,0.0498
1382.00,0.0498
1381.00,0.0499
1380.00,0.0499
1379.00,0.0500
1378.00,0.0501
1377.00,0.0502
1376.00,0.0503
1375.00,0.0505
1374.00,0.0507
1373.00,0.0507
1372.00,0.0506
1371.00,0.0505
1370.00,0.0505
1369.00,0.0506
1368.00,0.0506
1367.00,0.0505
1366.00,0.0504
1365.00,0.0503
1364.00,0.0504
1363.00,0.0505
1362.00,0.0506
1361.00,0.0507
1360.00,0.0506
1359.00,0.0505
1358.00,0.0503
1357.00,0.0502
1356.00,0.0500
1355.00,0.0500
1354.00,0.0499
1353.00,0.0498
1352.00,0.0497
1351.00,0.0496
1350.00,0.0495
1349.00,0.0494
1348.00,0.0494
1347.00,0.0494
1346.00,0.0493
1345.00,0.0492
1344.00,0.0491
1343.00,0.0490
1342.00,0.0489
1341.00,0.0490
1340.00,0.0491
1339.00,0.0491
1338.00,0.0491
1337.00,0.0490
1336.00,0.0488
1335.00,0.0486
1334.00,0.0485
1333.00,0.0484
1332.00,0.0484
1331.00,0.0483
1330.00,0.0483
1329.00,0.0482
1328.00,0.0481
1327.00,0.0480
1326.00,0.0480
1325.00,0.0480
1324.00,0.0479
1323.00,0.0479
1322.00,0.0478
1321.00,0.0478
1320.00,0.0477
1319.00,0.0477
1318.00,0.0478
1317.00,0.0478
1316.00,0.0478
1315.00,0.0478
1314.00,0.0478
1313.00,0.0478
1312.00,0.0478
1311.00,0.0477
1310.00,0.0477
1309.00,0.0476
1308.00,0.0476
1307.00,0.0476
1306.00,0.0475
1305.00,0.0475
1304.00,0.0475
1303.00,0.0475
1302.00,0.0476
1301.00,0.0476
1300.00,0.0476
1299.00,0.0476
1298.00,0.0475
1297.00,0.0475
1296.00,0.0475
1295.00,0.0476
1294.00,0.0476
1293.00,0.0476
1292.00,0.0476
1291.00,0.0476
1290.00,0.0476
1289.00,0.0477
1288.00,0.0478
1287.00,0.0479
1286.00,0.0479
1285.00,0.0479
1284.00,0.0479
1283.00,0.0479
1282.00,0.0480
1281.00,0.0480
1280.00,0.0481
1279.00,0.0481
1278.00,0.0482
1277.00,0.0482
1276.00,0.0482
1275.00,0.0482
1274.00,0.0482
1273.00,0.0483
1272.00,0.0483
1271.00,0.0483
1270.00,0.0483
1269.00,0.0483
1268.00,0.0484
1267.00,0.0484
1266.00,0.0484
1265.00,0.0483
1264.00,0.0483
1263.00,0.0482
1262.00,0.0483
1261.00,0.0483
1260.00,0.0485
1259.00,0.0486
1258.00,0.0487
1257.00,0.0487
1256.00,0.0488
1255.00,0.0488
1254.00,0.0488
1253.00,0.0489
1252.00,0.0490
1251.00,0.0491
1250.00,0.0492
1249.00,0.0493
1248.00,0.0493
1247.00,0.0493
1246.00,0.0494
1245.00,0.0494
1244.00,0.0495
1243.00,0.0495
1242.00,0.0496
1241.00,0.0496
1240.00,0.0495
1239.00,0.0495
1238.00,0.0495
1237.00,0.0496
1236.00,0.0496
1235.00,0.0496
1234.00,0.0496
1233.00,0.0495
1232.00,0.0495
1231.00,0.0495
1230.00,0.0495
1229.00,0.0496
1228.00,0.0496
1227.00,0.0495
1226.00,0.0495
1225.00,0.0495
1224.00,0.0495
1223.00,0.0495
1222.00,0.0495
1221.00,0.0495
1220.00,0.0495
1219.00,0.0494
1218.00,0.0493
1217.00,0.0492
1216.00,0.0491
1215.00,0.0491
1214.00,0.0490
1213.00,0.0490
1212.00,0.0489
1211.00,0.0489
1210.00,0.0489
1209.00,0.0489
1208.00,0.0489
1207.00,0.0489
1206.00,0.0489
1205.00,0.0489
1204.00,0.0488
1203.00,0.0487
1202.00,0.0486
1201.00,0.0485
1200.00,0.0486
1199.00,0.0486
1198.00,0.0486
1197.00,0.0486
1196.00,0.0485
1195.00,0.0485
1194.00,0.0486
1193.00,0.0486
1192.00,0.0486
1191.00,0.0486
1190.00,0.0485
1189.00,0.0485
1188.00,0.0485
1187.00,0.0485
1186.00,0.0485
1185.00,0.0485
1184.00,0.0485
1183.00,0.0485
1182.00,0.0484
1181.00,0.0484
1180.00,0.0484
1179.00,0.0484
1178.00,0.0484
1177.00,0.0485
1176.00,0.0485
1175.00,0.0486
1174.00,0.0486
1173.00,0.0485
1172.00,0.0484
1171.00,0.0484
1170.00,0.0485
1169.00,0.0485
1168.00,0.0486
1167.00,0.0487
1166.00,0.0487
1165.00,0.0487
1164.00,0.0487
1163.00,0.0486
1162.00,0.0486
1161.00,0.0485
1160.00,0.0485
1159.00,0.0485
1158.00,0.0484
1157.00,0.0484
1156.00,0.0483
1155.00,0.0483
1154.00,0.0483
1153.00,0.0484
1152.00,0.0483
1151.00,0.0483
1150.00,0.0482
1149.00,0.0482
1148.00,0.0483
1147.00,0.0484
1146.00,0.0485
1145.00,0.0486
1144.00,0.0486
1143.00,0.0485
1142.00,0.0484
1141.00,0.0484
1140.00,0.0485
1139.00,0.0486
1138.00,0.0487
1137.00,0.0487
1136.00,0.0487
1135.00,0.0487
1134.00,0.0488
1133.00,0.0490
1132.00,0.0492
1131.00,0.0493
1130.00,0.0494
1129.00,0.0494
1128.00,0.0494
1127.00,0.0496
1126.00,0.0498
1125.00,0.0500
1124.00,0.0502
1123.00,0.0503
1122.00,0.0504
1121.00,0.0505
1120.00,0.0508
1119.00,0.0511
1118.00,0.0514
1117.00,0.0516
1116.00,0.0517
1115.00,0.0517
1114.00,0.0518
1113.00,0.0518
1112.00,0.0518
1111.00,0.0518
1110.00,0.0520
1109.00,0.0522
1108.00,0.0524
1107.00,0.0526
1106.00,0.0528
1105.00,0.0530
1104.00,0.0531
1103.00,0.0533
1102.00,0.0534
1101.00,0.0535
1100.00,0.0536
1099.00,0.0538
1098.00,0.0539
1097.00,0.0540
1096.00,0.0541
1095.00,0.0542
1094.00,0.0544
1093.00,0.0546
1092.00,0.0548
1091.00,0.0550
1090.00,0.0550
1089.00,0.0550
1088.00,0.0551
1087.00,0.0551
1086.00,0.0552
1085.00,0.0552
1084.00,0.0553
1083.00,0.0554
1082.00,0.0556
1081.00,0.0557
1080.00,0.0557
1079.00,0.0558
1078.00,0.0560
1077.00,0.0561
1076.00,0.0561
1075.00,0.0562
1074.00,0.0563
1073.00,0.0565
1072.00,0.0567
1071.00,0.0568
1070.00,0.0569
1069.00,0.0570
1068.00,0.0570
1067.00,0.0570
1066.00,0.0571
1065.00,0.0572
1064.00,0.0574
1063.00,0.0575
1062.00,0.0576
1061.00,0.0576
1060.00,0.0577
1059.00,0.0578
1058.00,0.0580
1057.00,0.0582
1056.00,0.0583
1055.00,0.0584
1054.00,0.0584
1053.00,0.0585
1052.00,0.0588
1051.00,0.0592
1050.00,0.0596
1049.00,0.0599
1048.00,0.0601
1047.00,0.0602
1046.00,0.0603
1045.00,0.0604
1044.00,0.0606
1043.00,0.0608
1042.00,0.0610
1041.00,0.0611
1040.00,0.0613
1039.00,0.0613
1038.00,0.0614
1037.00,0.0616
1036.00,0.0618
1035.00,0.0620
1034.00,0.0622
1033.00,0.0623
1032.00,0.0623
1031.00,0.0621
1030.00,0.0619
1029.00,0.0617
1028.00,0.0615
1027.00,0.0613
1026.00,0.0611
1025.00,0.0610
1024.00,0.0609
1023.00,0.0608
1022.00,0.0607
1021.00,0.0606
1020.00,0.0605
1019.00,0.0604
1018.00,0.0603
1017.00,0.0603
1016.00,0.0603
1015.00,0.0604
1014.00,0.0605
1013.00,0.0605
1012.00,0.0606
1011.00,0.0606
1010.00,0.0607
1009.00,0.0608
1008.00,0.0609
1007.00,0.0610
1006.00,0.0611
1005.00,0.0612
1004.00,0.0612
1003.00,0.0610
1002.00,0.0608
1001.00,0.0607
1000.00,0.0605
999.00,0.0603
998.00,0.0601
997.00,0.0599
996.00,0.0596
995.00,0.0592
994.00,0.0588
993.00,0.0586
992.00,0.0584
991.00,0.0582
990.00,0.0579
989.00,0.0576
988.00,0.0574
987.00,0.0572
986.00,0.0571
985.00,0.0570
984.00,0.0569
983.00,0.0567
982.00,0.0565
981.00,0.0562
980.00,0.0560
979.00,0.0557
978.00,0.0556
977.00,0.0555
976.00,0.0553
975.00,0.0552
974.00,0.0550
973.00,0.0548
972.00,0.0546
971.00,0.0544
970.00,0.0543
969.00,0.0543
968.00,0.0542
967.00,0.0541
966.00,0.0539
965.00,0.0538
964.00,0.0537
963.00,0.0536
962.00,0.0535
961.00,0.0534
960.00,0.0533
959.00,0.0532
958.00,0.0530
957.00,0.0528
956.00,0.0527
955.00,0.0527
954.00,0.0528
953.00,0.0529
952.00,0.0528
951.00,0.0527
950.00,0.0526
949.00,0.0526
948.00,0.0527
947.00,0.0528
946.00,0.0531
945.00,0.0532
944.00,0.0533
943.00,0.0533
942.00,0.0532
941.00,0.0532
940.00,0.0533
939.00,0.0534
938.00,0.0535
937.00,0.0535
936.00,0.0534
935.00,0.0533
934.00,0.0532
933.00,0.0532
932.00,0.0531
931.00,0.0532
930.00,0.0533
929.00,0.0534
928.00,0.0535
927.00,0.0536
926.00,0.0537
925.00,0.0537
924.00,0.0538
923.00,0.0540
922.00,0.0541
921.00,0.0542
920.00,0.0542
919.00,0.0544
918.00,0.0546
917.00,0.0550
916.00,0.0553
915.00,0.0555
914.00,0.0555
913.00,0.0555
912.00,0.0555
911.00,0.0555
910.00,0.0555
909.00,0.0555
908.00,0.0554
907.00,0.0552
906.00,0.0550
905.00,0.0547
904.00,0.0546
903.00,0.0545
902.00,0.0545
901.00,0.0545
900.00,0.0545
899.00,0.0544
898.00,0.0542
897.00,0.0541
896.00,0.0539
895.00,0.0539
894.00,0.0539
893.00,0.0539
892.00,0.0539
891.00,0.0539
890.00,0.0538
889.00,0.0537
888.00,0.0536
887.00,0.0536
886.00,0.0536
885.00,0.0535
884.00,0.0534
883.00,0.0533
882.00,0.0532
881.00,0.0533
880.00,0.0534
879.00,0.0534
878.00,0.0534
877.00,0.0532
876.00,0.0531
875.00,0.0530
874.00,0.0529
873.00,0.0529
872.00,0.0529
871.00,0.0529
870.00,0.0529
869.00,0.0529
868.00,0.0529
867.00,0.0529
866.00,0.0528
865.00,0.0527
864.00,0.0527
863.00,0.0528
862.00,0.0528
861.00,0.0528
860.00,0.0529
859.00,0.0530
858.00,0.0530
857.00,0.0529
856.00,0.0528
855.00,0.0529
854.00,0.0530
853.00,0.0532
852.00,0.0533
851.00,0.0534
850.00,0.0534
849.00,0.0534
848.00,0.0536
847.00,0.0537
846.00,0.0538
845.00,0.0539
844.00,0.0540
843.00,0.0541
842.00,0.0541
841.00,0.0541
840.00,0.0543
839.00,0.0545
838.00,0.0547
837.00,0.0550
836.00,0.0551
835.00,0.0551
834.00,0.0551
833.00,0.0551
832.00,0.0552
831.00,0.0554
830.00,0.0556
829.00,0.0558
828.00,0.0559
827.00,0.0560
826.00,0.0559
825.00,0.0559
824.00,0.0560
823.00,0.0561
822.00,0.0564
821.00,0.0567
820.00,0.0569
819.00,0.0571
818.00,0.0571
817.00,0.0571
816.00,0.0571
815.00,0.0571
814.00,0.0572
813.00,0.0573
812.00,0.0574
811.00,0.0575
810.00,0.0576
809.00,0.0577
808.00,0.0579
807.00,0.0581
806.00,0.0584
805.00,0.0587
804.00,0.0590
803.00,0.0592
802.00,0.0595
801.00,0.0598
800.00,0.0601
799.00,0.0603
798.00,0.0603
797.00,0.0604
796.00,0.0606
795.00,0.0609
794.00,0.0610
793.00,0.0610
792.00,0.0610
791.00,0.0611
790.00,0.0612
789.00,0.0614
788.00,0.0617
787.00,0.0618
786.00,0.0620
785.00,0.0621
784.00,0.0622
783.00,0.0623
782.00,0.0624
781.00,0.0625
780.00,0.0625
779.00,0.0624
778.00,0.0624
777.00,0.0625
776.00,0.0627
775.00,0.0628
774.00,0.0629
773.00,0.0629
772.00,0.0629
771.00,0.0629
770.00,0.0628
769.00,0.0628
768.00,0.0627
767.00,0.0628
766.00,0.0628
765.00,0.0630
764.00,0.0632
763.00,0.0633
762.00,0.0634
761.00,0.0635
760.00,0.0637
759.00,0.0640
758.00,0.0642
757.00,0.0645
756.00,0.0647
755.00,0.0647
754.00,0.0646
753.00,0.0646
752.00,0.0647
751.00,0.0649
750.00,0.0651
749.00,0.0652
748.00,0.0654
747.00,0.0655
746.00,0.0656
745.00,0.0656
744.00,0.0656
743.00,0.0655
742.00,0.0652
741.00,0.0650
740.00,0.0650
739.00,0.0652
738.00,0.0654
737.00,0.0656
736.00,0.0657
735.00,0.0656
734.00,0.0654
733.00,0.0654
732.00,0.0656
731.00,0.0659
730.00,0.0660
729.00,0.0660
728.00,0.0659
727.00,0.0658
726.00,0.0658
725.00,0.0660
724.00,0.0662
723.00,0.0663
722.00,0.0665
721.00,0.0667
720.00,0.0669
719.00,0.0670
718.00,0.0670
717.00,0.0670
716.00,0.0671
715.00,0.0674
714.00,0.0678
713.00,0.0682
712.00,0.0685
711.00,0.0687
710.00,0.0687
709.00,0.0687
708.00,0.0689
707.00,0.0692
706.00,0.0695
705.00,0.0698
704.00,0.0702
703.00,0.0704
702.00,0.0705
701.00,0.0706
700.00,0.0709
699.00,0.0713
698.00,0.0717
697.00,0.0722
696.00,0.0726
695.00,0.0727
694.00,0.0726
693.00,0.0724
692.00,0.0723
691.00,0.0724
690.00,0.0726
689.00,0.0727
688.00,0.0728
687.00,0.0729
686.00,0.0729
685.00,0.0729
684.00,0.0729
683.00,0.0728
682.00,0.0729
681.00,0.0731
680.00,0.0734
679.00,0.0738
678.00,0.0742
677.00,0.0746
676.00,0.0750
675.00,0.0752
674.00,0.0752
673.00,0.0750
672.00,0.0747
671.00,0.0745
670.00,0.0745
669.00,0.0756
668.00,0.0777
667.00,0.0788
666.00,0.0783
665.00,0.0775
664.00,0.0769
663.00,0.0766
662.00,0.0765
661.00,0.0767
660.00,0.0773
659.00,0.0779
658.00,0.0782
657.00,0.0782
656.00,0.0780
655.00,0.0780
654.00,0.0783
653.00,0.0790
652.00,0.0792
651.00,0.0792
650.00,0.0791
